/*** Spectra Vista SIG Data ***/
name= 31_20220926_ACRU_13_avg.sig
comm= Averaged Ref/Tar of files: HR.092722.0012_moc.sig,HR.092722.0013_moc.sig,HR.092722.0014_moc.sig
data=
337.3  6417.60  530.98  8.27
338.8  6637.80  518.56  7.81
340.3  7089.38  540.14  7.62
341.8  7348.73  518.43  7.05
343.2  7638.95  519.42  6.80
344.7  8072.25  498.89  6.18
346.2  8554.00  496.63  5.81
347.7  8943.95  496.01  5.55
349.2  9298.80  491.04  5.28
350.6  9715.65  495.35  5.10
352.1  10258.75  493.23  4.81
353.6  10801.60  505.84  4.68
355.1  11375.78  519.53  4.57
356.6  12038.88  529.28  4.40
358.0  12601.68  550.02  4.36
359.5  13109.63  557.48  4.25
361.0  13816.90  572.67  4.14
362.5  14476.43  575.65  3.98
364.0  15218.68  601.31  3.95
365.4  15878.28  627.02  3.95
366.9  16577.55  641.84  3.87
368.4  17264.35  655.65  3.80
369.9  18073.00  681.43  3.77
371.3  18961.53  724.34  3.82
372.8  19741.00  750.06  3.80
374.3  20619.20  766.46  3.72
375.8  21446.95  781.81  3.65
377.2  22270.95  789.25  3.54
378.7  23177.00  799.66  3.45
380.2  23989.88  829.54  3.46
381.7  24950.75  845.00  3.39
383.1  25940.70  873.73  3.37
384.6  26865.83  881.26  3.28
386.1  27891.53  902.85  3.24
387.6  28811.10  915.31  3.18
389.0  29882.25  941.65  3.15
390.5  30850.83  980.05  3.18
392.0  31929.75  1003.46  3.14
393.4  33034.13  1029.46  3.12
394.9  34103.00  1057.75  3.10
396.4  35268.20  1072.72  3.04
397.9  36372.60  1104.11  3.04
399.3  37339.03  1118.97  3.00
400.8  38550.60  1160.78  3.01
402.2  39763.35  1193.97  3.00
403.7  40987.35  1221.59  2.98
405.2  42135.40  1254.80  2.98
406.6  43397.40  1275.30  2.94
408.1  44509.28  1309.01  2.94
409.6  45683.70  1341.10  2.94
411.0  46923.25  1377.05  2.93
412.5  48335.60  1423.50  2.95
414.0  49695.98  1462.64  2.94
415.4  51045.30  1494.93  2.93
416.9  52384.90  1533.17  2.93
418.4  53724.68  1573.39  2.93
419.8  55075.30  1613.31  2.93
421.3  56548.80  1661.88  2.94
422.7  58068.40  1707.38  2.94
424.2  59617.73  1752.99  2.94
425.7  61067.88  1799.91  2.95
427.1  62597.30  1845.51  2.95
428.6  64073.35  1891.29  2.95
430.0  65647.18  1939.81  2.95
431.5  67337.40  1986.18  2.95
432.9  69036.38  2032.73  2.94
434.4  70754.20  2085.45  2.95
435.9  72438.30  2143.74  2.96
437.3  74177.25  2190.35  2.95
438.8  75829.65  2240.63  2.95
440.2  77573.13  2295.10  2.96
441.7  79460.13  2358.93  2.97
443.1  81310.50  2420.87  2.98
444.6  83116.65  2476.06  2.98
446.0  85004.25  2539.98  2.99
447.5  87000.00  2601.90  2.99
448.9  88782.85  2670.53  3.01
450.4  90700.00  2736.67  3.02
451.8  92535.38  2809.69  3.04
453.3  94402.13  2872.20  3.04
454.7  96259.05  2930.41  3.04
456.2  98086.45  2991.05  3.05
457.6  100035.00  3056.50  3.06
459.1  101922.45  3125.22  3.07
460.5  103816.50  3180.65  3.06
462.0  105887.70  3251.81  3.07
463.4  107919.70  3317.97  3.07
464.8  109938.15  3376.71  3.07
466.3  111873.90  3446.00  3.08
467.7  113940.80  3511.13  3.08
469.2  115849.05  3573.98  3.09
470.6  117939.50  3637.33  3.08
472.0  120059.15  3708.22  3.09
473.5  122110.18  3780.05  3.10
474.9  124333.15  3853.85  3.10
476.4  126434.40  3922.71  3.10
477.8  128576.00  3996.27  3.11
479.2  130708.60  4067.63  3.11
480.7  132909.23  4149.89  3.12
482.1  135157.00  4232.90  3.13
483.6  137379.60  4315.73  3.14
485.0  139679.18  4411.52  3.16
486.4  141834.90  4497.88  3.17
487.9  144159.75  4595.33  3.19
489.3  146360.33  4705.56  3.22
490.7  148622.80  4822.95  3.25
492.2  150898.25  4940.49  3.27
493.6  153187.90  5072.98  3.31
495.0  155512.50  5225.76  3.36
496.5  157739.40  5381.64  3.41
497.9  160120.13  5562.58  3.47
499.3  162446.88  5763.64  3.55
500.7  164819.20  5997.44  3.64
502.2  167261.35  6260.04  3.74
503.6  169594.80  6571.94  3.88
505.0  171932.75  6928.03  4.03
506.5  174440.50  7343.06  4.21
507.9  176953.43  7817.62  4.42
509.3  179308.13  8359.68  4.66
510.7  181949.63  9001.68  4.95
512.2  184635.00  9734.77  5.27
513.6  187531.90  10566.66  5.63
515.0  190346.80  11496.06  6.04
516.4  193252.20  12531.98  6.48
517.8  196145.50  13660.29  6.96
519.3  199131.20  14895.75  7.48
520.7  201840.80  16184.12  8.02
522.1  204551.43  17526.56  8.57
523.5  207169.48  18889.91  9.12
524.9  210095.78  20277.86  9.65
526.3  212820.75  21612.86  10.16
527.8  215632.13  22932.71  10.64
529.2  218217.60  24220.52  11.10
530.6  220995.90  25470.31  11.53
532.0  223919.48  26654.90  11.90
533.4  226459.00  27696.59  12.23
534.8  228998.55  28650.82  12.51
536.3  231976.98  29581.46  12.75
537.7  234982.50  30466.31  12.97
539.1  237890.58  31296.66  13.16
540.5  240777.00  32076.14  13.32
541.9  243756.25  32861.48  13.48
543.3  246370.40  33564.26  13.62
544.7  249370.00  34322.09  13.76
546.1  252197.40  35049.01  13.90
547.5  255139.20  35781.94  14.02
549.0  258216.00  36505.19  14.14
550.4  261076.73  37154.91  14.23
551.8  264041.33  37729.26  14.29
553.2  266955.60  38201.46  14.31
554.6  269812.85  38567.41  14.29
556.0  272756.40  38822.70  14.23
557.4  275873.70  38995.28  14.14
558.8  278770.68  39028.33  14.00
560.2  281980.00  38991.24  13.83
561.6  284924.48  38808.23  13.62
563.0  287742.00  38502.62  13.38
564.4  290919.30  38168.64  13.12
565.8  293927.85  37716.03  12.83
567.2  297120.43  37207.12  12.52
568.6  300127.28  36585.27  12.19
570.0  303017.00  35880.71  11.84
571.4  306423.83  35196.14  11.49
572.8  309593.80  34481.72  11.14
574.2  312456.90  33771.70  10.81
575.6  315530.38  33129.50  10.50
577.0  318575.40  32546.53  10.22
578.4  321978.13  32067.92  9.96
579.8  325076.45  31605.09  9.72
581.2  328120.75  31204.25  9.51
582.5  331042.50  30828.43  9.31
583.9  334098.60  30522.20  9.14
585.3  336973.50  30238.03  8.97
586.7  339985.80  30007.56  8.83
588.1  342976.00  29825.77  8.70
589.5  346326.30  29715.17  8.58
590.9  349298.33  29620.60  8.48
592.3  352241.33  29573.73  8.40
593.7  355193.65  29568.08  8.32
595.0  358151.40  29586.07  8.26
596.4  361483.50  29638.68  8.20
597.8  364150.80  29639.99  8.14
599.2  367245.45  29651.77  8.07
600.6  370453.88  29626.57  8.00
602.0  373429.20  29534.86  7.91
603.3  376350.00  29376.04  7.81
604.7  379370.85  29149.21  7.68
606.1  382404.90  28867.33  7.55
607.5  385721.93  28542.81  7.40
608.9  388834.60  28159.41  7.24
610.2  392012.78  27749.79  7.08
611.6  394927.50  27304.62  6.91
613.0  397742.85  26845.19  6.75
614.4  400528.28  26409.60  6.59
615.8  403797.00  26035.59  6.45
617.1  406524.68  25663.78  6.31
618.5  409774.80  25391.37  6.20
619.9  412531.35  25134.51  6.09
621.3  415478.70  24955.39  6.01
622.6  418421.25  24840.22  5.94
624.0  421119.38  24769.89  5.88
625.4  424237.95  24784.66  5.84
626.8  427180.65  24834.53  5.81
628.1  429963.45  24907.54  5.79
629.5  432712.18  25008.17  5.78
630.9  435503.90  25114.97  5.77
632.2  438492.08  25199.40  5.75
633.6  440905.40  25198.35  5.72
635.0  443777.55  25148.31  5.67
636.3  446834.08  24987.41  5.59
637.7  449554.25  24697.32  5.49
639.1  452522.40  24305.54  5.37
640.4  455246.13  23817.03  5.23
641.8  458074.80  23267.07  5.08
643.2  460620.60  22670.72  4.92
644.5  463540.00  22092.67  4.77
645.9  466125.10  21498.86  4.61
647.2  468489.18  20981.51  4.48
648.6  471109.60  20535.18  4.36
650.0  473823.00  20181.12  4.26
651.3  476781.05  19910.41  4.18
652.7  480776.25  19700.10  4.10
654.0  483709.35  19468.56  4.02
655.4  485948.40  19212.84  3.95
656.8  487560.68  18909.06  3.88
658.1  490175.18  18619.39  3.80
659.5  493387.20  18316.80  3.71
660.8  496280.40  18029.34  3.63
662.2  499046.05  17745.60  3.56
663.5  501887.75  17491.22  3.49
664.9  503752.15  17263.76  3.43
666.2  505918.73  17089.20  3.38
667.6  508468.50  17020.20  3.35
668.9  511099.20  17024.91  3.33
670.3  514242.75  17095.28  3.32
671.6  516304.80  17197.44  3.33
673.0  518636.80  17368.65  3.35
674.3  521074.40  17587.75  3.38
675.7  523589.40  17853.02  3.41
677.0  525912.38  18150.32  3.45
678.4  528048.60  18497.26  3.50
679.7  530388.23  18928.86  3.57
681.1  532914.08  19434.84  3.65
682.4  535069.13  19996.16  3.74
683.8  537357.38  20667.70  3.85
685.1  539539.50  21491.02  3.98
686.4  541809.45  22562.32  4.16
687.8  544148.93  24017.49  4.41
689.1  546560.00  26007.96  4.76
690.5  548608.55  28717.66  5.23
691.8  551172.05  32424.01  5.88
693.1  553581.00  37275.77  6.73
694.5  555951.40  43298.79  7.79
695.8  558311.20  50476.41  9.04
697.1  560583.60  58693.68  10.47
698.5  562893.38  67848.92  12.05
699.8  565230.40  77735.89  13.75
701.1  567128.63  88064.66  15.53
702.5  569166.75  98675.23  17.34
703.8  571543.40  109429.05  19.15
705.1  573377.20  119972.62  20.92
706.5  575654.30  130408.13  22.65
707.8  577481.55  140484.41  24.33
709.1  579804.90  150345.74  25.93
710.5  581956.15  159864.51  27.47
711.8  583854.00  169004.74  28.95
713.1  585703.00  177863.56  30.37
714.4  587764.53  186473.63  31.73
715.8  590041.35  194877.86  33.03
717.1  592320.05  202990.75  34.27
718.4  594511.95  210812.72  35.46
719.7  596702.93  218313.60  36.59
721.0  598381.70  225364.16  37.66
722.4  600187.50  232163.96  38.68
723.7  602148.20  238721.07  39.64
725.0  603864.70  244869.55  40.55
726.3  606114.60  250960.87  41.40
727.6  607773.75  256517.67  42.21
729.0  609587.30  261820.66  42.95
730.3  611556.08  266873.13  43.64
731.6  613019.70  271449.15  44.28
732.9  614967.28  275963.32  44.87
734.2  616555.50  280071.78  45.43
735.5  618329.25  284002.13  45.93
736.8  620324.95  287771.97  46.39
738.1  622141.43  291238.62  46.81
739.5  623918.55  294448.04  47.19
740.8  625801.55  297543.11  47.55
742.1  627334.85  300282.57  47.87
743.4  628995.85  302928.26  48.16
744.7  630826.00  305470.67  48.42
746.0  632247.85  307663.04  48.66
747.3  633824.10  309727.56  48.87
748.6  635350.35  311635.92  49.05
749.9  637086.10  313509.33  49.21
751.2  638257.98  315043.95  49.36
752.5  639736.25  316583.88  49.49
753.8  640964.25  317949.07  49.60
755.1  642533.58  319355.90  49.70
756.4  643623.18  320460.01  49.79
757.7  645654.63  321918.59  49.86
759.0  649257.23  324109.31  49.92
760.3  651952.85  325793.06  49.97
761.6  654722.33  327461.80  50.02
762.9  656051.00  328406.68  50.06
764.2  656822.45  328978.01  50.09
765.5  657671.25  329567.63  50.11
766.8  658156.45  329957.23  50.13
768.1  659200.50  330567.72  50.15
769.3  660436.95  331258.55  50.16
770.6  661756.85  332007.60  50.17
771.9  662882.70  332629.92  50.18
773.2  664232.40  333372.72  50.19
774.5  665133.60  333855.25  50.19
775.8  666153.55  334371.33  50.19
777.1  667363.58  334974.63  50.19
778.4  668565.25  335609.10  50.20
779.6  669823.80  336234.15  50.20
780.9  670404.60  336570.31  50.20
782.2  671315.38  337050.04  50.21
783.5  672247.25  337507.83  50.21
784.8  672939.75  337897.60  50.21
786.0  673777.03  338281.92  50.21
787.3  674539.48  338656.84  50.21
788.6  675334.13  339084.76  50.21
789.9  675990.30  339393.87  50.21
791.2  677320.80  340061.45  50.21
792.4  678433.25  340602.06  50.20
793.7  679952.93  341357.79  50.20
795.0  680883.70  341831.41  50.20
796.2  682176.85  342456.05  50.20
797.5  683293.75  343012.62  50.20
798.8  684683.13  343692.13  50.20
800.0  685790.00  344241.33  50.20
801.3  686991.38  344791.35  50.19
802.6  687888.00  345283.20  50.19
803.8  688956.98  345795.86  50.19
805.1  689992.50  346275.34  50.19
806.4  690859.23  346724.80  50.19
807.7  691964.70  347270.72  50.19
808.9  693086.93  347808.31  50.18
810.2  693861.00  348207.00  50.18
811.4  694858.40  348684.75  50.18
812.7  696212.15  349336.91  50.18
814.0  697412.10  349931.12  50.18
815.2  698819.85  350573.86  50.17
816.5  699912.50  351121.58  50.17
817.7  700623.00  351526.30  50.17
819.0  701304.80  351854.51  50.17
820.2  702007.05  352227.18  50.17
821.5  703102.40  352767.02  50.17
822.7  704137.88  353235.82  50.17
824.0  705001.05  353667.76  50.17
825.2  705613.35  353997.69  50.17
826.5  706249.50  354369.85  50.18
827.7  707330.58  354881.06  50.17
829.0  708214.28  355273.31  50.16
830.2  709169.40  355728.92  50.16
831.5  710093.48  356177.01  50.16
832.7  710979.75  356636.25  50.16
834.0  711538.43  356898.64  50.16
835.2  712527.55  357381.62  50.16
836.4  713256.00  357760.15  50.16
837.7  713925.00  358151.36  50.17
838.9  715025.65  358741.61  50.17
840.1  715921.80  359175.90  50.17
841.4  716810.90  359642.35  50.17
842.6  717689.00  360056.13  50.17
843.8  718497.00  360481.53  50.17
845.1  719301.00  360911.26  50.18
846.3  720086.85  361380.78  50.19
847.5  721139.25  361828.82  50.17
848.8  721925.75  362281.60  50.18
850.0  723115.80  362856.62  50.18
851.2  724021.60  363259.52  50.17
852.5  725105.50  363842.51  50.18
853.7  725718.83  364189.80  50.18
854.9  726805.95  364759.87  50.19
856.1  727925.00  365215.41  50.17
857.4  728838.60  365674.15  50.17
858.6  729653.40  366134.91  50.18
859.8  730847.90  366698.22  50.17
861.0  731710.70  367174.71  50.18
862.2  732765.60  367674.56  50.18
863.5  733596.55  368099.97  50.18
864.7  734562.50  368555.83  50.17
865.9  735597.50  369014.36  50.17
867.1  736284.38  369316.49  50.16
868.3  737471.90  369877.34  50.15
869.5  738503.75  370456.47  50.16
870.8  739597.05  370979.23  50.16
872.0  740624.80  371389.70  50.15
873.2  741316.13  371769.83  50.15
874.4  742203.55  372165.57  50.14
875.6  743341.05  372702.75  50.14
876.8  744712.65  373358.54  50.13
878.0  745592.05  373816.94  50.14
879.2  746755.60  374287.11  50.12
880.4  747830.00  374726.82  50.11
881.6  748834.00  375149.37  50.10
882.8  749920.50  375719.81  50.10
884.0  750796.48  376103.13  50.09
885.2  751888.75  376738.46  50.11
886.5  753268.95  377329.00  50.09
887.7  754347.80  377654.44  50.06
888.8  755739.25  378297.33  50.06
890.0  756682.50  378689.50  50.05
891.2  757749.53  379129.27  50.03
892.4  759100.65  379782.43  50.03
893.6  760573.08  380550.39  50.03
894.8  762147.53  381222.86  50.02
896.0  763442.48  381861.32  50.02
897.2  765413.55  382712.50  50.00
898.4  767337.90  383600.08  49.99
899.6  768426.60  384148.28  49.99
900.8  769046.85  384292.48  49.97
902.0  769323.55  384484.23  49.98
903.2  769532.10  384489.24  49.96
904.3  770445.00  384946.71  49.96
905.5  771828.75  385467.82  49.94
906.7  773010.83  385965.70  49.93
907.9  773958.30  386353.97  49.92
909.1  774941.48  386766.42  49.91
910.2  775372.50  386923.50  49.90
911.4  775166.18  386871.26  49.91
912.6  775757.50  386979.19  49.88
913.8  776779.85  387367.06  49.87
915.0  777130.40  387387.08  49.85
916.2  777139.20  387408.32  49.85
917.3  777725.25  387652.59  49.84
918.5  778030.35  387795.89  49.84
919.7  778265.50  387703.89  49.82
920.8  778454.98  387717.63  49.81
922.0  778329.48  387566.05  49.79
923.2  778772.63  387610.68  49.77
924.4  779252.63  387728.14  49.76
925.5  779787.40  388051.09  49.76
926.7  780578.85  388334.66  49.75
927.9  781947.88  388885.71  49.73
929.0  785192.40  390219.38  49.70
930.2  789526.00  392192.72  49.67
931.4  794642.40  394500.71  49.65
932.5  798961.35  396588.12  49.64
933.7  801408.90  397828.62  49.64
934.9  802900.00  398298.83  49.61
936.0  801975.83  397556.66  49.57
937.2  798854.75  395755.89  49.54
938.3  794696.50  393653.25  49.54
939.5  792604.80  392340.67  49.50
940.7  792522.50  392093.53  49.47
941.8  795080.65  393318.85  49.47
943.0  797394.53  394017.97  49.41
944.2  798978.00  394673.48  49.40
945.3  798510.00  394186.28  49.37
946.5  796521.25  392998.50  49.34
947.6  797651.00  393109.77  49.28
948.8  796436.53  392202.42  49.24
949.9  796802.30  392147.73  49.22
951.1  796688.95  391712.11  49.17
952.2  795783.05  391042.43  49.14
953.4  795610.50  390414.46  49.07
954.5  794112.38  389185.30  49.01
955.7  793932.95  388617.15  48.95
956.8  794652.38  388430.00  48.88
958.0  793079.10  387447.82  48.85
959.1  791985.60  386830.08  48.84
960.3  792262.50  386394.52  48.77
961.4  792991.70  386278.43  48.71
962.6  792100.80  385690.29  48.69
963.7  792202.60  385673.68  48.68
964.9  792513.45  385609.87  48.66
966.0  793108.40  385570.11  48.62
967.2  792632.40  385683.76  48.66
968.3  794360.10  386072.72  48.60
969.5  794268.05  386100.28  48.61
970.6  794905.30  385996.52  48.56
971.8  794203.03  385865.54  48.59
972.9  795042.50  386145.40  48.57
974.0  795814.58  386418.80  48.56
975.2  794272.50  385578.64  48.54
976.3  795221.70  385945.38  48.53
977.5  794647.13  385189.06  48.47
978.6  794893.95  385456.61  48.49
979.7  794270.40  385156.05  48.49
980.9  793840.55  385300.33  48.54
982.0  793447.35  385100.58  48.54
983.2  793672.60  384893.81  48.50
984.3  792146.60  383998.28  48.48
985.4  791919.10  383671.44  48.45
986.6  790647.80  383862.13  48.55
987.7  789476.50  383333.86  48.56
988.9  790297.18  383765.05  48.56
990.0  791612.75  383525.28  48.45
993.1  869155.20  418155.65  48.11
996.9  868127.00  418434.89  48.20
1000.7  867238.03  418689.20  48.28
1004.5  865731.67  418624.45  48.35
1008.4  866427.23  419520.85  48.42
1012.2  867249.17  420455.69  48.48
1016.0  866730.55  420699.70  48.54
1019.8  864971.33  420274.60  48.59
1023.7  863053.58  419717.66  48.63
1027.5  860178.73  418614.64  48.67
1031.3  858273.58  417822.87  48.68
1035.1  856846.05  417317.41  48.70
1038.9  856247.68  417101.70  48.71
1042.7  855634.13  416969.89  48.73
1046.5  854868.88  416631.18  48.74
1050.3  853165.13  415803.39  48.74
1054.2  851041.40  414810.57  48.74
1058.0  850075.20  414290.11  48.74
1061.8  848843.25  413662.25  48.73
1065.6  846737.00  412508.78  48.72
1069.4  844250.82  411156.57  48.70
1073.2  842006.75  409831.53  48.67
1077.0  840297.33  408774.11  48.65
1080.8  839912.33  408268.38  48.61
1084.6  839573.17  407851.69  48.58
1088.4  838981.65  407326.23  48.55
1092.2  837679.73  406373.87  48.51
1096.0  836202.43  405269.70  48.47
1099.8  834632.75  404079.35  48.41
1103.6  832697.73  402697.71  48.36
1107.4  830943.93  401394.24  48.31
1111.2  829381.73  400123.03  48.24
1114.9  828343.50  399018.83  48.17
1118.7  827801.33  398033.54  48.08
1122.5  827766.98  397179.39  47.98
1126.3  825331.50  395007.15  47.86
1130.1  824752.35  393328.20  47.69
1133.9  821258.99  389845.37  47.47
1137.7  818563.60  386279.23  47.19
1141.4  814700.03  381786.43  46.86
1145.2  813649.48  378319.31  46.50
1149.0  811498.80  374583.48  46.16
1152.8  808072.85  370567.95  45.86
1156.6  804471.45  367071.36  45.63
1160.3  801197.70  364313.04  45.47
1164.1  796554.27  361281.32  45.36
1167.9  793472.71  359319.49  45.28
1171.7  790911.83  357730.95  45.23
1175.4  788300.50  356260.05  45.19
1179.2  786076.50  354898.57  45.15
1183.0  786305.63  354544.53  45.09
1186.7  786538.67  354247.70  45.04
1190.5  785266.17  353374.15  45.00
1194.3  782502.23  351824.76  44.96
1198.0  779290.40  350183.85  44.94
1201.8  776622.00  348940.37  44.93
1205.6  775127.21  348344.69  44.94
1209.3  774101.25  348226.92  44.98
1213.1  772984.29  348070.48  45.03
1216.8  771179.87  347806.80  45.10
1220.6  768862.83  347322.69  45.17
1224.3  766470.83  346784.46  45.24
1228.1  764184.28  346288.01  45.31
1231.9  761689.50  345547.82  45.37
1235.6  759146.03  344708.51  45.41
1239.4  756666.03  343920.28  45.45
1243.1  754378.20  343088.58  45.48
1246.9  752290.55  342266.89  45.50
1250.6  750186.72  341363.55  45.50
1254.3  748190.40  340461.10  45.50
1258.1  745948.67  339416.26  45.50
1261.8  743352.17  338197.06  45.50
1265.6  741023.12  336969.59  45.47
1269.3  738993.87  335835.43  45.44
1273.1  739500.28  335808.25  45.41
1276.8  739396.53  335381.85  45.36
1280.6  738306.89  334445.55  45.30
1284.3  735422.97  332658.07  45.23
1288.0  733519.48  331207.60  45.15
1291.8  732186.00  329893.20  45.06
1295.5  730697.38  328457.16  44.95
1299.2  728365.95  326521.06  44.83
1302.9  725395.09  324115.73  44.68
1306.7  722181.60  321449.15  44.51
1310.4  719108.77  318570.84  44.30
1314.1  716490.00  315748.90  44.07
1317.9  713866.94  312709.80  43.81
1321.6  710979.97  309329.50  43.51
1325.3  708058.80  305699.65  43.17
1329.0  705371.33  302043.62  42.82
1332.8  701655.00  297705.14  42.43
