/*** Spectra Vista SIG Data ***/
name= 57_20220722_ACRU_39_avg.sig
comm= Averaged Ref/Tar of files: HR.072222.0045_moc.sig,HR.072222.0046_moc.sig,HR.072222.0047_moc.sig
data=
337.3  3126.38  260.88  8.34
338.8  3270.80  252.87  7.73
340.3  3420.05  250.76  7.33
341.8  3566.55  229.93  6.45
343.2  3729.60  229.19  6.15
344.7  3923.80  225.84  5.76
346.2  4085.00  225.65  5.52
347.7  4247.10  223.21  5.26
349.2  4422.60  218.16  4.93
350.6  4664.08  210.56  4.51
352.1  4930.05  204.82  4.15
353.6  5205.00  214.81  4.13
355.1  5455.35  220.65  4.04
356.6  5735.63  224.12  3.91
358.0  5965.30  224.21  3.76
359.5  6241.80  227.19  3.64
361.0  6523.65  218.88  3.36
362.5  6850.35  230.30  3.36
364.0  7197.43  237.59  3.30
365.4  7530.80  241.93  3.21
366.9  7900.75  250.47  3.17
368.4  8209.78  251.45  3.06
369.9  8539.90  257.90  3.02
371.3  8917.80  274.63  3.08
372.8  9319.05  284.21  3.05
374.3  9728.75  287.69  2.96
375.8  10133.20  297.22  2.93
377.2  10517.90  296.67  2.82
378.7  10894.50  294.11  2.70
380.2  11298.00  302.82  2.68
381.7  11782.90  311.95  2.65
383.1  12262.25  313.65  2.56
384.6  12732.20  326.27  2.56
386.1  13188.20  328.42  2.49
387.6  13690.60  333.67  2.44
389.0  14177.20  343.04  2.42
390.5  14629.05  348.44  2.38
392.0  15182.30  359.72  2.37
393.4  15765.00  363.35  2.30
394.9  16260.30  374.35  2.30
396.4  16792.88  374.57  2.23
397.9  17322.50  385.11  2.22
399.3  17854.13  394.59  2.21
400.8  18369.73  405.92  2.21
402.2  18977.15  412.44  2.17
403.7  19548.90  422.35  2.16
405.2  20147.43  437.43  2.17
406.6  20717.60  438.37  2.12
408.1  21266.60  448.99  2.11
409.6  21818.30  456.56  2.09
411.0  22438.85  471.73  2.10
412.5  23074.10  483.54  2.10
414.0  23696.13  494.82  2.09
415.4  24366.75  503.12  2.06
416.9  24999.68  515.84  2.06
418.4  25659.45  527.52  2.06
419.8  26299.00  541.15  2.06
421.3  27004.88  556.48  2.06
422.7  27753.00  574.70  2.07
424.2  28485.00  589.50  2.07
425.7  29209.60  604.50  2.07
427.1  29925.08  617.02  2.06
428.6  30674.50  635.35  2.07
430.0  31351.55  649.49  2.07
431.5  32178.30  670.06  2.08
432.9  33006.45  687.57  2.08
434.4  33864.30  706.43  2.09
435.9  34650.00  723.73  2.09
437.3  35420.00  738.31  2.08
438.8  36218.10  756.06  2.09
440.2  37029.30  774.88  2.09
441.7  37948.80  796.09  2.10
443.1  38809.25  813.68  2.10
444.6  39719.20  834.41  2.10
446.0  40585.80  852.40  2.10
447.5  41489.25  876.19  2.11
448.9  42363.60  894.89  2.11
450.4  43317.75  918.83  2.12
451.8  44122.00  940.46  2.13
453.3  45004.15  965.31  2.14
454.7  45954.40  986.74  2.15
456.2  46776.83  1002.33  2.14
457.6  47683.80  1025.84  2.15
459.1  48609.60  1045.19  2.15
460.5  49487.50  1064.65  2.15
462.0  50488.83  1089.73  2.16
463.4  51457.20  1108.53  2.15
464.8  52378.13  1132.20  2.16
466.3  53323.05  1154.32  2.16
467.7  54259.13  1176.67  2.17
469.2  55258.45  1197.58  2.17
470.6  56157.85  1220.34  2.17
472.0  57130.43  1240.21  2.17
473.5  58082.00  1256.45  2.16
474.9  59052.00  1279.24  2.17
476.4  60134.40  1307.52  2.17
477.8  61146.50  1330.13  2.18
479.2  62103.50  1353.89  2.18
480.7  63154.43  1377.75  2.18
482.1  64201.35  1404.27  2.19
483.6  65328.45  1432.34  2.19
485.0  66338.93  1459.63  2.20
486.4  67468.35  1488.26  2.21
487.9  68488.88  1524.62  2.23
489.3  69590.35  1560.29  2.24
490.7  70606.38  1593.67  2.26
492.2  71765.40  1632.68  2.28
493.6  72810.50  1670.66  2.29
495.0  73827.00  1716.00  2.32
496.5  74959.90  1762.96  2.35
497.9  75987.15  1812.15  2.38
499.3  77087.78  1869.46  2.43
500.7  78260.30  1934.92  2.47
502.2  79351.00  2006.18  2.53
503.6  80504.40  2090.16  2.60
505.0  81483.30  2177.69  2.67
506.5  82725.23  2283.51  2.76
507.9  83865.03  2400.80  2.86
509.3  85174.00  2539.96  2.98
510.7  86346.00  2702.70  3.13
512.2  87660.60  2889.49  3.30
513.6  89027.40  3111.90  3.50
515.0  90342.98  3356.56  3.72
516.4  91627.20  3636.63  3.97
517.8  93154.38  3950.97  4.24
519.3  94372.88  4289.79  4.55
520.7  95821.00  4671.56  4.88
522.1  97042.40  5060.28  5.21
523.5  98314.70  5470.24  5.56
524.9  99672.75  5882.12  5.90
526.3  100966.60  6282.29  6.22
527.8  102346.20  6677.41  6.52
529.2  103420.90  7055.22  6.82
530.6  104907.00  7436.93  7.09
532.0  106540.00  7796.00  7.32
533.4  107744.78  8096.65  7.51
534.8  108537.58  8332.00  7.68
536.3  110127.30  8602.95  7.81
537.7  112051.80  8881.68  7.93
539.1  113426.98  9101.01  8.02
540.5  114523.20  9285.15  8.11
541.9  116148.60  9508.37  8.19
543.3  117324.20  9696.54  8.26
544.7  118537.20  9882.39  8.34
546.1  120180.23  10104.76  8.41
547.5  121363.20  10278.61  8.47
549.0  123002.00  10477.24  8.52
550.4  124376.25  10640.58  8.56
551.8  125815.85  10782.61  8.57
553.2  127250.30  10890.61  8.56
554.6  128512.80  10944.17  8.52
556.0  129944.25  10974.55  8.45
557.4  131447.58  10967.90  8.34
558.8  132956.10  10925.26  8.22
560.2  134304.38  10830.71  8.06
561.6  135848.18  10718.69  7.89
563.0  137337.73  10566.58  7.69
564.4  138816.90  10386.22  7.48
565.8  140250.00  10173.89  7.25
567.2  141867.75  9945.08  7.01
568.6  143267.25  9683.31  6.76
570.0  144595.63  9405.68  6.50
571.4  146202.55  9148.35  6.26
572.8  147840.13  8903.39  6.02
574.2  149363.20  8673.92  5.81
575.6  150795.00  8454.86  5.61
577.0  152211.00  8262.99  5.43
578.4  153824.13  8100.08  5.27
579.8  155222.33  7950.97  5.12
581.2  156829.68  7832.20  4.99
582.5  158148.90  7710.19  4.88
583.9  159571.40  7619.20  4.77
585.3  161237.93  7547.27  4.68
586.7  162602.05  7476.57  4.60
588.1  163990.63  7421.88  4.53
589.5  165534.25  7385.93  4.46
590.9  167052.80  7358.51  4.40
592.3  168747.30  7354.06  4.36
593.7  170085.83  7347.64  4.32
595.0  171598.50  7353.49  4.29
596.4  172934.30  7351.65  4.25
597.8  174302.83  7350.39  4.22
599.2  175758.00  7346.49  4.18
600.6  177382.40  7336.87  4.14
602.0  178606.20  7293.48  4.08
603.3  180269.20  7256.86  4.03
604.7  181822.80  7199.82  3.96
606.1  183195.00  7126.84  3.89
607.5  184701.20  7044.46  3.81
608.9  186288.95  6959.17  3.74
610.2  187577.78  6859.35  3.66
611.6  189061.35  6762.49  3.58
613.0  190508.80  6671.22  3.50
614.4  191783.55  6583.80  3.43
615.8  193123.13  6500.47  3.37
617.1  194554.50  6432.44  3.31
618.5  196070.40  6382.33  3.26
619.9  197472.68  6346.39  3.21
621.3  198990.00  6322.31  3.18
622.6  200476.50  6310.30  3.15
624.0  201807.90  6308.01  3.13
625.4  203179.35  6314.49  3.11
626.8  204652.18  6337.85  3.10
628.1  205862.80  6356.80  3.09
629.5  207603.58  6398.17  3.08
630.9  209117.15  6431.69  3.08
632.2  210388.15  6453.73  3.07
633.6  211887.63  6471.62  3.05
635.0  213314.40  6470.15  3.03
636.3  214727.60  6451.42  3.00
637.7  215988.63  6404.26  2.97
639.1  217525.00  6355.00  2.92
640.4  218887.20  6285.90  2.87
641.8  220031.80  6198.35  2.82
643.2  221491.20  6120.26  2.76
644.5  222759.50  6035.36  2.71
645.9  224352.00  5965.85  2.66
647.2  226095.98  5919.43  2.62
648.6  227873.25  5884.46  2.58
650.0  229219.20  5853.40  2.55
651.3  229528.20  5811.46  2.53
652.7  230592.20  5778.74  2.51
654.0  232572.40  5771.24  2.48
655.4  233967.58  5756.65  2.46
656.8  234082.40  5704.83  2.44
658.1  235149.30  5675.00  2.41
659.5  237511.58  5669.98  2.39
660.8  239265.00  5664.43  2.37
662.2  240083.20  5637.97  2.35
663.5  241590.05  5631.59  2.33
664.9  242812.70  5634.03  2.32
666.2  243489.60  5631.61  2.31
667.6  245083.85  5673.53  2.31
668.9  246198.25  5725.21  2.33
670.3  247221.38  5771.90  2.33
671.6  248685.00  5854.49  2.35
673.0  249747.00  5947.20  2.38
674.3  250901.30  6050.35  2.41
675.7  252140.65  6159.97  2.44
677.0  253155.35  6276.08  2.48
678.4  254410.78  6414.52  2.52
679.7  255445.95  6560.93  2.57
681.1  256688.10  6725.94  2.62
682.4  257774.40  6910.35  2.68
683.8  258945.70  7106.52  2.74
685.1  259858.13  7315.16  2.82
686.4  261049.80  7567.87  2.90
687.8  262283.00  7872.26  3.00
689.1  263262.00  8251.57  3.13
690.5  264579.30  8773.97  3.32
691.8  265317.38  9471.18  3.57
693.1  266567.85  10446.18  3.92
694.5  267653.75  11735.97  4.38
695.8  268791.25  13403.43  4.99
697.1  269906.00  15501.20  5.74
698.5  270901.80  18064.44  6.67
699.8  271918.60  21081.27  7.75
701.1  272984.33  24540.40  8.99
702.5  273711.90  28345.57  10.36
703.8  274635.00  32471.14  11.82
705.1  275692.95  36853.89  13.37
706.5  276689.25  41399.29  14.96
707.8  277609.35  46056.33  16.59
709.1  278437.40  50760.25  18.23
710.5  279509.00  55552.25  19.87
711.8  280355.60  60298.35  21.51
713.1  281292.20  65073.10  23.13
714.4  282139.60  69785.83  24.73
715.8  282897.80  74435.27  26.31
717.1  284157.90  79145.82  27.85
718.4  285040.00  83680.00  29.36
719.7  286106.75  88170.07  30.82
721.0  286627.50  92389.72  32.23
722.4  287332.10  96553.09  33.60
723.7  288266.55  100646.24  34.91
725.0  289221.08  104623.30  36.17
726.3  290128.58  108416.14  37.37
727.6  290653.55  111905.54  38.50
729.0  291560.15  115360.35  39.57
730.3  292279.35  118601.12  40.58
731.6  293125.30  121710.35  41.52
732.9  293893.43  124622.77  42.40
734.2  294665.25  127380.84  43.23
735.5  295638.68  130068.16  44.00
736.8  296392.20  132504.67  44.71
738.1  297196.50  134806.02  45.36
739.5  298101.93  137026.20  45.97
740.8  298766.33  138984.90  46.52
742.1  299480.20  140852.72  47.03
743.4  300175.00  142601.91  47.51
744.7  301118.18  144352.49  47.94
746.0  301969.20  145936.33  48.33
747.3  302522.30  147255.91  48.68
748.6  303232.00  148557.39  48.99
749.9  303940.00  149758.51  49.27
751.2  304647.50  150879.52  49.53
752.5  305510.45  151998.74  49.75
753.8  306094.43  152911.25  49.96
755.1  306748.00  153792.72  50.14
756.4  307310.23  154547.79  50.29
757.7  308258.65  155429.85  50.42
759.0  309953.28  156647.67  50.54
760.3  311097.60  157531.56  50.64
761.6  312576.60  158561.84  50.73
762.9  313108.75  159071.80  50.80
764.2  313465.70  159462.18  50.87
765.5  313760.25  159784.67  50.93
766.8  314214.40  160156.19  50.97
768.1  314743.80  160539.99  51.01
769.3  315320.60  160933.53  51.04
770.6  315946.80  161359.87  51.07
771.9  316658.83  161797.49  51.10
773.2  317057.60  162068.25  51.12
774.5  317660.20  162427.30  51.13
775.8  318330.90  162805.77  51.14
777.1  318901.00  163138.39  51.16
778.4  319231.83  163350.79  51.17
779.6  319989.63  163766.07  51.18
780.9  320460.00  164030.86  51.19
782.2  320892.00  164300.14  51.20
783.5  321256.50  164484.47  51.20
784.8  321782.18  164767.55  51.20
786.0  322215.60  164984.64  51.20
787.3  322618.75  165197.59  51.21
788.6  323055.58  165426.96  51.21
789.9  323481.20  165676.05  51.22
791.2  324121.25  166008.41  51.22
792.4  324770.78  166359.19  51.22
793.7  325249.20  166613.83  51.23
795.0  325903.88  166930.56  51.22
796.2  326574.95  167259.86  51.22
797.5  327248.40  167621.21  51.22
798.8  327944.75  167952.13  51.21
800.0  328602.43  168293.58  51.21
801.3  329087.60  168545.05  51.22
802.6  329634.90  168847.51  51.22
803.8  330262.70  169159.00  51.22
805.1  330799.00  169409.25  51.21
806.4  331241.40  169637.17  51.21
807.7  331769.93  169903.40  51.21
808.9  332321.40  170187.02  51.21
810.2  332852.80  170449.95  51.21
811.4  333351.30  170703.03  51.21
812.7  333978.13  171006.49  51.20
814.0  334796.40  171412.87  51.20
815.2  335377.75  171717.35  51.20
816.5  335790.33  171928.00  51.20
817.7  336243.95  172181.10  51.21
819.0  336737.50  172437.74  51.21
820.2  336952.00  172530.28  51.20
821.5  337598.65  172866.94  51.20
822.7  337932.60  173058.30  51.21
824.0  338283.00  173224.85  51.21
825.2  338786.55  173473.69  51.20
826.5  339056.30  173639.72  51.21
827.7  339584.78  173914.53  51.21
829.0  340003.05  174110.67  51.21
830.2  340314.90  174251.44  51.20
831.5  340769.25  174487.61  51.20
832.7  341095.65  174649.47  51.20
834.0  341436.73  174828.53  51.20
835.2  341780.18  175011.30  51.21
836.4  342080.20  175177.01  51.21
837.7  342435.60  175375.72  51.21
838.9  342841.88  175611.62  51.22
840.1  343209.15  175821.39  51.23
841.4  343619.10  176058.35  51.24
842.6  343967.80  176256.97  51.24
843.8  344333.60  176452.97  51.24
845.1  344823.50  176706.99  51.25
846.3  345154.30  176913.79  51.26
847.5  345546.60  177129.68  51.26
848.8  345956.40  177344.81  51.26
850.0  346329.20  177536.97  51.26
851.2  346817.70  177823.16  51.27
852.5  347220.00  178025.27  51.27
853.7  347652.00  178245.60  51.27
854.9  348082.60  178473.78  51.27
856.1  348541.70  178732.27  51.28
857.4  348688.33  178837.08  51.29
858.6  349085.25  179074.51  51.30
859.8  349511.25  179268.97  51.29
861.0  350017.20  179510.09  51.29
862.2  350399.75  179707.39  51.29
863.5  350793.30  179879.90  51.28
864.7  351311.40  180148.95  51.28
865.9  351659.40  180372.46  51.29
867.1  351915.90  180522.06  51.30
868.3  352318.95  180729.25  51.30
869.5  352907.25  180957.68  51.28
870.8  353430.00  181221.94  51.28
872.0  353916.53  181467.78  51.27
873.2  354332.10  181666.75  51.27
874.4  354755.70  181869.65  51.27
875.6  355078.53  182057.19  51.27
876.8  355585.85  182298.19  51.27
878.0  356075.65  182533.63  51.26
879.2  356552.10  182750.96  51.26
880.4  357078.75  182981.06  51.24
881.6  357583.10  183179.78  51.23
882.8  357979.20  183373.13  51.22
884.0  358507.08  183662.68  51.23
885.2  359043.80  183927.78  51.23
886.5  359664.80  184219.05  51.22
887.7  360100.00  184419.21  51.21
888.8  360810.08  184724.95  51.20
890.0  361387.05  184970.44  51.18
891.2  361963.10  185213.67  51.17
892.4  362520.38  185503.28  51.17
893.6  363046.80  185799.50  51.18
894.8  363923.25  186225.85  51.17
896.0  364743.75  186618.36  51.16
897.2  365621.75  186978.57  51.14
898.4  366336.30  187304.48  51.13
899.6  366990.38  187554.72  51.11
900.8  367406.13  187734.82  51.10
902.0  367694.10  187887.72  51.10
903.2  368008.28  188029.38  51.09
904.3  368284.50  188172.43  51.09
905.5  368857.50  188424.97  51.08
906.7  369556.00  188699.70  51.06
907.9  370092.10  188940.31  51.05
909.1  370410.30  189113.22  51.06
910.2  370670.25  189157.43  51.03
911.4  370928.03  189282.77  51.03
912.6  371213.70  189377.21  51.02
913.8  371523.38  189459.02  51.00
915.0  371976.15  189640.78  50.98
916.2  372138.00  189714.57  50.98
917.3  372192.08  189702.52  50.97
918.5  372346.20  189760.14  50.96
919.7  372681.15  189898.06  50.95
920.8  372869.08  189911.56  50.93
922.0  372988.00  189948.73  50.93
923.2  373327.50  189971.60  50.89
924.4  373612.50  190056.08  50.87
925.5  373759.20  190129.21  50.87
926.7  374446.25  190364.87  50.84
927.9  375237.00  190737.04  50.83
929.0  376704.00  191362.27  50.80
930.2  378852.40  192288.11  50.76
931.4  381223.80  193404.97  50.73
932.5  383704.05  194593.14  50.71
933.7  385088.53  195211.06  50.69
934.9  385748.13  195464.83  50.67
936.0  385529.63  195205.58  50.63
937.2  383678.55  194134.30  50.60
938.3  382104.90  193215.85  50.57
939.5  380700.00  192404.57  50.54
940.7  380930.40  192347.92  50.49
941.8  382426.50  193034.33  50.48
943.0  383953.50  193600.24  50.42
944.2  384843.55  193925.59  50.39
945.3  384393.75  193591.54  50.36
946.5  383744.25  193090.06  50.32
947.6  383879.10  192981.14  50.27
948.8  383975.48  192772.15  50.20
949.9  384337.80  192688.72  50.14
951.1  383804.85  192309.21  50.11
952.2  383928.00  191977.60  50.00
953.4  383619.75  191633.22  49.95
954.5  383713.20  191389.27  49.88
955.7  383846.40  191152.08  49.80
956.8  383504.00  190805.69  49.75
958.0  383195.00  190456.25  49.70
959.1  383055.33  190142.14  49.64
960.3  382908.38  189849.84  49.58
961.4  383020.15  189686.17  49.52
962.6  383120.50  189676.50  49.51
963.7  382707.00  189442.30  49.50
964.9  383064.15  189382.82  49.44
966.0  382676.40  189236.71  49.45
967.2  383017.50  189171.65  49.39
968.3  382874.85  189024.99  49.37
969.5  382738.18  188982.05  49.38
970.6  382849.35  189084.63  49.39
971.8  383264.00  189179.57  49.36
972.9  383100.08  189107.25  49.36
974.0  383584.30  189096.49  49.30
975.2  383424.50  189061.22  49.31
976.3  383621.75  189014.38  49.27
977.5  383469.45  189080.30  49.31
978.6  383695.90  189174.90  49.30
979.7  383526.68  189354.54  49.37
980.9  383737.18  189268.25  49.32
982.0  383480.05  189219.15  49.34
983.2  383704.68  189051.98  49.27
984.3  383922.80  189024.88  49.24
985.4  383595.23  189265.66  49.34
986.6  383828.13  189349.36  49.33
987.7  384160.53  189965.19  49.45
988.9  383995.80  189919.85  49.46
990.0  384953.30  190283.15  49.43
993.1  331527.99  162475.81  49.01
996.9  332205.40  163210.86  49.13
1000.7  333263.29  164077.78  49.23
1004.5  333810.58  164688.33  49.34
1008.4  333676.42  164975.13  49.44
1012.2  333869.38  165331.27  49.52
1016.0  334062.60  165701.65  49.60
1019.8  334355.18  166077.45  49.67
1023.7  334455.79  166314.59  49.73
1027.5  334289.13  166442.28  49.79
1031.3  334600.10  166711.62  49.82
1035.1  334530.18  166801.09  49.86
1038.9  334533.10  166886.81  49.89
1042.7  334410.33  166899.52  49.91
1046.5  334308.17  166876.07  49.92
1050.3  334334.93  166931.15  49.93
1054.2  334085.50  166839.58  49.94
1058.0  333639.72  166611.46  49.94
1061.8  333537.33  166560.86  49.94
1065.6  333279.90  166401.83  49.93
1069.4  333313.20  166365.49  49.91
1073.2  333003.77  166137.51  49.89
1077.0  332646.98  165858.10  49.86
1080.8  332231.25  165515.78  49.82
1084.6  331235.10  164900.98  49.78
1088.4  330601.83  164472.49  49.75
1092.2  329823.00  163929.53  49.70
1096.0  329278.33  163489.69  49.65
1099.8  328849.30  163094.69  49.60
1103.6  328243.27  162584.72  49.53
1107.4  327409.54  161942.12  49.46
1111.2  327220.10  161601.80  49.39
1114.9  326642.17  161041.58  49.30
1118.7  326101.05  160433.04  49.20
1122.5  325489.67  159718.50  49.07
1126.3  324458.58  158731.34  48.92
1130.1  323984.10  157844.79  48.72
1133.9  322532.70  156254.70  48.45
1137.7  321275.70  154530.43  48.10
1141.4  319685.71  152434.42  47.68
1145.2  319042.70  150643.54  47.22
1149.0  318052.29  148778.33  46.78
1152.8  316572.25  146879.14  46.40
1156.6  315081.43  145300.28  46.12
1160.3  313510.67  143983.81  45.93
1164.1  311349.87  142637.40  45.81
1167.9  309733.33  141713.54  45.75
1171.7  308566.13  141081.75  45.72
1175.4  307515.63  140559.83  45.71
1179.2  306609.83  140068.11  45.68
1183.0  306341.33  139863.24  45.66
1186.7  305895.33  139558.43  45.62
1190.5  304886.40  139028.31  45.60
1194.3  303786.63  138473.11  45.58
1198.0  302727.98  137986.91  45.58
1201.8  301384.50  137399.28  45.59
1205.6  300294.00  136976.71  45.61
1209.3  299404.65  136742.37  45.67
1213.1  298508.10  136496.76  45.73
1216.8  297556.88  136277.90  45.80
1220.6  296521.87  136012.80  45.87
1224.3  295365.58  135683.00  45.94
1228.1  294259.20  135392.60  46.01
1231.9  293137.20  135034.01  46.07
1235.6  291825.15  134577.24  46.12
1239.4  290643.13  134177.16  46.17
1243.1  289521.62  133757.34  46.20
1246.9  288447.07  133313.73  46.22
1250.6  287561.00  132939.80  46.23
1254.3  286622.69  132515.64  46.23
1258.1  285742.33  132099.83  46.23
1261.8  284601.87  131543.96  46.22
1265.6  283335.98  130878.08  46.19
1269.3  282021.28  130165.34  46.15
1273.1  281943.07  129981.56  46.10
1276.8  282178.40  129918.46  46.04
1280.6  282095.87  129675.44  45.97
1284.3  280899.20  128899.31  45.89
1288.0  279616.53  128040.02  45.79
1291.8  278447.13  127156.01  45.67
1295.5  277170.67  126206.46  45.53
1299.2  276041.40  125250.85  45.37
1302.9  274706.67  124141.99  45.19
1306.7  273295.05  122923.03  44.98
1310.4  271957.08  121617.97  44.72
1314.1  270719.72  120307.32  44.44
1317.9  269628.54  118937.86  44.11
1321.6  268391.18  117401.20  43.74
1325.3  266924.70  115653.45  43.33
1329.0  265746.60  113961.27  42.88
1332.8  263863.60  111870.00  42.40
1336.5  262205.00  109867.66  41.90
1340.2  261867.67  108398.33  41.39
1343.9  261492.08  106914.58  40.89
1347.6  260981.40  105360.17  40.37
1351.4  261237.00  104177.71  39.88
1355.1  261663.60  103068.95  39.39
1358.8  261888.00  101824.00  38.88
1362.5  261501.23  100220.30  38.32
