/*** Spectra Vista SIG Data ***/
name= 63_20220722_BENI_58_avg.sig
comm= Averaged Ref/Tar of files: HR.072222.0063_moc.sig,HR.072222.0064_moc.sig,HR.072222.0065_moc.sig
data=
337.3  3126.38  345.96  11.07
338.8  3222.70  335.33  10.41
340.3  3373.20  322.15  9.55
341.8  3520.83  337.93  9.60
343.2  3685.20  332.37  9.02
344.7  3881.15  331.45  8.54
346.2  4044.15  329.14  8.14
347.7  4207.78  324.34  7.71
349.2  4422.60  331.20  7.49
350.6  4627.35  328.78  7.11
352.1  4894.33  321.87  6.58
353.6  5100.90  330.48  6.48
355.1  5388.00  345.73  6.42
356.6  5637.30  362.71  6.43
358.0  5901.50  357.89  6.06
359.5  6149.10  361.38  5.88
361.0  6463.80  361.38  5.59
362.5  6791.80  378.07  5.57
364.0  7111.40  391.62  5.51
365.4  7446.50  414.27  5.56
366.9  7790.25  427.79  5.49
368.4  8127.95  431.72  5.31
369.9  8485.85  446.81  5.27
371.3  8864.40  468.90  5.29
372.8  9239.40  481.44  5.21
374.3  9621.25  496.03  5.16
375.8  9998.45  507.69  5.08
377.2  10383.40  514.43  4.95
378.7  10786.90  529.80  4.91
380.2  11163.50  540.05  4.84
381.7  11647.78  559.03  4.80
383.1  12100.55  562.61  4.65
384.6  12624.30  580.60  4.60
386.1  13080.10  594.55  4.55
387.6  13555.85  613.43  4.53
389.0  14043.20  626.35  4.46
390.5  14522.85  634.67  4.37
392.0  15050.05  654.45  4.35
393.4  15581.08  677.14  4.35
394.9  16129.80  699.48  4.34
396.4  16637.63  716.61  4.31
397.9  17168.75  735.07  4.28
399.3  17702.18  750.58  4.24
400.8  18220.18  765.79  4.20
402.2  18829.85  783.26  4.16
403.7  19380.38  799.75  4.13
405.2  19934.35  824.34  4.14
406.6  20485.60  845.81  4.13
408.1  21040.60  869.56  4.13
409.6  21620.75  885.11  4.09
411.0  22268.05  909.31  4.08
412.5  22865.85  934.15  4.09
414.0  23451.63  960.54  4.10
415.4  24128.25  985.80  4.09
416.9  24749.10  1010.38  4.08
418.4  25398.00  1035.84  4.08
419.8  26080.60  1061.15  4.07
421.3  26773.15  1088.85  4.07
422.7  27492.00  1120.23  4.07
424.2  28215.00  1151.36  4.08
425.7  28916.20  1182.60  4.09
427.1  29624.40  1209.94  4.08
428.6  30380.00  1239.11  4.08
430.0  31078.40  1267.47  4.08
431.5  31894.73  1299.19  4.07
432.9  32698.80  1332.45  4.07
434.4  33520.50  1367.56  4.08
435.9  34300.00  1401.60  4.09
437.3  35090.00  1432.88  4.08
438.8  35878.73  1468.17  4.09
440.2  36678.95  1500.47  4.09
441.7  37587.00  1536.28  4.09
443.1  38438.25  1573.34  4.09
444.6  39339.30  1613.42  4.10
446.0  40209.53  1650.42  4.10
447.5  41101.50  1692.56  4.12
448.9  41976.60  1732.29  4.13
450.4  42916.30  1774.27  4.13
451.8  43732.00  1811.58  4.14
453.3  44585.75  1850.42  4.15
454.7  45532.80  1893.69  4.16
456.2  46340.40  1927.58  4.16
457.6  47259.00  1965.46  4.16
459.1  48183.20  2005.35  4.16
460.5  49046.13  2044.21  4.17
462.0  50042.50  2084.91  4.17
463.4  51005.10  2125.98  4.17
464.8  51934.13  2163.71  4.17
466.3  52860.23  2205.00  4.17
467.7  53780.58  2241.81  4.17
469.2  54765.83  2289.27  4.18
470.6  55694.20  2324.27  4.17
472.0  56665.95  2369.43  4.18
473.5  57601.75  2410.40  4.18
474.9  58567.50  2448.56  4.18
476.4  59644.80  2496.55  4.19
477.8  60653.50  2543.72  4.19
479.2  61581.50  2584.59  4.20
480.7  62618.85  2632.52  4.20
482.1  63681.15  2675.59  4.20
483.6  64822.70  2729.26  4.21
485.0  65846.78  2780.03  4.22
486.4  66959.10  2837.39  4.24
487.9  67991.63  2889.06  4.25
489.3  69060.25  2943.32  4.26
490.7  70076.28  3001.09  4.28
492.2  71236.20  3065.72  4.30
493.6  72283.10  3128.12  4.33
495.0  73315.13  3192.15  4.35
496.5  74431.60  3268.19  4.39
497.9  75473.53  3343.66  4.43
499.3  76559.48  3428.08  4.48
500.7  77732.90  3524.93  4.53
502.2  78810.80  3626.92  4.60
503.6  79978.80  3743.72  4.68
505.0  80985.20  3867.32  4.78
506.5  82222.88  4018.80  4.89
507.9  83346.15  4181.78  5.02
509.3  84641.20  4379.11  5.17
510.7  85790.25  4594.48  5.36
512.2  87125.03  4847.61  5.56
513.6  88482.10  5142.22  5.81
515.0  89816.65  5469.99  6.09
516.4  91102.73  5832.27  6.40
517.8  92603.50  6250.51  6.75
519.3  93823.95  6684.15  7.12
520.7  95287.10  7168.44  7.52
522.1  96483.40  7662.29  7.94
523.5  97772.60  8179.56  8.37
524.9  99072.90  8696.56  8.78
526.3  100320.85  9204.23  9.17
527.8  101707.65  9711.33  9.55
529.2  102854.70  10188.48  9.91
530.6  104401.25  10661.90  10.21
532.0  106008.00  11121.33  10.49
533.4  107188.20  11513.67  10.74
534.8  108035.03  11822.39  10.94
536.3  109598.40  12171.46  11.11
537.7  111484.80  12535.20  11.24
539.1  112823.05  12819.41  11.36
540.5  113920.70  13064.50  11.47
541.9  115524.53  13365.86  11.57
543.3  116733.88  13615.95  11.66
544.7  117921.60  13862.83  11.76
546.1  119593.93  14158.82  11.84
547.5  120758.40  14384.43  11.91
549.0  122419.00  14662.89  11.98
550.4  123791.88  14885.73  12.02
551.8  125194.88  15079.42  12.04
553.2  126611.33  15241.62  12.04
554.6  127868.00  15334.16  11.99
556.0  129281.85  15400.80  11.91
557.4  130776.45  15427.52  11.80
558.8  132283.35  15417.75  11.66
560.2  133630.00  15353.62  11.49
561.6  135180.98  15270.74  11.30
563.0  136656.85  15141.46  11.08
564.4  138131.15  14976.98  10.84
565.8  139548.75  14774.42  10.59
567.2  141158.25  14560.82  10.32
568.6  142560.38  14298.86  10.03
570.0  143893.23  14013.72  9.74
571.4  145506.40  13747.25  9.45
572.8  147128.13  13489.86  9.17
574.2  148635.20  13238.61  8.91
575.6  150052.50  13006.50  8.67
577.0  151465.20  12799.13  8.45
578.4  153062.00  12635.57  8.26
579.8  154464.98  12480.65  8.08
581.2  156065.73  12360.78  7.92
582.5  157388.40  12238.87  7.78
583.9  158804.40  12142.54  7.65
585.3  160462.80  12082.64  7.53
586.7  161832.45  12019.04  7.43
588.1  163214.63  11971.42  7.33
589.5  164738.00  11954.13  7.26
590.9  166259.20  11947.22  7.19
592.3  167944.10  11972.70  7.13
593.7  169274.63  11984.27  7.08
595.0  170790.53  12017.64  7.04
596.4  172131.40  12043.99  7.00
597.8  173505.25  12068.10  6.96
599.2  174939.60  12091.70  6.91
600.6  176569.58  12111.28  6.86
602.0  177760.43  12084.03  6.80
603.3  179429.10  12072.15  6.73
604.7  180974.95  12033.48  6.65
606.1  182353.20  11960.00  6.56
607.5  183879.63  11881.87  6.46
608.9  185445.95  11791.30  6.36
610.2  186713.10  11678.58  6.25
611.6  188201.85  11577.33  6.15
613.0  189641.80  11475.23  6.05
614.4  190925.10  11370.62  5.96
615.8  192274.88  11284.65  5.87
617.1  193687.20  11217.08  5.79
618.5  195212.00  11164.84  5.72
619.9  196592.10  11126.09  5.66
621.3  198115.65  11118.75  5.61
622.6  199592.00  11122.33  5.57
624.0  200958.15  11135.77  5.54
625.4  202348.58  11159.11  5.51
626.8  203824.08  11211.50  5.50
628.1  205051.55  11250.88  5.49
629.5  206777.33  11328.60  5.48
630.9  208278.40  11392.94  5.47
632.2  209539.40  11434.04  5.46
633.6  211048.50  11477.34  5.44
635.0  212471.60  11489.27  5.41
636.3  213897.20  11476.99  5.37
637.7  215189.38  11434.41  5.31
639.1  216737.50  11377.67  5.25
640.4  218109.50  11302.24  5.18
641.8  219229.68  11199.87  5.11
643.2  220716.13  11108.89  5.03
644.5  221974.75  11018.83  4.96
645.9  223577.10  10942.08  4.89
647.2  225390.20  10887.28  4.83
648.6  227103.75  10862.48  4.78
650.0  228420.00  10834.56  4.74
651.3  228820.63  10772.09  4.71
652.7  229831.55  10728.13  4.67
654.0  231862.50  10714.58  4.62
655.4  233238.78  10701.21  4.59
656.8  233492.20  10633.11  4.55
658.1  234604.50  10604.58  4.52
659.5  236834.33  10608.10  4.48
660.8  238545.00  10599.86  4.44
662.2  239321.60  10546.77  4.41
663.5  240792.65  10553.10  4.38
664.9  242061.30  10579.38  4.37
666.2  242757.00  10579.46  4.36
667.6  244324.80  10639.88  4.35
668.9  245454.93  10698.73  4.36
670.3  246415.88  10766.00  4.37
671.6  247932.75  10869.48  4.38
673.0  249039.00  10977.79  4.41
674.3  250216.20  11097.15  4.44
675.7  251434.25  11238.07  4.47
677.0  252494.60  11383.36  4.51
678.4  253772.05  11557.04  4.55
679.7  254785.20  11734.50  4.61
681.1  255981.70  11941.94  4.67
682.4  257067.20  12169.31  4.73
683.8  258282.70  12426.94  4.81
685.1  259194.38  12700.59  4.90
686.4  260428.20  13040.49  5.01
687.8  261615.50  13446.63  5.14
689.1  262639.00  13958.17  5.31
690.5  263931.15  14660.75  5.55
691.8  264733.03  15593.37  5.89
693.1  265933.65  16863.25  6.34
694.5  267039.50  18515.47  6.93
695.8  268177.00  20579.00  7.67
697.1  269291.75  23112.27  8.58
698.5  270288.90  26116.24  9.66
699.8  271351.73  29608.80  10.91
701.1  272394.78  33559.86  12.32
702.5  273148.15  37858.66  13.86
703.8  274050.00  42507.00  15.51
705.1  275154.75  47427.38  17.24
706.5  276129.88  52534.37  19.03
707.8  277072.95  57766.45  20.85
709.1  277901.60  63067.49  22.69
710.5  278995.53  68470.14  24.54
711.8  279820.40  73823.20  26.38
713.1  280779.30  79209.17  28.21
714.4  281649.00  84531.87  30.01
715.8  282429.50  89767.48  31.78
717.1  283710.90  95049.65  33.50
718.4  284592.00  100105.81  35.18
719.7  285657.25  105087.11  36.79
721.0  286177.50  109720.72  38.34
722.4  286926.20  114264.50  39.82
723.7  287836.20  118698.08  41.24
725.0  288857.48  122979.48  42.57
726.3  289763.38  127022.65  43.84
727.6  290288.35  130700.30  45.02
729.0  291193.35  134320.85  46.13
730.3  291910.95  137684.24  47.17
731.6  292778.05  140902.36  48.13
732.9  293544.30  143883.39  49.02
734.2  294314.63  146693.04  49.84
735.5  295309.33  149413.33  50.60
736.8  296060.40  151856.96  51.29
738.1  296885.80  154162.74  51.93
739.5  297811.83  156375.41  52.51
740.8  298472.63  158311.76  53.04
742.1  299207.68  160164.95  53.53
743.4  299900.00  161887.62  53.98
744.7  300866.43  163615.44  54.38
746.0  301715.70  165174.81  54.75
747.3  302292.58  166450.23  55.06
748.6  303000.25  167726.67  55.36
749.9  303732.00  168927.70  55.62
751.2  304412.15  170032.78  55.86
752.5  305275.10  171141.54  56.06
753.8  305859.75  172024.97  56.24
755.1  306540.00  172890.59  56.40
756.4  307128.40  173652.03  56.54
757.7  308102.20  174563.93  56.66
759.0  309795.93  175866.35  56.77
760.3  310939.20  176796.02  56.86
761.6  312470.20  177899.79  56.93
762.9  313001.75  178414.35  57.00
764.2  313411.90  178814.80  57.05
765.5  313733.23  179144.86  57.10
766.8  314160.00  179527.25  57.15
768.1  314689.00  179939.19  57.18
769.3  315292.95  180373.33  57.21
770.6  315946.80  180826.92  57.23
771.9  316687.00  181310.69  57.25
773.2  317114.40  181600.42  57.27
774.5  317746.00  182006.04  57.28
775.8  318417.45  182444.65  57.30
777.1  318988.45  182816.58  57.31
778.4  319349.53  183056.57  57.32
779.6  320108.53  183528.38  57.33
780.9  320610.00  183818.86  57.33
782.2  321073.50  184121.67  57.35
783.5  321409.00  184337.35  57.35
784.8  321967.13  184671.69  57.36
786.0  322371.35  184929.54  57.37
787.3  322807.60  185184.51  57.37
788.6  323278.35  185451.25  57.37
789.9  323771.00  185737.57  57.37
791.2  324414.43  186125.48  57.37
792.4  325100.53  186527.96  57.38
793.7  325583.20  186816.06  57.38
795.0  326208.30  187195.28  57.39
796.2  326882.98  187581.68  57.38
797.5  327630.38  188002.47  57.38
798.8  328332.23  188402.76  57.38
800.0  329030.53  188792.10  57.38
801.3  329484.70  189078.74  57.39
802.6  330075.00  189423.93  57.39
803.8  330708.80  189791.48  57.39
805.1  331175.25  190085.08  57.40
806.4  331698.60  190362.11  57.39
807.7  332270.10  190674.04  57.39
808.9  332827.75  190999.67  57.39
810.2  333366.95  191303.73  57.39
811.4  333912.70  191600.86  57.38
812.7  334465.63  191945.77  57.39
814.0  335290.20  192417.40  57.39
815.2  335962.25  192772.08  57.38
816.5  336424.45  193013.96  57.37
817.7  336929.55  193283.70  57.37
819.0  337389.25  193561.06  57.37
820.2  337568.00  193678.78  57.37
821.5  338223.75  194058.25  57.38
822.7  338566.45  194266.83  57.38
824.0  338925.60  194444.64  57.37
825.2  339438.60  194706.56  57.36
826.5  339812.70  194875.65  57.35
827.7  340305.15  195177.26  57.35
829.0  340733.93  195398.39  57.35
830.2  341007.20  195560.15  57.35
831.5  341421.20  195809.48  57.35
832.7  341757.68  195970.07  57.34
834.0  342109.15  196145.14  57.33
835.2  342515.53  196340.45  57.32
836.4  342827.10  196521.08  57.32
837.7  343194.40  196758.39  57.33
838.9  343612.93  197004.85  57.33
840.1  343937.48  197219.74  57.34
841.4  344358.80  197452.75  57.34
842.6  344719.20  197670.49  57.34
843.8  345095.40  197878.25  57.34
845.1  345595.05  198164.56  57.34
846.3  345995.70  198378.08  57.34
847.5  346338.30  198609.40  57.35
848.8  346698.00  198838.26  57.35
850.0  347081.00  199044.42  57.35
851.2  347579.10  199339.35  57.35
852.5  347991.60  199561.48  57.35
853.7  348435.00  199835.27  57.35
854.9  348875.80  200094.14  57.35
856.1  349278.15  200355.21  57.36
857.4  349502.23  200448.07  57.35
858.6  349977.70  200726.06  57.35
859.8  350343.75  200935.11  57.35
861.0  350859.60  201194.54  57.34
862.2  351252.65  201449.56  57.35
863.5  351655.20  201639.45  57.34
864.7  352037.40  201919.27  57.36
865.9  352466.80  202132.41  57.35
867.1  352805.70  202320.75  57.35
868.3  353217.15  202562.63  57.35
869.5  353739.40  202829.90  57.34
870.8  354271.50  203111.14  57.33
872.0  354767.10  203386.84  57.33
873.2  355191.75  203621.69  57.33
874.4  355624.43  203845.76  57.32
875.6  355956.05  204064.45  57.33
876.8  356473.00  204344.06  57.32
878.0  356973.80  204600.90  57.32
879.2  357461.25  204868.10  57.31
880.4  357998.63  205148.85  57.30
881.6  358513.43  205401.26  57.29
882.8  358920.80  205607.94  57.29
884.0  359545.98  205951.21  57.28
885.2  360008.50  206223.63  57.28
886.5  360642.15  206570.33  57.28
887.7  361180.30  206817.43  57.26
888.8  361814.10  207175.12  57.26
890.0  362404.00  207466.61  57.25
891.2  362900.10  207769.49  57.25
892.4  363565.65  208097.51  57.24
893.6  364203.00  208415.14  57.22
894.8  365096.25  208896.41  57.22
896.0  365934.75  209353.22  57.21
897.2  366730.00  209784.53  57.20
898.4  367461.60  210192.40  57.20
899.6  368133.00  210494.28  57.18
900.8  368460.38  210725.50  57.19
902.0  368763.60  210866.69  57.18
903.2  369093.53  211042.88  57.18
904.3  369495.60  211215.84  57.16
905.5  370087.03  211520.88  57.15
906.7  370804.50  211842.89  57.13
907.9  371358.75  212115.07  57.12
909.1  371694.83  212330.31  57.12
910.2  371972.93  212458.96  57.12
911.4  372247.20  212605.32  57.11
912.6  372429.20  212652.30  57.10
913.8  372878.85  212789.62  57.07
915.0  373350.60  213005.24  57.05
916.2  373659.00  213118.66  57.04
917.3  373733.78  213148.59  57.03
918.5  373907.40  213259.92  57.04
919.7  374128.20  213371.59  57.03
920.8  374332.35  213369.57  57.00
922.0  374470.25  213438.87  57.00
923.2  374829.00  213566.60  56.98
924.4  375134.63  213653.64  56.95
925.5  375442.80  213766.43  56.94
926.7  376154.75  214045.22  56.90
927.9  376972.20  214456.95  56.89
929.0  378322.65  215169.74  56.87
930.2  380503.50  216298.39  56.85
931.4  383062.50  217570.74  56.80
932.5  385582.65  218934.43  56.78
933.7  387000.43  219619.65  56.75
934.9  387690.63  219894.08  56.72
936.0  387335.00  219643.02  56.71
937.2  385663.95  218444.42  56.64
938.3  384110.70  217530.60  56.63
939.5  382730.40  216646.90  56.61
940.7  382993.20  216623.47  56.56
941.8  384531.60  217366.61  56.53
943.0  386104.50  218019.21  56.47
944.2  386852.70  218338.07  56.44
945.3  386616.75  218041.01  56.40
946.5  385808.40  217556.05  56.39
947.6  386167.50  217488.81  56.32
948.8  386109.75  217315.39  56.28
949.9  386509.20  217098.64  56.17
951.1  386010.63  216727.42  56.15
952.2  385968.00  216403.20  56.07
953.4  385692.25  216021.61  56.01
954.5  385819.20  215826.89  55.94
955.7  385988.40  215591.28  55.85
956.8  385683.00  215297.65  55.82
958.0  385631.50  214876.10  55.72
959.1  385538.30  214580.63  55.66
960.3  385208.13  214244.71  55.62
961.4  385365.65  214150.85  55.57
962.6  385518.00  214176.67  55.56
963.7  385405.58  214054.24  55.54
964.9  385323.38  213911.55  55.51
966.0  385505.33  213803.05  55.46
967.2  385659.00  213810.56  55.44
968.3  385588.35  213741.10  55.43
969.5  385533.93  213669.85  55.42
970.6  385447.88  213755.49  55.46
971.8  385659.40  213857.89  55.45
972.9  385910.10  213906.83  55.43
974.0  386191.50  213976.63  55.41
975.2  386153.50  213862.63  55.38
976.3  386131.43  213906.26  55.40
977.5  386116.68  213939.00  55.41
978.6  386096.50  214049.69  55.44
979.7  386924.48  214158.48  55.35
980.9  386442.73  214167.90  55.42
982.0  386359.75  214368.52  55.48
983.2  386259.30  214199.23  55.45
984.3  386641.80  214308.99  55.43
985.4  386488.10  214414.38  55.48
986.6  386284.63  214581.12  55.55
987.7  387421.65  215023.05  55.50
988.9  387442.80  214961.49  55.48
990.0  387864.10  215426.92  55.54
993.1  331055.84  181792.74  54.91
996.9  331997.43  182749.50  55.05
1000.7  333263.29  183797.03  55.15
1004.5  333925.75  184512.54  55.26
1008.4  333780.33  184815.79  55.37
1012.2  333916.83  185232.89  55.47
1016.0  334106.40  185675.85  55.57
1019.8  334476.45  186166.11  55.66
1023.7  334759.33  186535.09  55.72
1027.5  334719.73  186750.54  55.79
1031.3  335183.63  187157.34  55.84
1035.1  335304.32  187335.87  55.87
1038.9  335386.33  187457.65  55.89
1042.7  335318.00  187488.22  55.91
1046.5  335208.83  187490.31  55.93
1050.3  335280.18  187555.11  55.94
1054.2  335013.00  187470.32  55.96
1058.0  334581.86  187230.03  55.96
1061.8  334467.07  187162.76  55.96
1065.6  334331.07  187044.74  55.95
1069.4  334494.53  187075.85  55.93
1073.2  334308.73  186899.28  55.91
1077.0  333968.08  186636.35  55.88
1080.8  333439.58  186237.25  55.85
1084.6  332322.90  185474.69  55.81
1088.4  331588.26  184943.54  55.78
1092.2  330788.25  184343.25  55.73
1096.0  330289.53  183880.33  55.67
1099.8  329927.87  183468.52  55.61
1103.6  329335.92  182929.71  55.55
1107.4  328575.39  182269.15  55.47
1111.2  328411.20  181942.83  55.40
1114.9  327848.50  181386.49  55.33
1118.7  327298.95  180754.12  55.23
1122.5  326644.93  180009.65  55.11
1126.3  325604.88  178940.04  54.96
1130.1  325171.73  177981.21  54.73
1133.9  323724.10  176235.93  54.44
1137.7  322457.90  174339.82  54.07
1141.4  320897.31  172053.61  53.62
1145.2  320295.62  170187.05  53.13
1149.0  319316.67  168222.48  52.68
1152.8  317873.40  166227.66  52.29
1156.6  316398.13  164551.89  52.01
1160.3  314849.00  163124.49  51.81
1164.1  312610.00  161592.10  51.69
1167.9  310955.21  160517.79  51.62
1171.7  309794.63  159775.13  51.57
1175.4  308827.90  159164.78  51.54
1179.2  307991.90  158596.92  51.49
1183.0  307761.33  158341.27  51.45
1186.7  307191.50  157929.21  51.41
1190.5  306119.53  157283.04  51.38
1194.3  304984.37  156650.07  51.36
1198.0  303983.35  156118.65  51.36
1201.8  302668.43  155487.93  51.37
1205.6  301544.67  154991.92  51.40
1209.3  300637.58  154674.77  51.45
1213.1  299700.23  154355.93  51.50
1216.8  298732.41  154066.84  51.57
1220.6  297712.80  153759.79  51.65
1224.3  296570.58  153381.52  51.72
1228.1  295520.20  153068.77  51.80
1231.9  294468.95  152691.63  51.85
1235.6  293237.03  152181.60  51.90
1239.4  292077.25  151736.99  51.95
1243.1  290956.17  151274.96  51.99
1246.9  289884.21  150796.21  52.02
1250.6  289013.60  150384.95  52.03
1254.3  288073.41  149920.02  52.04
1258.1  287222.13  149470.15  52.04
1261.8  286104.00  148877.55  52.04
1265.6  284813.75  148142.97  52.01
1269.3  283392.20  147319.50  51.98
1273.1  283255.13  147122.42  51.94
1276.8  283588.80  147117.37  51.88
1280.6  283650.70  146945.39  51.81
1284.3  282539.20  146135.45  51.72
1288.0  281224.46  145183.49  51.63
1291.8  279925.13  144160.26  51.50
1295.5  278558.13  143065.53  51.36
1299.2  277377.70  142005.61  51.20
1302.9  276080.20  140815.66  51.01
1306.7  274722.58  139510.84  50.78
1310.4  273405.47  138117.86  50.52
1314.1  272210.95  136706.53  50.22
1317.9  271164.58  135253.02  49.88
1321.6  269925.53  133618.67  49.50
1325.3  268477.65  131766.33  49.08
1329.0  267259.65  129977.47  48.63
1332.8  265357.40  127759.13  48.15
1336.5  263701.13  125644.91  47.65
1340.2  263354.00  124154.58  47.14
1343.9  262997.71  122648.69  46.63
