/*** Spectra Vista SIG Data ***/
name= 30_20221021_BENI_58_avg.sig
comm= Averaged Ref/Tar of files: HR.102122.0007_moc.sig,HR.102122.0008_moc.sig,HR.102122.0009_moc.sig
data=
337.3  3176.00  231.59  7.29
338.8  3270.80  224.47  6.86
340.3  3466.90  218.63  6.31
341.8  3612.28  217.74  6.03
343.2  3774.00  215.66  5.71
344.7  3966.45  211.22  5.33
346.2  4166.70  213.98  5.14
347.7  4365.08  224.71  5.15
349.2  4573.80  212.40  4.64
350.6  4774.25  202.86  4.25
352.1  5072.95  197.34  3.89
353.6  5343.80  201.59  3.77
355.1  5590.05  208.46  3.73
356.6  5899.50  212.26  3.60
358.0  6156.70  215.70  3.50
359.5  6458.10  220.71  3.42
361.0  6792.98  228.00  3.36
362.5  7113.83  228.63  3.21
364.0  7455.50  234.86  3.15
365.4  7811.80  238.18  3.05
366.9  8177.00  255.20  3.12
368.4  8509.80  257.16  3.02
369.9  8891.23  270.25  3.04
371.3  9291.60  282.26  3.04
372.8  9717.30  293.31  3.02
374.3  10131.88  296.91  2.93
375.8  10537.45  297.73  2.83
377.2  10948.30  307.43  2.81
378.7  11378.70  307.43  2.70
380.2  11755.30  320.24  2.72
381.7  12242.33  329.45  2.69
383.1  12720.40  336.23  2.64
384.6  13190.78  336.55  2.55
386.1  13647.63  344.89  2.53
387.6  14121.80  351.63  2.49
389.0  14579.20  364.99  2.50
390.5  15053.85  371.70  2.47
392.0  15605.50  380.38  2.44
393.4  16159.13  385.37  2.38
394.9  16677.90  395.23  2.37
396.4  17206.88  401.68  2.33
397.9  17732.50  417.32  2.35
399.3  18284.65  431.73  2.36
400.8  18843.30  441.53  2.34
402.2  19468.15  453.59  2.33
403.7  20078.55  458.57  2.28
405.2  20668.28  466.74  2.26
406.6  21228.00  481.68  2.27
408.1  21831.60  495.05  2.27
409.6  22410.95  510.08  2.28
411.0  23079.35  522.57  2.26
412.5  23740.50  539.47  2.27
414.0  24388.88  553.04  2.27
415.4  25102.13  562.18  2.24
416.9  25751.40  576.41  2.24
418.4  26425.13  594.04  2.25
419.8  27136.20  611.87  2.25
421.3  27878.30  631.51  2.27
422.7  28640.40  651.26  2.27
424.2  29413.13  670.18  2.28
425.7  30171.30  687.70  2.28
427.1  30906.23  703.83  2.28
428.6  31697.50  723.33  2.28
430.0  32428.98  739.96  2.28
431.5  33297.68  761.88  2.29
432.9  34163.80  784.12  2.30
434.4  35053.28  802.20  2.29
435.9  35882.00  825.33  2.30
437.3  36712.50  840.71  2.29
438.8  37548.45  859.75  2.29
440.2  38390.28  882.93  2.30
441.7  39355.80  904.82  2.30
443.1  40280.00  926.24  2.30
444.6  41238.80  953.18  2.31
446.0  42168.75  976.21  2.32
447.5  43104.88  1002.00  2.32
448.9  44014.80  1025.86  2.33
450.4  45014.20  1049.57  2.33
451.8  45877.00  1077.14  2.35
453.3  46795.43  1104.53  2.36
454.7  47812.08  1130.54  2.36
456.2  48681.23  1152.47  2.37
457.6  49635.23  1178.31  2.37
459.1  50595.03  1201.79  2.38
460.5  51533.88  1220.31  2.37
462.0  52585.20  1250.74  2.38
463.4  53608.10  1274.75  2.38
464.8  54584.25  1298.96  2.38
466.3  55581.08  1323.69  2.38
467.7  56581.50  1347.18  2.38
469.2  57637.13  1375.33  2.39
470.6  58616.60  1399.65  2.39
472.0  59649.85  1423.59  2.39
473.5  60652.75  1446.13  2.38
474.9  61674.00  1473.86  2.39
476.4  62827.20  1504.46  2.39
477.8  63901.50  1534.24  2.40
479.2  64916.50  1564.62  2.41
480.7  66020.48  1586.74  2.40
482.1  67149.15  1619.78  2.41
483.6  68319.60  1654.18  2.42
485.0  69393.15  1684.62  2.43
486.4  70582.05  1722.44  2.44
487.9  71647.88  1757.79  2.45
489.3  72815.13  1795.05  2.47
490.7  73890.05  1832.91  2.48
492.2  75117.00  1880.20  2.50
493.6  76209.30  1929.61  2.53
495.0  77322.38  1982.03  2.56
496.5  78496.58  2041.92  2.60
497.9  79611.88  2103.42  2.64
499.3  80771.20  2170.50  2.69
500.7  81996.05  2253.31  2.75
502.2  83161.60  2342.95  2.82
503.6  84402.60  2450.02  2.90
505.0  85468.10  2571.42  3.01
506.5  86788.35  2712.97  3.13
507.9  87986.38  2873.23  3.27
509.3  89377.20  3061.48  3.43
510.7  90645.75  3276.00  3.61
512.2  92017.58  3523.63  3.83
513.6  93490.25  3807.53  4.07
515.0  94909.20  4125.25  4.35
516.4  96290.78  4476.60  4.65
517.8  97914.50  4875.14  4.98
519.3  99228.75  5293.54  5.33
520.7  100794.70  5755.15  5.71
522.1  102101.35  6220.87  6.09
523.5  103471.60  6710.39  6.49
524.9  104945.85  7207.50  6.87
526.3  106362.20  7697.07  7.24
527.8  107840.70  8185.88  7.59
529.2  108948.80  8650.51  7.94
530.6  110470.25  9139.28  8.27
532.0  112182.00  9614.67  8.57
533.4  113487.00  10023.52  8.83
534.8  114343.35  10369.66  9.07
536.3  116022.60  10764.74  9.28
537.7  118011.60  11174.40  9.47
539.1  119478.55  11518.59  9.64
540.5  120680.75  11825.07  9.80
541.9  122412.90  12182.08  9.95
543.3  123667.30  12487.77  10.10
544.7  124978.20  12796.23  10.24
546.1  126764.83  13149.87  10.37
547.5  128004.80  13441.07  10.50
549.0  129679.00  13765.71  10.62
550.4  131197.50  14054.35  10.71
551.8  132772.88  14322.02  10.79
553.2  134310.45  14548.28  10.83
554.6  135657.60  14711.54  10.84
556.0  137199.60  14851.76  10.82
557.4  138809.30  14954.53  10.77
558.8  140449.50  15020.31  10.69
560.2  141898.88  15023.00  10.59
561.6  143552.25  15006.04  10.45
563.0  145131.13  14940.34  10.29
564.4  146739.95  14842.34  10.11
565.8  148271.88  14705.00  9.92
567.2  150027.00  14552.43  9.70
568.6  151532.25  14346.71  9.47
570.0  152958.58  14100.26  9.22
571.4  154688.95  13864.07  8.96
572.8  156439.75  13623.36  8.71
574.2  158065.60  13382.40  8.47
575.6  159615.00  13155.00  8.24
577.0  161149.30  12949.80  8.04
578.4  162878.63  12782.25  7.85
579.8  164379.38  12614.85  7.67
581.2  166101.25  12485.57  7.52
582.5  167532.30  12350.74  7.37
583.9  169070.40  12240.53  7.24
585.3  170849.48  12166.91  7.12
586.7  172330.28  12085.70  7.01
588.1  173824.00  12023.38  6.92
589.5  175481.25  11988.67  6.83
590.9  177096.80  11965.41  6.76
592.3  178925.35  11973.90  6.69
593.7  180365.25  11976.06  6.64
595.0  181986.75  11994.43  6.59
596.4  183449.70  12010.20  6.55
597.8  184932.80  12024.02  6.50
599.2  186502.80  12033.37  6.45
600.6  188255.60  12036.92  6.39
602.0  189561.00  11989.17  6.32
603.3  191339.55  11947.23  6.24
604.7  192995.28  11873.81  6.15
606.1  194497.20  11761.54  6.05
607.5  196133.63  11637.32  5.93
608.9  197838.05  11494.24  5.81
610.2  199229.63  11318.40  5.68
611.6  200836.50  11150.31  5.55
613.0  202415.60  10977.87  5.42
614.4  203801.85  10804.41  5.30
615.8  205247.25  10651.18  5.19
617.1  206799.60  10515.40  5.08
618.5  208413.60  10402.29  4.99
619.9  209949.98  10311.04  4.91
621.3  211547.48  10246.69  4.84
622.6  213134.00  10211.69  4.79
624.0  214585.05  10192.59  4.75
625.4  216001.50  10197.71  4.72
626.8  217567.35  10225.37  4.70
628.1  218875.25  10255.75  4.69
629.5  220707.90  10319.47  4.68
630.9  222285.53  10371.74  4.67
632.2  223645.63  10398.40  4.65
633.6  225245.13  10408.74  4.62
635.0  226730.40  10374.06  4.58
636.3  228256.20  10289.38  4.51
637.7  229610.63  10150.31  4.42
639.1  231245.00  9983.33  4.32
640.4  232691.38  9768.38  4.20
641.8  233899.65  9518.55  4.07
643.2  235496.63  9271.72  3.94
644.5  236866.75  9015.50  3.81
645.9  238521.60  8778.69  3.68
647.2  239868.13  8554.68  3.57
648.6  241521.75  8383.50  3.47
650.0  242892.00  8228.57  3.39
651.3  243634.05  8086.57  3.32
652.7  245482.50  7984.08  3.25
654.0  247571.90  7895.05  3.19
655.4  248953.53  7780.37  3.13
656.8  249041.70  7622.88  3.06
658.1  250403.70  7484.51  2.99
659.5  252817.43  7365.90  2.91
660.8  254452.50  7217.14  2.84
662.2  255472.00  7061.33  2.76
663.5  257050.75  6934.00  2.70
664.9  258172.20  6825.74  2.64
666.2  258940.80  6727.66  2.60
667.6  260689.03  6689.00  2.57
668.9  261740.50  6663.11  2.55
670.3  263286.63  6667.75  2.53
671.6  264548.63  6694.40  2.53
673.0  265721.25  6757.61  2.54
674.3  266990.10  6836.27  2.56
675.7  268299.55  6933.65  2.58
677.0  269387.78  7045.90  2.62
678.4  270709.28  7190.64  2.66
679.7  271832.55  7358.45  2.71
681.1  273156.05  7560.16  2.77
682.4  274305.20  7800.25  2.84
683.8  275564.90  8099.12  2.94
685.1  276562.50  8472.82  3.06
686.4  277855.20  8977.26  3.23
687.8  279170.75  9660.74  3.46
689.1  280261.00  10586.76  3.78
690.5  281610.00  11847.63  4.21
691.8  282510.75  13519.25  4.79
693.1  283849.80  15712.63  5.54
694.5  285080.25  18412.33  6.46
695.8  286354.25  21616.83  7.55
697.1  287560.00  25289.33  8.79
698.5  288653.20  29382.45  10.18
699.8  289763.83  33822.46  11.67
701.1  290920.25  38556.14  13.25
702.5  291751.90  43424.86  14.88
703.8  292702.50  48411.43  16.54
705.1  293879.63  53459.06  18.19
706.5  294924.88  58466.94  19.82
707.8  295914.00  63405.89  21.43
709.1  296766.23  68220.95  22.99
710.5  297927.13  73011.25  24.51
711.8  298797.70  77612.50  25.97
713.1  299801.20  82151.08  27.40
714.4  300715.50  86536.74  28.78
715.8  301562.90  90773.75  30.10
717.1  302909.55  95030.07  31.37
718.4  303856.00  99018.67  32.59
719.7  304985.75  102909.82  33.74
721.0  305527.50  106461.43  34.85
722.4  306296.65  109912.99  35.88
723.7  307247.25  113284.51  36.87
725.0  308310.08  116507.83  37.79
726.3  309278.75  119539.96  38.65
727.6  309826.55  122235.48  39.45
729.0  310771.30  124906.32  40.19
730.3  311574.30  127369.92  40.88
731.6  312525.00  129717.17  41.51
732.9  313281.50  131873.93  42.09
734.2  314089.88  133900.90  42.63
735.5  315117.38  135887.12  43.12
736.8  315921.00  137642.83  43.57
738.1  316722.80  139296.03  43.98
739.5  317707.85  140894.20  44.35
740.8  318370.80  142285.99  44.69
742.1  319151.55  143607.70  45.00
743.4  319900.00  144842.86  45.28
744.7  320880.55  146101.31  45.53
746.0  321767.55  147232.80  45.76
747.3  322355.23  148139.81  45.96
748.6  323085.25  149067.98  46.14
749.9  323856.00  149933.33  46.30
751.2  324547.65  150738.56  46.45
752.5  325462.90  151595.29  46.58
753.8  326067.88  152260.62  46.70
755.1  326742.00  152909.72  46.80
756.4  327310.98  153472.67  46.89
757.7  328258.18  154190.17  46.97
759.0  330015.40  155257.00  47.05
760.3  331188.00  156008.91  47.11
761.6  332766.00  156914.67  47.15
762.9  333305.00  157325.67  47.20
764.2  333667.60  157631.44  47.24
765.5  333920.90  157880.05  47.28
766.8  334342.40  158184.84  47.31
768.1  334882.80  158523.35  47.34
769.3  335505.10  158882.17  47.36
770.6  336126.70  159267.09  47.38
771.9  336832.13  159677.12  47.41
773.2  337221.60  159913.64  47.42
774.5  337823.20  160252.61  47.44
775.8  338497.05  160606.58  47.45
777.1  339072.80  160924.66  47.46
778.4  339387.95  161122.89  47.47
779.6  340113.45  161525.65  47.49
780.9  340590.00  161788.57  47.50
782.2  341068.75  162047.81  47.51
783.5  341356.00  162216.43  47.52
784.8  341880.08  162491.79  47.53
786.0  342276.20  162703.87  47.54
787.3  342636.85  162911.60  47.55
788.6  343041.68  163137.98  47.56
789.9  343509.60  163373.60  47.56
791.2  344122.30  163706.44  47.57
792.4  344819.58  164049.05  47.58
793.7  345289.20  164289.83  47.58
795.0  345928.28  164608.55  47.58
796.2  346528.13  164935.16  47.60
797.5  347215.28  165284.39  47.60
798.8  347917.33  165614.53  47.60
800.0  348544.75  165946.51  47.61
801.3  349014.80  166166.58  47.61
802.6  349586.10  166466.08  47.62
803.8  350188.50  166784.75  47.63
805.1  350665.00  167037.08  47.63
806.4  351129.60  167273.51  47.64
807.7  351699.98  167534.81  47.64
808.9  352263.80  167807.73  47.64
810.2  352746.45  168061.13  47.64
811.4  353240.90  168320.70  47.65
812.7  353843.75  168636.31  47.66
814.0  354671.85  169052.04  47.66
815.2  355250.75  169369.81  47.68
816.5  355701.85  169591.19  47.68
817.7  356212.05  169845.16  47.68
819.0  356724.50  170096.40  47.68
820.2  356884.00  170192.00  47.69
821.5  357557.20  170550.24  47.70
822.7  357944.15  170747.12  47.70
824.0  358249.50  170922.86  47.71
825.2  358720.65  171165.34  47.72
826.5  359053.63  171342.61  47.72
827.7  359659.23  171632.20  47.72
829.0  360077.75  171846.11  47.72
830.2  360342.15  172015.36  47.74
831.5  360829.25  172258.09  47.74
832.7  361160.10  172436.90  47.75
834.0  361557.75  172618.64  47.74
835.2  361897.25  172822.26  47.75
836.4  362193.15  172991.19  47.76
837.7  362598.00  173223.20  47.77
838.9  363054.40  173470.52  47.78
840.1  363490.20  173682.84  47.78
841.4  363989.30  173929.75  47.78
842.6  364371.20  174137.64  47.79
843.8  364785.00  174348.95  47.79
845.1  365299.25  174624.66  47.80
846.3  365708.50  174862.38  47.81
847.5  366130.80  175102.00  47.82
848.8  366535.80  175329.54  47.83
850.0  366878.40  175533.37  47.85
851.2  367438.95  175822.97  47.85
852.5  367860.30  176035.03  47.85
853.7  368466.75  176317.93  47.85
854.9  368904.10  176575.13  47.86
856.1  369363.15  176805.39  47.87
857.4  369646.25  176945.74  47.87
858.6  370160.80  177208.53  47.87
859.8  370601.25  177454.64  47.88
861.0  371077.20  177686.23  47.88
862.2  371580.10  177917.64  47.88
863.5  371981.68  178119.16  47.88
864.7  372438.00  178381.66  47.90
865.9  372945.40  178599.68  47.89
867.1  373271.10  178800.36  47.90
868.3  373726.05  179026.94  47.90
869.5  374240.55  179268.89  47.90
870.8  374773.50  179534.57  47.90
872.0  375335.55  179784.31  47.90
873.2  375823.35  180020.38  47.90
874.4  376236.90  180251.03  47.91
875.6  376617.78  180435.86  47.91
876.8  377119.40  180694.41  47.91
878.0  377631.25  180928.62  47.91
879.2  378206.40  181176.67  47.90
880.4  378737.63  181426.43  47.90
881.6  379234.30  181659.05  47.90
882.8  379636.00  181847.01  47.90
884.0  380323.98  182153.80  47.89
885.2  380793.40  182390.94  47.90
886.5  381344.20  182667.14  47.90
887.7  381886.05  182905.08  47.90
888.8  382533.53  183228.05  47.90
890.0  383205.25  183473.63  47.88
891.2  383795.20  183750.16  47.88
892.4  384281.10  184031.75  47.89
893.6  384918.25  184285.43  47.88
894.8  385819.25  184719.57  47.88
896.0  386777.25  185134.33  47.87
897.2  387585.25  185543.12  47.87
898.4  388330.80  185874.23  47.86
899.6  388908.00  186114.32  47.86
900.8  389123.68  186270.92  47.87
902.0  389404.95  186368.01  47.86
903.2  389821.80  186497.63  47.84
904.3  390194.40  186635.23  47.83
905.5  390765.40  186919.74  47.83
906.7  391461.50  187220.95  47.83
907.9  391970.60  187442.27  47.82
909.1  392130.45  187574.01  47.83
910.2  392342.03  187652.87  47.83
911.4  392634.45  187756.86  47.82
912.6  392849.60  187846.84  47.82
913.8  393210.98  187923.99  47.79
915.0  393592.50  188091.40  47.79
916.2  393685.50  188157.36  47.79
917.3  393647.40  188124.11  47.79
918.5  393812.70  188223.72  47.80
919.7  393992.25  188329.49  47.80
920.8  394020.05  188338.06  47.80
922.0  394278.50  188354.83  47.77
923.2  394621.50  188396.00  47.74
924.4  394783.88  188479.93  47.74
925.5  394944.50  188523.12  47.73
926.7  395375.38  188775.69  47.75
927.9  396348.60  189136.80  47.72
929.0  397746.45  189823.50  47.72
930.2  400016.50  190798.54  47.70
931.4  402522.08  191954.44  47.69
932.5  405307.95  193167.79  47.66
933.7  406597.40  193769.55  47.66
934.9  407277.50  194049.58  47.65
936.0  406701.75  193714.39  47.63
937.2  404690.70  192646.83  47.60
938.3  402998.65  191713.09  47.57
939.5  401342.40  190889.83  47.56
940.7  401558.40  190907.23  47.54
941.8  403126.65  191547.39  47.52
943.0  404567.25  192121.86  47.49
944.2  405117.70  192391.33  47.49
945.3  404771.25  192077.79  47.45
946.5  403822.80  191581.71  47.44
947.6  404093.30  191462.80  47.38
948.8  403766.03  191271.69  47.37
949.9  404077.80  191196.00  47.32
951.1  403456.30  190823.41  47.30
952.2  403308.00  190536.00  47.24
953.4  402894.00  190176.55  47.20
954.5  402877.80  189981.26  47.16
955.7  402910.20  189781.20  47.10
956.8  402897.10  189469.24  47.03
958.0  402244.00  189076.62  47.01
959.1  401790.50  188770.59  46.98
960.3  401306.38  188404.28  46.95
961.4  401549.60  188265.47  46.88
962.6  401581.25  188192.33  46.86
963.7  401106.38  188035.77  46.88
964.9  400886.93  187862.33  46.86
966.0  400678.65  187688.76  46.84
967.2  400715.55  187621.97  46.82
968.3  400512.60  187438.24  46.80
969.5  400351.40  187262.00  46.77
970.6  400461.58  187203.79  46.75
971.8  400630.65  187211.92  46.73
972.9  400272.45  187156.59  46.76
974.0  400531.10  187221.79  46.74
975.2  400139.63  187001.48  46.73
976.3  400113.90  186876.89  46.71
977.5  400109.15  186638.37  46.65
978.6  400500.10  186560.91  46.58
979.7  400090.95  186595.85  46.64
980.9  399970.48  186554.11  46.64
982.0  399318.40  186449.15  46.69
983.2  399543.35  186317.32  46.63
984.3  399693.00  186083.18  46.56
985.4  399795.33  186135.84  46.56
986.6  399181.25  185875.17  46.56
987.7  400466.15  186287.88  46.52
988.9  399162.60  186138.00  46.63
990.0  400235.00  186429.81  46.58
993.1  380002.06  176787.70  46.52
996.9  379415.73  176788.65  46.59
1000.7  379737.28  177240.96  46.67
1004.5  380107.58  177637.27  46.73
1008.4  379867.38  177793.17  46.80
1012.2  379856.50  178009.43  46.86
1016.0  379746.00  178129.04  46.91
1019.8  379429.05  178145.92  46.95
1023.7  378695.78  177925.34  46.98
1027.5  377492.67  177541.62  47.03
1031.3  376854.18  177382.34  47.07
1035.1  376064.56  177164.65  47.11
1038.9  375750.83  177129.26  47.14
1042.7  375547.08  177138.56  47.17
1046.5  375449.33  177152.05  47.18
1050.3  375484.81  177222.37  47.20
1054.2  375173.75  177138.76  47.22
1058.0  374759.64  176963.92  47.22
1061.8  374685.89  176961.78  47.23
1065.6  374155.27  176708.51  47.23
1069.4  373655.73  176457.92  47.22
1073.2  372656.96  175942.18  47.21
1077.0  372069.80  175577.62  47.19
1080.8  372076.04  175459.59  47.16
1084.6  371846.30  175268.18  47.13
1088.4  371822.44  175203.12  47.12
1092.2  371299.50  174830.50  47.09
1096.0  370680.08  174424.96  47.06
1099.8  370061.90  173987.58  47.02
1103.6  369203.63  173452.07  46.98
1107.4  368158.78  172804.44  46.94
1111.2  367883.70  172537.58  46.90
1114.9  367355.92  172107.04  46.85
1118.7  367074.68  171740.92  46.79
1122.5  366649.40  171227.24  46.70
1126.3  365672.36  170392.87  46.60
1130.1  365313.45  169625.52  46.43
1133.9  363661.90  168070.86  46.22
1137.7  362138.70  166384.66  45.95
1141.4  360198.58  164326.46  45.62
1145.2  359361.56  162663.98  45.26
1149.0  358140.42  160929.40  44.93
1152.8  356343.25  159126.47  44.66
1156.6  354558.05  157555.81  44.44
1160.3  352736.00  156220.77  44.29
1164.1  350341.30  154807.53  44.19
1167.9  348641.67  153806.03  44.12
1171.7  347382.00  153056.63  44.06
1175.4  346016.60  152299.56  44.02
1179.2  344769.15  151579.83  43.97
1183.0  344468.33  151251.04  43.91
1186.7  344332.57  151022.68  43.86
1190.5  343788.27  150659.79  43.82
1194.3  342782.07  150136.75  43.80
1198.0  341393.53  149476.94  43.78
1201.8  339744.58  148765.11  43.79
1205.6  338595.67  148355.37  43.81
1209.3  337889.78  148243.46  43.87
1213.1  337219.65  148162.39  43.94
1216.8  336475.43  148111.87  44.02
1220.6  335350.40  147889.21  44.10
1224.3  334086.25  147600.70  44.18
1228.1  332651.80  147234.92  44.26
1231.9  331168.18  146788.44  44.32
1235.6  329512.80  146235.29  44.38
1239.4  328042.13  145756.59  44.43
1243.1  326746.35  145299.42  44.47
1246.9  325521.68  144827.32  44.49
1250.6  324521.60  144429.66  44.51
1254.3  323385.98  143975.34  44.52
1258.1  322244.07  143481.32  44.53
1261.8  320862.67  142875.12  44.53
1265.6  319644.37  142276.36  44.51
1269.3  318714.68  141786.37  44.49
1273.1  318929.83  141800.11  44.46
1276.8  318816.00  141626.23  44.42
1280.6  317971.60  141083.00  44.37
1284.3  316159.20  140079.17  44.31
1288.0  314860.95  139256.83  44.23
1291.8  314162.56  138653.30  44.13
1295.5  313244.80  137940.77  44.04
1299.2  312057.87  137051.05  43.92
1302.9  310480.97  135914.64  43.78
1306.7  308766.15  134651.91  43.61
1310.4  307103.49  133306.30  43.41
1314.1  305581.10  131955.07  43.18
1317.9  304227.50  130572.96  42.92
1321.6  302739.53  129032.47  42.62
1325.3  301074.38  127326.19  42.29
1329.0  299782.58  125719.49  41.94
1332.8  297820.60  123737.04  41.55
1336.5  296112.27  121862.89  41.15
1340.2  295962.33  120627.00  40.76
1343.9  295954.17  119433.94  40.36
1347.6  296176.50  118332.04  39.95
1351.4  297739.50  117803.69  39.57
