/*** Spectra Vista SIG Data ***/
name= 39_20221021_LIST_62_avg.sig
comm= Averaged Ref/Tar of files: HR.102122.0034_moc.sig,HR.102122.0035_moc.sig,HR.102122.0036_moc.sig
data=
337.3  6350.75  508.06  8.00
338.8  6541.60  474.59  7.25
340.3  6868.82  478.93  6.97
341.8  7076.55  483.87  6.84
343.2  7520.52  473.73  6.30
344.7  8015.00  469.45  5.86
346.2  8389.50  449.63  5.36
347.7  8706.50  464.35  5.33
349.2  8971.20  463.68  5.17
350.6  9447.80  457.78  4.85
352.1  9905.00  443.37  4.48
353.6  10503.47  440.32  4.19
355.1  10998.80  461.24  4.19
356.6  11670.12  494.57  4.24
358.0  12200.62  489.71  4.01
359.5  12682.80  504.06  3.97
361.0  13322.73  498.12  3.74
362.5  13957.35  507.54  3.64
364.0  14671.78  520.49  3.55
365.4  15306.58  538.50  3.52
366.9  15999.68  563.42  3.52
368.4  16676.40  598.64  3.59
369.9  17384.00  628.93  3.62
371.3  18208.67  651.31  3.58
372.8  18944.43  671.89  3.55
374.3  19777.60  673.28  3.40
375.8  20601.75  690.25  3.35
377.2  21375.90  694.98  3.25
378.7  22193.73  723.40  3.26
380.2  22988.10  731.12  3.18
381.7  23843.00  745.53  3.13
383.1  24745.60  766.27  3.10
384.6  25656.60  771.10  3.01
386.1  26573.40  773.30  2.91
387.6  27444.15  813.16  2.96
389.0  28414.35  852.78  3.00
390.5  29342.10  853.21  2.91
392.0  30360.00  869.40  2.86
393.4  31441.50  890.50  2.83
394.9  32406.33  902.63  2.79
396.4  33530.93  924.29  2.76
397.9  34569.00  955.24  2.76
399.3  35481.12  973.35  2.74
400.8  36636.05  1005.95  2.75
402.2  37801.50  1020.80  2.70
403.7  38937.20  1045.42  2.68
405.2  40045.53  1069.52  2.67
406.6  41283.40  1111.36  2.69
408.1  42322.70  1138.78  2.69
409.6  43459.40  1157.78  2.66
411.0  44653.22  1190.38  2.67
412.5  46010.73  1221.91  2.66
414.0  47299.23  1265.90  2.68
415.4  48581.40  1300.32  2.68
416.9  49833.20  1345.90  2.70
418.4  51145.60  1385.19  2.71
419.8  52435.83  1423.43  2.71
421.3  53846.10  1455.30  2.70
422.7  55274.27  1505.23  2.72
424.2  56744.45  1546.98  2.73
425.7  58168.92  1581.25  2.72
427.1  59619.40  1645.52  2.76
428.6  61070.85  1701.42  2.79
430.0  62557.55  1741.96  2.78
431.5  64174.93  1789.49  2.79
432.9  65773.25  1834.92  2.79
434.4  67427.20  1885.30  2.80
435.9  69068.87  1947.59  2.82
437.3  70733.75  2005.75  2.84
438.8  72326.32  2066.97  2.86
440.2  73966.08  2120.77  2.87
441.7  75770.13  2167.33  2.86
443.1  77548.50  2229.84  2.88
444.6  79284.13  2296.13  2.90
446.0  81075.83  2357.05  2.91
447.5  82983.33  2423.33  2.92
448.9  84695.15  2482.53  2.93
450.4  86533.33  2546.67  2.94
451.8  88289.25  2606.30  2.95
453.3  90080.10  2675.78  2.97
454.7  91869.00  2745.90  2.99
456.2  93615.20  2803.69  2.99
457.6  95486.40  2865.96  3.00
459.1  97274.80  2922.36  3.00
460.5  99081.92  2985.37  3.01
462.0  101076.60  3051.96  3.02
463.4  103004.65  3111.10  3.02
464.8  104922.30  3173.73  3.02
466.3  106819.90  3234.56  3.03
467.7  108800.00  3303.89  3.04
469.2  110627.20  3366.60  3.04
470.6  112604.92  3435.83  3.05
472.0  114606.03  3496.52  3.05
473.5  116573.35  3571.21  3.06
474.9  118703.77  3647.62  3.07
476.4  120744.67  3717.79  3.08
477.8  122770.67  3793.07  3.09
479.2  124785.98  3852.50  3.09
480.7  126857.30  3927.69  3.10
482.1  129013.50  3998.86  3.10
483.6  131167.20  4080.84  3.11
485.0  133347.50  4162.68  3.12
486.4  135415.08  4248.68  3.14
487.9  137615.17  4327.90  3.14
489.3  139680.45  4415.35  3.16
490.7  141832.73  4521.65  3.19
492.2  143974.75  4627.02  3.21
493.6  146178.93  4750.63  3.25
495.0  148424.90  4878.38  3.29
496.5  150576.30  5008.50  3.33
497.9  152808.83  5160.47  3.38
499.3  155041.00  5326.93  3.44
500.7  157272.53  5520.39  3.51
502.2  159584.15  5739.08  3.60
503.6  161830.40  5993.44  3.70
505.0  164058.40  6269.27  3.82
506.5  166465.53  6604.57  3.97
507.9  168857.52  6985.23  4.14
509.3  171107.10  7414.26  4.33
510.7  173665.05  7920.77  4.56
512.2  176223.85  8496.94  4.82
513.6  179011.08  9156.64  5.12
515.0  181701.33  9901.99  5.45
516.4  184493.33  10744.45  5.82
517.8  187243.83  11663.00  6.23
519.3  190109.87  12671.57  6.67
520.7  192717.13  13741.51  7.13
522.1  195316.98  14865.02  7.61
523.5  197861.20  16041.35  8.11
524.9  200698.95  17260.72  8.60
526.3  203263.65  18472.14  9.09
527.8  205985.50  19709.27  9.57
529.2  208512.00  20970.24  10.06
530.6  211203.00  22223.28  10.52
532.0  213983.68  23457.46  10.96
533.4  216469.70  24612.38  11.37
534.8  219007.25  25738.68  11.75
536.3  221915.58  26875.80  12.11
537.7  224765.17  27968.33  12.44
539.1  227601.83  29033.07  12.76
540.5  230454.00  30066.90  13.05
541.9  233386.22  31104.05  13.33
543.3  235993.47  32073.35  13.59
544.7  239008.00  33088.00  13.84
546.1  241795.87  34066.11  14.09
547.5  244699.20  35020.80  14.31
549.0  247714.93  35943.89  14.51
550.4  250573.05  36803.13  14.69
551.8  253545.63  37600.66  14.83
553.2  256410.80  38294.84  14.93
554.6  259259.87  38878.29  15.00
556.0  262143.00  39352.04  15.01
557.4  265200.67  39738.97  14.98
558.8  268057.67  40004.09  14.92
560.2  271240.00  40213.33  14.83
561.6  274130.82  40281.16  14.69
563.0  276901.30  40230.15  14.53
564.4  280058.80  40161.52  14.34
565.8  283028.00  39994.75  14.13
567.2  286169.57  39753.89  13.89
568.6  289169.55  39408.75  13.63
570.0  292003.83  38931.97  13.33
571.4  295382.10  38448.18  13.02
572.8  298487.20  37912.24  12.70
574.2  301321.30  37353.05  12.40
575.6  304350.25  36860.53  12.11
577.0  307307.37  36399.51  11.84
578.4  310668.75  36035.42  11.60
579.8  313685.75  35676.14  11.37
581.2  316706.50  35356.73  11.16
582.5  319605.00  35061.00  10.97
583.9  322612.40  34809.69  10.79
585.3  325470.07  34588.16  10.63
586.7  328389.60  34419.00  10.48
588.1  331326.00  34278.96  10.35
589.5  334614.10  34207.16  10.22
590.9  337536.72  34133.28  10.11
592.3  340452.60  34112.67  10.02
593.7  343371.70  34129.60  9.94
595.0  346253.20  34171.04  9.87
596.4  349510.33  34257.85  9.80
597.8  352136.27  34276.56  9.73
599.2  355221.10  34323.90  9.66
600.6  358339.85  34345.52  9.58
602.0  361268.80  34303.68  9.50
603.3  364086.67  34188.27  9.39
604.7  367045.10  34022.57  9.27
606.1  370014.60  33771.51  9.13
607.5  373259.17  33495.33  8.97
608.9  376293.87  33130.53  8.80
610.2  379407.60  32738.97  8.63
611.6  382268.33  32303.33  8.45
613.0  385044.80  31835.69  8.27
614.4  387766.55  31376.53  8.09
615.8  390964.67  30969.95  7.92
617.1  393644.67  30558.27  7.76
618.5  396831.95  30247.99  7.62
619.9  399495.60  29967.90  7.50
621.3  402366.03  29773.47  7.40
622.6  405210.00  29655.60  7.32
624.0  407857.25  29585.50  7.25
625.4  410884.65  29613.85  7.21
626.8  413769.20  29686.45  7.17
628.1  416517.03  29791.86  7.15
629.5  419208.07  29926.54  7.14
630.9  421979.47  30058.11  7.12
632.2  424908.30  30138.39  7.09
633.6  427337.73  30107.09  7.05
635.0  430147.88  29980.87  6.97
636.3  433132.80  29729.22  6.86
637.7  435779.92  29299.34  6.72
639.1  438655.07  28723.27  6.55
640.4  441300.92  28021.40  6.35
641.8  444075.60  27236.88  6.13
643.2  446593.30  26396.20  5.91
644.5  449446.67  25573.33  5.69
645.9  451843.70  24759.14  5.48
647.2  453944.52  24032.21  5.29
648.6  456391.47  23435.20  5.13
650.0  459043.20  22979.76  5.01
651.3  461974.37  22614.91  4.90
652.7  465805.00  22337.40  4.80
654.0  468551.87  21995.16  4.69
655.4  470755.25  21619.01  4.59
656.8  472585.40  21206.50  4.49
658.1  475287.05  20759.13  4.37
659.5  478252.80  20257.92  4.24
660.8  480925.90  19722.64  4.10
662.2  483650.28  19201.78  3.97
663.5  486360.20  18678.31  3.84
664.9  488232.98  18199.75  3.73
666.2  490464.00  17796.35  3.63
667.6  492936.00  17481.90  3.55
668.9  495561.60  17274.24  3.49
670.3  498521.92  17132.85  3.44
671.6  500574.40  17061.76  3.41
673.0  502864.00  17056.11  3.39
674.3  505235.50  17120.69  3.39
675.7  507684.60  17235.84  3.39
677.0  509937.25  17396.70  3.41
678.4  512111.07  17617.09  3.44
679.7  514384.95  17920.29  3.48
681.1  516844.68  18329.55  3.55
682.4  518980.75  18865.35  3.64
683.8  521212.50  19605.50  3.76
685.1  523465.10  20642.02  3.94
686.4  525687.72  22082.23  4.20
687.8  528003.55  24108.53  4.57
689.1  530419.40  26929.47  5.08
690.5  532368.40  30714.88  5.77
691.8  534967.03  35731.63  6.68
693.1  537370.00  42038.40  7.82
694.5  539695.00  49584.93  9.19
695.8  542025.67  58231.71  10.74
697.1  544268.93  67769.96  12.45
698.5  546534.00  78048.03  14.28
699.8  548894.93  88845.17  16.19
701.1  550788.00  99856.47  18.13
702.5  552799.92  110924.33  20.07
703.8  555166.55  121939.66  21.96
705.1  556951.43  132505.02  23.79
706.5  559170.93  142796.50  25.54
707.8  560959.95  152578.12  27.20
709.1  563197.25  162009.20  28.77
710.5  565291.13  171004.30  30.25
711.8  567170.00  179499.20  31.65
713.1  569004.67  187594.67  32.97
714.4  571085.17  195344.97  34.21
715.8  573328.25  202820.07  35.38
717.1  575534.70  209904.61  36.47
718.4  577721.25  216646.19  37.50
719.7  579810.60  223013.43  38.46
721.0  581464.98  228889.27  39.36
722.4  583251.30  234505.26  40.21
723.7  585163.63  239841.96  40.99
725.0  586831.72  244782.44  41.71
726.3  589038.67  249653.39  42.38
727.6  590678.50  254018.60  43.00
729.0  592459.23  258159.67  43.57
730.3  594385.98  262081.42  44.09
731.6  595852.93  265550.57  44.57
732.9  597725.48  268971.95  45.00
734.2  599282.75  272050.35  45.40
735.5  600967.03  274989.51  45.76
736.8  602896.82  277868.27  46.09
738.1  604639.20  280481.28  46.39
739.5  606312.30  282895.66  46.66
740.8  608103.65  285234.33  46.91
742.1  609606.45  287290.01  47.13
743.4  611271.03  289357.23  47.34
744.7  613088.00  291347.47  47.52
746.0  614523.73  293076.00  47.69
747.3  616048.07  294727.63  47.84
748.6  617613.97  296306.26  47.98
749.9  619282.28  297860.89  48.10
751.2  620535.67  299128.10  48.20
752.5  621962.97  300446.65  48.31
753.8  623217.60  301621.86  48.40
755.1  624661.47  302862.07  48.48
756.4  625667.33  303813.52  48.56
757.7  627594.00  305148.25  48.62
759.0  631055.98  307200.11  48.68
760.3  633618.23  308798.25  48.74
761.6  636358.18  310400.73  48.78
762.9  637659.00  311305.50  48.82
764.2  638342.37  311859.73  48.85
765.5  639112.07  312442.27  48.89
766.8  639571.67  312869.25  48.92
768.1  640565.10  313545.96  48.95
769.3  641717.63  314282.73  48.98
770.6  643048.33  315075.47  49.00
771.9  644083.77  315719.27  49.02
773.2  645411.00  316481.10  49.04
774.5  646222.50  317012.70  49.06
775.8  647157.13  317605.04  49.08
777.1  648222.18  318260.33  49.10
778.4  649433.75  318942.85  49.11
779.6  650598.40  319618.88  49.13
780.9  651221.10  320004.27  49.14
782.2  652027.77  320525.70  49.16
783.5  652828.50  321032.77  49.18
784.8  653539.25  321460.65  49.19
786.0  654310.05  321878.40  49.19
787.3  654988.50  322297.10  49.21
788.6  655769.17  322778.15  49.22
789.9  656366.20  323147.72  49.23
791.2  657612.43  323847.20  49.25
792.4  658614.92  324417.50  49.26
793.7  660098.85  325213.68  49.27
795.0  661111.40  325725.42  49.27
796.2  662367.60  326402.72  49.28
797.5  663446.67  327000.00  49.29
798.8  664706.00  327707.80  49.30
800.0  665746.67  328281.33  49.31
801.3  666839.25  328878.90  49.32
802.6  667824.00  329414.40  49.33
803.8  668937.50  329973.49  49.33
805.1  669898.50  330497.05  49.34
806.4  670781.18  330965.94  49.34
807.7  671760.98  331522.33  49.35
808.9  672858.82  332087.89  49.35
810.2  673710.80  332556.00  49.36
811.4  674738.13  333134.88  49.37
812.7  676063.33  333783.65  49.37
814.0  677253.50  334406.38  49.38
815.2  678608.20  335070.32  49.38
816.5  679685.42  335647.67  49.38
817.7  680459.17  336067.63  49.39
819.0  681150.40  336453.23  49.39
820.2  682014.00  336864.14  49.39
821.5  683142.53  337397.84  49.39
822.7  684155.38  337903.04  49.39
824.0  685033.70  338378.82  49.40
825.2  685725.30  338726.18  49.40
826.5  686460.87  339099.01  49.40
827.7  687574.85  339622.02  49.39
829.0  688549.65  340086.10  49.39
830.2  689527.07  340536.37  49.39
831.5  690437.25  340984.47  49.39
832.7  691411.50  341457.60  49.39
834.0  692138.70  341774.91  49.38
835.2  693232.73  342281.07  49.37
836.4  694039.47  342643.41  49.37
837.7  694830.00  343040.25  49.37
838.9  696084.33  343710.65  49.38
840.1  696980.90  344149.52  49.38
841.4  697981.93  344656.19  49.38
842.6  698976.60  345114.47  49.37
843.8  699985.00  345572.76  49.37
845.1  700869.40  345998.62  49.37
846.3  701854.30  346458.00  49.36
847.5  702660.83  346977.37  49.38
848.8  703658.93  347468.21  49.38
850.0  704917.20  348059.57  49.38
851.2  705887.63  348539.85  49.38
852.5  707099.67  349101.33  49.37
853.7  707970.15  349507.08  49.37
854.9  709168.20  350072.32  49.36
856.1  710190.10  350603.97  49.37
857.4  711216.95  351109.14  49.37
858.6  712225.73  351613.36  49.37
859.8  713502.33  352183.65  49.36
861.0  714388.27  352655.10  49.36
862.2  715506.40  353175.76  49.36
863.5  716529.55  353666.17  49.36
864.7  717600.00  354180.83  49.36
865.9  718637.08  354637.47  49.35
867.1  719491.67  355006.67  49.34
868.3  720562.85  355604.24  49.35
869.5  721759.33  356181.23  49.35
870.8  723067.20  356741.46  49.34
872.0  724173.28  357253.37  49.33
873.2  725152.28  357670.18  49.32
874.4  725974.53  358082.03  49.32
875.6  727096.62  358664.43  49.33
876.8  728654.30  359365.60  49.32
878.0  729657.13  359815.82  49.31
879.2  730788.07  360385.04  49.31
880.4  731949.33  360861.87  49.30
881.6  733051.40  361298.41  49.29
882.8  734389.27  361911.75  49.28
884.0  735265.92  362372.05  49.28
885.2  736729.00  362997.60  49.27
886.5  737965.78  363579.70  49.27
887.7  739079.53  364052.73  49.26
888.8  740557.93  364738.69  49.25
890.0  741492.50  365099.00  49.24
891.2  742541.15  365572.09  49.23
892.4  743986.65  366237.41  49.23
893.6  745682.43  367063.90  49.23
894.8  747302.60  367817.05  49.22
896.0  748898.83  368526.67  49.21
897.2  750845.70  369301.68  49.18
898.4  752739.40  370190.80  49.18
899.6  754081.53  370792.39  49.17
900.8  754700.27  371023.64  49.16
902.0  755191.23  371275.13  49.16
903.2  755485.60  371317.43  49.15
904.3  756697.50  371767.50  49.13
905.5  757647.00  372289.50  49.14
906.7  758909.47  372848.96  49.13
907.9  759880.77  373268.86  49.12
909.1  760888.33  373766.98  49.12
910.2  761355.00  373873.50  49.11
911.4  761692.65  373814.58  49.08
912.6  762096.67  374032.00  49.08
913.8  763083.07  374422.49  49.07
915.0  763330.27  374598.80  49.07
916.2  763647.20  374639.11  49.06
917.3  764378.15  374882.39  49.04
918.5  764772.90  374882.56  49.02
919.7  764777.67  374821.63  49.01
920.8  764900.45  374884.50  49.01
922.0  765137.45  374797.10  48.98
923.2  765406.65  374938.33  48.99
924.4  766066.83  375066.62  48.96
925.5  766973.33  375255.73  48.93
926.7  767863.37  375543.26  48.91
927.9  769132.22  375990.22  48.88
929.0  772047.00  377331.84  48.87
930.2  776317.20  379292.69  48.86
931.4  781357.48  381583.68  48.84
932.5  786130.40  383676.70  48.81
933.7  789092.60  384693.26  48.75
934.9  790381.67  385176.17  48.73
936.0  789391.95  384475.68  48.71
937.2  786037.72  382743.13  48.69
938.3  782199.17  380543.80  48.65
939.5  779711.40  379111.20  48.62
940.7  779888.08  378802.78  48.57
941.8  782772.90  379922.66  48.54
943.0  784828.65  380614.37  48.50
944.2  786656.00  381225.60  48.46
945.3  785882.40  380561.20  48.42
946.5  784105.00  379360.33  48.38
947.6  785147.83  379381.80  48.32
948.8  783856.43  378336.53  48.27
949.9  784129.50  378124.67  48.22
951.1  784337.18  377588.14  48.14
952.2  783762.98  376774.45  48.07
953.4  783391.70  376116.88  48.01
954.5  781856.25  374671.15  47.92
955.7  781467.30  373912.19  47.85
956.8  781663.57  373552.29  47.79
958.0  781211.10  372595.86  47.69
959.1  780494.40  371831.04  47.64
960.3  780391.67  371233.33  47.57
961.4  780554.47  371164.83  47.55
962.6  779880.00  370483.20  47.51
963.7  780177.07  370452.32  47.48
964.9  780705.03  370244.47  47.42
966.0  780997.23  370324.87  47.42
967.2  781608.80  370108.48  47.35
968.3  782640.63  370554.89  47.35
969.5  782937.55  370582.89  47.33
970.6  783198.30  370721.67  47.33
971.8  782675.25  370587.63  47.35
972.9  783850.67  370724.20  47.30
974.0  785009.67  371159.63  47.28
975.2  784125.00  370476.00  47.25
976.3  785026.55  370909.27  47.25
977.5  784154.20  370579.40  47.26
978.6  784598.80  370733.77  47.25
979.7  784784.00  370602.03  47.22
980.9  785896.03  370825.59  47.19
982.0  785314.43  370730.87  47.21
983.2  785697.73  370727.28  47.18
984.3  784033.37  370258.47  47.22
985.4  783682.20  369954.48  47.21
986.6  783975.67  370637.01  47.28
987.7  783294.92  370011.92  47.24
988.9  785150.18  370583.40  47.20
990.0  785200.93  370307.07  47.16
993.1  864232.80  404817.17  46.84
996.9  864089.20  405909.83  46.98
1000.7  863849.83  406805.85  47.09
1004.5  862899.53  407404.22  47.21
1008.4  863982.65  408925.85  47.33
1012.2  865651.04  410596.36  47.43
1016.0  865844.73  411585.23  47.54
1019.8  864698.76  411899.77  47.64
1023.7  863395.14  412014.79  47.72
1027.5  860987.40  411599.78  47.81
1031.3  859357.07  411314.60  47.86
1035.1  857985.68  411176.70  47.92
1038.9  857359.31  411311.84  47.97
1042.7  856952.18  411545.42  48.02
1046.5  856248.75  411493.25  48.06
1050.3  854585.29  410975.95  48.09
1054.2  852641.63  410253.96  48.12
1058.0  851785.20  409979.83  48.13
1061.8  850528.67  409546.62  48.15
1065.6  848558.38  408604.76  48.15
1069.4  846371.88  407528.87  48.15
1073.2  844338.63  406488.64  48.14
1077.0  843063.47  405696.34  48.12
1080.8  842761.33  405246.02  48.09
1084.6  842557.83  404868.10  48.05
1088.4  841997.40  404368.99  48.02
1092.2  840695.80  403450.43  47.99
1096.0  839246.47  402404.55  47.95
1099.8  837686.75  401210.16  47.90
1103.6  835712.93  399855.00  47.85
1107.4  834183.97  398568.61  47.78
1111.2  832736.03  397333.70  47.71
1114.9  831787.50  396218.14  47.63
1118.7  831527.42  395200.44  47.53
1122.5  831628.85  394160.39  47.40
1126.3  829221.75  391666.95  47.23
1130.1  828664.50  389496.03  47.00
1133.9  825216.03  385311.96  46.69
1137.7  822436.20  380877.23  46.31
1141.4  818620.95  375353.48  45.85
1145.2  817716.88  370811.30  45.35
1149.0  815639.10  366040.89  44.88
1152.8  812176.15  361169.61  44.47
1156.6  808439.25  357070.51  44.17
1160.3  805106.25  353963.64  43.96
1164.1  800285.20  350880.17  43.84
1167.9  797273.13  348963.57  43.77
1171.7  794715.07  347532.88  43.73
1175.4  792343.07  346277.75  43.70
1179.2  790389.75  345151.28  43.67
1183.0  790777.25  344953.93  43.62
1186.7  790993.00  344670.33  43.57
1190.5  789714.67  343835.76  43.54
1194.3  786902.43  342467.27  43.52
1198.0  783755.95  341102.74  43.52
1201.8  781242.00  340105.33  43.53
1205.6  779662.50  339680.97  43.57
1209.3  778523.25  339639.75  43.63
1213.1  777188.25  339538.52  43.69
1216.8  775152.80  339292.61  43.77
1220.6  772750.00  338845.86  43.85
1224.3  770275.00  338335.12  43.92
1228.1  767997.67  337940.51  44.00
1231.9  765521.90  337307.19  44.06
1235.6  762902.25  336598.47  44.12
1239.4  760516.53  336008.08  44.18
1243.1  758312.10  335330.23  44.22
1246.9  756312.15  334666.54  44.25
1250.6  754194.43  333915.40  44.27
1254.3  752229.60  333178.63  44.29
1258.1  750096.67  332304.76  44.30
1261.8  747590.67  331191.20  44.30
1265.6  745434.44  330094.29  44.28
1269.3  743376.80  328982.75  44.26
1273.1  743953.72  328912.38  44.21
1276.8  743910.60  328475.57  44.16
1280.6  743125.48  327631.71  44.09
1284.3  740454.37  325826.71  44.00
1288.0  738661.41  324228.06  43.89
1291.8  737326.80  322644.60  43.76
1295.5  735692.63  320839.38  43.61
1299.2  733330.65  318502.97  43.43
1302.9  730344.36  315661.32  43.22
1306.7  727144.43  312507.90  42.98
1310.4  724079.07  309048.73  42.68
1314.1  721441.88  305616.70  42.36
1317.9  718928.06  301813.64  41.98
1321.6  716076.73  297587.55  41.56
1325.3  713246.18  293048.36  41.09
1329.0  710653.53  288411.20  40.58
1332.8  706947.50  283081.43  40.04
