/*** Spectra Vista SIG Data ***/
name= 34_20220926_QUPA_14_avg.sig
comm= Averaged Ref/Tar of files: HR.092722.0021_moc.sig,HR.092722.0022_moc.sig
data=
337.3  6217.05  438.35  7.05
338.8  6541.60  373.81  5.71
340.3  6805.80  380.80  5.60
341.8  6985.83  373.27  5.34
343.2  7372.48  383.22  5.20
344.7  7814.63  399.93  5.12
346.2  8142.75  371.30  4.56
347.7  8627.35  330.17  3.83
349.2  8996.40  356.40  3.96
350.6  9423.45  379.86  4.03
352.1  9905.00  363.86  3.67
353.6  10388.80  363.66  3.50
355.1  10910.10  393.45  3.61
356.6  11583.35  375.58  3.24
358.0  12158.40  378.14  3.11
359.5  12621.83  381.53  3.02
361.0  13283.20  387.99  2.92
362.5  13957.35  405.38  2.90
364.0  14652.93  425.12  2.90
365.4  15325.03  434.70  2.84
366.9  15981.63  451.98  2.83
368.4  16729.85  456.62  2.73
369.9  17437.00  467.92  2.68
371.3  18278.70  514.75  2.82
372.8  19013.70  541.77  2.85
374.3  19830.20  541.03  2.73
375.8  20654.58  546.36  2.65
377.2  21481.20  552.08  2.57
378.7  22334.20  567.39  2.54
380.2  23093.55  575.46  2.49
381.7  24001.25  593.82  2.47
383.1  24991.65  598.05  2.39
384.6  25866.90  614.38  2.38
386.1  26837.03  644.75  2.40
387.6  27707.03  657.94  2.37
389.0  28676.48  671.04  2.34
390.5  29758.30  691.19  2.32
392.0  30791.25  705.28  2.29
393.4  31852.50  732.46  2.30
394.9  32830.50  757.69  2.31
396.4  33952.60  785.03  2.31
397.9  34969.80  818.78  2.34
399.3  35908.60  820.21  2.28
400.8  37139.03  846.95  2.28
402.2  38327.85  879.08  2.29
403.7  39484.95  921.56  2.33
405.2  40568.00  956.25  2.36
406.6  41811.90  999.19  2.39
408.1  42836.33  1020.12  2.38
409.6  44015.48  1057.16  2.40
411.0  45262.25  1092.70  2.41
412.5  46591.95  1137.72  2.44
414.0  47948.08  1178.13  2.46
415.4  49226.40  1212.97  2.46
416.9  50471.13  1259.77  2.50
418.4  51763.13  1298.36  2.51
419.8  53095.70  1354.41  2.55
421.3  54539.10  1399.86  2.57
422.7  56006.60  1452.44  2.59
424.2  57454.58  1495.48  2.60
425.7  58854.13  1553.24  2.64
427.1  60325.50  1604.30  2.66
428.6  61791.45  1659.10  2.68
430.0  63322.60  1704.13  2.69
431.5  64965.55  1757.82  2.71
432.9  66596.13  1819.25  2.73
434.4  68258.95  1883.72  2.76
435.9  69863.80  1934.17  2.77
437.3  71541.38  1987.75  2.78
438.8  73149.60  2040.44  2.79
440.2  74809.18  2099.41  2.81
441.7  76712.08  2168.81  2.83
443.1  78463.35  2240.35  2.86
444.6  80229.60  2302.41  2.87
446.0  81995.25  2377.83  2.90
447.5  83950.00  2445.72  2.91
448.9  85667.23  2513.15  2.93
450.4  87550.00  2587.15  2.96
451.8  89319.38  2663.25  2.98
453.3  91116.38  2730.42  3.00
454.7  92902.95  2803.29  3.02
456.2  94688.30  2872.55  3.03
457.6  96546.60  2944.62  3.05
459.1  98346.68  3012.77  3.06
460.5  100201.00  3076.87  3.07
462.0  102207.60  3146.17  3.08
463.4  104167.35  3214.79  3.09
464.8  106109.33  3291.03  3.10
466.3  108002.18  3361.94  3.11
467.7  109969.60  3431.09  3.12
469.2  111830.85  3510.11  3.14
470.6  113843.63  3569.65  3.14
472.0  115874.20  3639.12  3.14
473.5  117855.28  3726.55  3.16
474.9  120007.80  3810.56  3.18
476.4  122069.80  3888.03  3.19
477.8  124124.00  3984.00  3.21
479.2  126140.53  4056.42  3.22
480.7  128265.38  4146.70  3.23
482.1  130437.68  4229.44  3.24
483.6  132608.70  4317.33  3.26
485.0  134811.53  4412.86  3.27
486.4  136893.70  4507.24  3.29
487.9  139131.25  4606.37  3.31
489.3  141243.83  4704.75  3.33
490.7  143416.45  4816.18  3.36
492.2  145592.13  4942.12  3.39
493.6  147839.20  5081.07  3.44
495.0  150111.98  5220.38  3.48
496.5  152267.85  5376.78  3.53
497.9  154530.25  5546.10  3.59
499.3  156771.88  5732.56  3.66
500.7  159017.70  5940.58  3.74
502.2  161418.78  6186.12  3.83
503.6  163701.00  6451.36  3.94
505.0  165956.18  6750.25  4.07
506.5  168359.35  7095.90  4.21
507.9  170730.95  7484.18  4.38
509.3  172993.05  7918.54  4.58
510.7  175616.03  8421.11  4.80
512.2  178200.75  8990.37  5.05
513.6  181016.53  9641.17  5.33
515.0  183725.33  10349.44  5.63
516.4  186539.20  11145.54  5.97
517.8  189305.75  12009.47  6.34
519.3  192222.40  12949.53  6.74
520.7  194876.10  13937.15  7.15
522.1  197510.95  14962.65  7.58
523.5  200034.03  16015.29  8.01
524.9  202879.88  17091.22  8.42
526.3  205459.20  18141.36  8.83
527.8  208218.25  19186.93  9.21
529.2  210758.40  20206.08  9.59
530.6  213518.70  21207.19  9.93
532.0  216366.48  22178.85  10.25
533.4  218823.20  23055.34  10.54
534.8  221249.33  23887.05  10.80
536.3  224125.60  24714.21  11.03
537.7  227101.25  25489.52  11.22
539.1  229966.43  26222.91  11.40
540.5  232779.00  26938.78  11.57
541.9  235661.28  27653.78  11.73
543.3  238186.30  28330.56  11.89
544.7  241098.00  29051.32  12.05
546.1  243864.60  29746.98  12.20
547.5  246758.40  30436.87  12.33
549.0  249778.40  31126.45  12.46
550.4  252579.60  31750.88  12.57
551.8  255505.55  32330.52  12.65
553.2  258340.88  32817.81  12.70
554.6  261151.25  33210.82  12.72
556.0  264018.30  33496.62  12.69
557.4  267077.90  33709.47  12.62
558.8  269904.05  33813.30  12.53
560.2  273060.00  33893.72  12.41
561.6  275971.03  33867.10  12.27
563.0  278734.95  33761.04  12.11
564.4  281865.50  33655.66  11.94
565.8  284827.60  33471.39  11.75
567.2  287940.73  33240.09  11.54
568.6  290920.28  32912.04  11.31
570.0  293743.13  32485.42  11.06
571.4  297105.38  32055.35  10.79
572.8  300199.20  31572.95  10.52
574.2  303028.95  31083.95  10.26
575.6  306037.00  30653.13  10.02
577.0  309016.40  30257.34  9.79
578.4  312375.00  29956.25  9.59
579.8  315407.60  29659.34  9.40
581.2  318464.25  29406.87  9.23
582.5  321322.50  29171.57  9.08
583.9  324292.20  28989.20  8.94
585.3  327149.40  28831.10  8.81
586.7  330122.10  28717.92  8.70
588.1  333026.90  28637.03  8.60
589.5  336341.10  28625.36  8.51
590.9  339220.35  28611.79  8.43
592.3  342153.90  28650.63  8.37
593.7  345074.45  28725.74  8.32
595.0  347967.00  28825.58  8.28
596.4  351235.00  28968.72  8.25
597.8  353884.90  29062.22  8.21
599.2  356953.35  29164.09  8.17
600.6  360096.00  29249.76  8.12
602.0  363031.80  29257.20  8.06
603.3  365872.00  29196.52  7.98
604.7  368854.63  29082.78  7.88
606.1  371841.38  28907.68  7.77
607.5  375138.83  28701.89  7.65
608.9  378162.40  28421.47  7.52
610.2  381258.90  28114.09  7.37
611.6  384120.00  27775.00  7.23
613.0  386874.65  27414.48  7.09
614.4  389637.53  27064.91  6.95
615.8  392866.10  26784.92  6.82
617.1  395545.15  26500.05  6.70
618.5  398774.33  26307.75  6.60
619.9  401415.15  26120.62  6.51
621.3  404342.58  26011.84  6.43
622.6  407189.25  25950.60  6.37
624.0  409891.50  25932.88  6.33
625.4  412959.83  25989.96  6.29
626.8  415877.15  26066.14  6.27
628.1  418562.55  26178.46  6.25
629.5  421277.50  26310.16  6.25
630.9  424058.50  26451.19  6.24
632.2  427058.25  26596.09  6.23
633.6  429482.30  26647.34  6.20
635.0  432302.25  26645.69  6.16
636.3  435256.00  26567.49  6.10
637.7  437923.83  26381.98  6.02
639.1  440813.45  26119.16  5.93
640.4  443525.38  25770.17  5.81
641.8  446310.00  25378.36  5.69
643.2  448873.60  24910.55  5.55
644.5  451710.00  24452.00  5.41
645.9  454282.85  23981.44  5.28
647.2  456565.73  23543.85  5.16
648.6  459120.40  23207.95  5.05
650.0  461775.60  22920.23  4.96
651.3  464678.45  22685.49  4.88
652.7  468651.75  22490.38  4.80
654.0  471519.05  22241.98  4.72
655.4  473660.25  21981.72  4.64
656.8  475228.95  21696.62  4.57
658.1  477799.88  21365.45  4.47
659.5  480988.80  20985.33  4.36
660.8  483925.05  20577.90  4.25
662.2  486640.73  20175.98  4.15
663.5  489329.95  19795.51  4.05
664.9  491139.30  19434.43  3.96
666.2  493231.38  19158.75  3.88
667.6  495771.75  18940.70  3.82
668.9  498355.20  18815.45  3.78
670.3  501466.00  18741.28  3.74
671.6  503457.60  18719.00  3.72
673.0  505704.80  18779.57  3.71
674.3  508072.95  18877.21  3.72
675.7  510518.70  19013.25  3.72
677.0  512780.40  19205.14  3.75
678.4  514882.20  19431.29  3.77
679.7  517214.03  19756.48  3.82
681.1  519708.68  20162.42  3.88
682.4  521805.75  20672.95  3.96
683.8  524009.25  21329.16  4.07
685.1  526167.75  22217.12  4.22
686.4  528355.75  23373.68  4.42
687.8  530748.98  24927.08  4.70
689.1  533066.80  26982.74  5.06
690.5  535110.80  29704.85  5.55
691.8  537615.10  33295.33  6.19
693.1  539965.50  37856.19  7.01
694.5  542229.60  43376.62  8.00
695.8  544589.40  49754.33  9.14
697.1  546818.10  56891.16  10.40
698.5  549107.88  64703.36  11.78
699.8  551365.60  73006.33  13.24
701.1  553228.20  81577.38  14.75
702.5  555200.00  90319.15  16.27
703.8  557506.10  99136.27  17.78
705.1  559267.15  107717.20  19.26
706.5  561525.70  116252.04  20.70
707.8  563326.33  124529.10  22.11
709.1  565520.60  132718.61  23.47
710.5  567628.83  140724.94  24.79
711.8  569492.00  148524.46  26.08
713.1  571341.00  156193.20  27.34
714.4  573394.18  163756.84  28.56
715.8  575611.23  171240.36  29.75
717.1  577778.50  178571.96  30.91
718.4  579971.55  185741.25  32.03
719.7  582112.13  192700.30  33.10
721.0  583757.30  199345.75  34.15
722.4  585564.75  205792.29  35.14
723.7  587414.60  212069.88  36.10
725.0  589089.10  218006.69  37.01
726.3  591307.60  223908.36  37.87
727.6  592950.00  229357.87  38.68
729.0  594785.45  234567.73  39.44
730.3  596723.98  239537.14  40.14
731.6  598157.80  244044.33  40.80
732.9  600014.35  248492.19  41.41
734.2  601581.75  252550.77  41.98
735.5  603356.05  256447.36  42.50
736.8  605320.80  260196.42  42.98
738.1  607053.30  263619.72  43.43
739.5  608753.70  266791.37  43.83
740.8  610577.55  269846.76  44.20
742.1  612063.38  272572.78  44.53
743.4  613719.75  275192.20  44.84
744.7  615587.00  277704.00  45.11
746.0  617006.43  279881.33  45.36
747.3  618615.90  281953.78  45.58
748.6  620154.90  283851.87  45.77
749.9  621883.60  285721.58  45.94
751.2  623067.43  287277.63  46.11
752.5  624494.73  288850.57  46.25
753.8  625709.25  290234.37  46.38
755.1  627214.63  291681.80  46.50
756.4  628217.98  292829.11  46.61
757.7  630137.75  294311.88  46.71
759.0  633648.85  296450.93  46.78
760.3  636230.10  298118.07  46.86
761.6  638989.05  299792.70  46.92
762.9  640323.75  300771.90  46.97
764.2  641057.45  301414.79  47.02
765.5  641876.58  302085.05  47.06
766.8  642317.75  302554.10  47.10
768.1  643296.15  303246.00  47.14
769.3  644492.20  303992.65  47.17
770.6  645799.05  304798.67  47.20
771.9  646966.03  305474.28  47.22
773.2  648282.38  306264.30  47.24
774.5  649131.90  306794.63  47.26
775.8  650128.85  307393.73  47.28
777.1  651225.50  308040.91  47.30
778.4  652487.88  308705.36  47.31
779.6  653644.20  309399.52  47.33
780.9  654313.95  309791.16  47.35
782.2  655146.95  310327.16  47.37
783.5  655995.25  310817.80  47.38
784.8  656759.25  311243.48  47.39
786.0  657544.38  311682.57  47.40
787.3  658318.95  312094.89  47.41
788.6  659116.63  312575.38  47.42
789.9  659710.50  312963.38  47.44
791.2  660975.20  313645.80  47.45
792.4  662083.13  314217.83  47.46
793.7  663571.68  314959.96  47.46
795.0  664561.60  315498.04  47.47
796.2  665792.25  316140.28  47.48
797.5  666875.63  316742.32  47.50
798.8  668231.38  317420.03  47.50
800.0  669270.00  317968.00  47.51
801.3  670477.50  318575.03  47.51
802.6  671400.00  319087.55  47.53
803.8  672391.65  319663.86  47.54
805.1  673296.75  320193.25  47.56
806.4  674173.25  320678.57  47.57
807.7  675187.05  321211.03  47.57
808.9  676404.48  321776.70  47.57
810.2  677155.50  322184.16  47.58
811.4  678152.80  322713.02  47.59
812.7  679443.65  323390.22  47.60
814.0  680595.30  324028.32  47.61
815.2  681999.60  324711.71  47.61
816.5  683038.13  325263.38  47.62
817.7  683773.00  325686.43  47.63
819.0  684481.00  326023.04  47.63
820.2  685216.35  326474.02  47.65
821.5  686244.80  327029.92  47.65
822.7  687302.70  327582.22  47.66
824.0  688105.60  328027.29  47.67
825.2  688749.75  328392.43  47.68
826.5  689500.50  328788.19  47.68
827.7  690505.13  329338.61  47.70
829.0  691427.40  329812.08  47.70
830.2  692416.60  330294.53  47.70
831.5  693202.95  330769.26  47.72
832.7  694120.95  331246.75  47.72
834.0  694822.73  331588.24  47.72
835.2  695752.45  332111.48  47.73
836.4  696529.20  332492.12  47.74
837.7  697359.38  332958.38  47.75
838.9  698510.85  333580.34  47.76
840.1  699339.30  334053.68  47.77
841.4  700190.50  334548.12  47.78
842.6  701144.50  334984.56  47.78
843.8  701951.90  335430.83  47.79
845.1  702900.00  335882.44  47.79
846.3  703713.15  336379.53  47.80
847.5  704665.00  336919.89  47.81
848.8  705571.05  337443.84  47.83
850.0  706650.40  338034.13  47.84
851.2  707475.40  338473.65  47.84
852.5  708582.50  339091.91  47.85
853.7  709474.28  339463.21  47.85
854.9  710605.35  340115.55  47.86
856.1  711645.95  340665.12  47.87
857.4  712603.43  341145.69  47.87
858.6  713493.20  341610.72  47.88
859.8  714646.50  342206.52  47.88
861.0  715592.50  342674.52  47.89
862.2  716444.40  343247.70  47.91
863.5  717525.13  343745.64  47.91
864.7  718606.25  344244.29  47.90
865.9  719460.88  344771.35  47.92
867.1  720275.00  345072.32  47.91
868.3  721304.48  345690.49  47.93
869.5  722459.10  346290.25  47.93
870.8  723522.15  346875.55  47.94
872.0  724530.93  347395.60  47.95
873.2  725513.78  347806.63  47.94
874.4  726392.00  348252.19  47.94
875.6  727518.55  348786.67  47.94
876.8  728707.65  349471.46  47.96
878.0  729873.20  349912.25  47.94
879.2  730842.75  350481.11  47.96
880.4  732226.00  351033.09  47.94
881.6  733219.30  351467.47  47.93
882.8  734445.95  352032.65  47.93
884.0  735151.30  352505.20  47.95
885.2  736380.50  353120.12  47.95
886.5  737730.35  353735.22  47.95
887.7  738781.33  354215.27  47.95
888.8  740316.00  354864.36  47.93
890.0  741063.75  355262.25  47.94
891.2  741920.40  355737.64  47.95
892.4  743230.95  356431.31  47.96
893.6  745043.35  357211.07  47.95
894.8  746589.53  357984.03  47.95
896.0  748240.75  358653.54  47.93
897.2  749976.98  359486.04  47.93
898.4  751856.70  360316.20  47.92
899.6  753116.00  360886.81  47.92
900.8  753300.60  361173.99  47.95
902.0  753983.95  361430.20  47.94
903.2  754189.00  361498.26  47.93
904.3  755308.13  361887.27  47.91
905.5  756459.00  362420.62  47.91
906.7  757627.53  362961.86  47.91
907.9  758809.65  363436.45  47.90
909.1  759568.43  363928.68  47.91
910.2  759780.00  364081.50  47.92
911.4  760098.15  364079.02  47.90
912.6  760722.50  364248.86  47.88
913.8  761770.80  364667.19  47.87
915.0  761917.00  364893.58  47.89
916.2  761960.70  364985.10  47.90
917.3  762324.75  365307.20  47.92
918.5  762693.30  365370.87  47.91
919.7  763026.00  365387.66  47.89
920.8  763305.80  365425.44  47.87
922.0  763522.10  365369.10  47.85
923.2  763770.00  365495.12  47.85
924.4  764038.25  365721.96  47.87
925.5  764915.60  366014.64  47.85
926.7  765491.08  366392.99  47.86
927.9  766915.98  367083.96  47.86
929.0  769888.80  368429.97  47.85
930.2  774215.80  370215.22  47.82
931.4  779313.65  372357.24  47.78
932.5  783626.80  374332.91  47.77
933.7  786119.70  375477.27  47.76
934.9  787360.00  376179.00  47.78
936.0  786546.90  375631.02  47.76
937.2  783606.90  373998.51  47.73
938.3  779632.75  372002.90  47.72
939.5  777336.30  370777.35  47.70
940.7  777361.20  370496.89  47.66
941.8  779959.70  371714.15  47.66
943.0  782315.48  372493.57  47.61
944.2  783972.00  373100.40  47.59
945.3  783282.60  372577.87  47.57
946.5  781471.25  371563.00  47.55
947.6  782341.00  371792.42  47.52
948.8  781262.60  370977.46  47.48
949.9  781753.35  370871.76  47.44
951.1  781383.50  370483.96  47.41
952.2  781031.15  369898.04  47.36
953.4  780614.70  369372.74  47.32
954.5  778897.88  368275.43  47.28
955.7  778888.20  367705.97  47.21
956.8  778890.68  367385.21  47.17
958.0  778392.45  366505.04  47.08
959.1  777470.40  365990.40  47.07
960.3  777000.00  365599.65  47.05
961.4  777878.10  365614.18  47.00
962.6  777146.40  365094.11  46.98
963.7  777870.80  364973.76  46.92
964.9  777837.28  364894.54  46.91
966.0  778055.95  364892.15  46.90
967.2  778230.60  364845.60  46.88
968.3  778978.30  365176.49  46.88
969.5  779538.40  365279.14  46.86
970.6  779686.20  365241.68  46.84
971.8  779641.63  364953.76  46.81
972.9  780472.00  365077.00  46.78
974.0  781261.03  365369.71  46.77
975.2  779743.13  364776.27  46.78
976.3  780657.20  365069.60  46.76
977.5  780827.18  364473.76  46.68
978.6  781889.55  364216.09  46.58
979.7  780472.00  363809.60  46.61
980.9  781923.78  363710.45  46.51
982.0  780760.00  363499.55  46.56
983.2  781190.20  363267.56  46.50
984.3  779976.75  362535.09  46.48
985.4  778975.40  362322.74  46.51
986.6  780639.60  362118.12  46.39
987.7  778879.50  361546.93  46.42
988.9  779067.38  362281.37  46.50
990.0  779775.55  361753.29  46.39
993.1  851751.00  394984.93  46.37
996.9  851665.20  395415.99  46.43
1000.7  851426.43  395814.37  46.49
1004.5  850412.40  395882.59  46.55
1008.4  851526.96  396944.10  46.62
1012.2  852866.04  398047.28  46.67
1016.0  853049.48  398473.62  46.71
1019.8  852069.45  398251.55  46.74
1023.7  850842.57  397949.57  46.77
1027.5  848372.20  397222.84  46.82
1031.3  846742.23  396803.66  46.86
1035.1  845449.80  396638.34  46.91
1038.9  844760.89  396643.68  46.95
1042.7  844284.25  396780.13  47.00
1046.5  843539.38  396672.57  47.02
1050.3  841945.81  396104.77  47.05
1054.2  839839.83  395354.97  47.08
1058.0  838994.40  395010.00  47.08
1061.8  837719.50  394618.65  47.11
1065.6  835876.21  393763.93  47.11
1069.4  833512.92  392643.53  47.11
1073.2  831546.63  391597.96  47.09
1077.0  830244.80  390747.66  47.06
1080.8  829873.00  390327.54  47.03
1084.6  829398.17  389964.15  47.02
1088.4  828728.10  389534.38  47.00
1092.2  827451.33  388749.45  46.98
1096.0  825904.53  387850.56  46.96
1099.8  824325.50  386835.46  46.93
1103.6  822521.43  385622.54  46.88
1107.4  820849.98  384491.38  46.84
1111.2  819380.95  383428.44  46.79
1114.9  818319.00  382494.86  46.74
1118.7  817722.58  381631.22  46.67
1122.5  817689.93  380850.74  46.58
1126.3  815276.70  378799.20  46.46
1130.1  814616.33  377166.83  46.30
1133.9  811191.83  373677.79  46.07
1137.7  808564.20  370109.91  45.77
1141.4  804755.65  365656.70  45.44
1145.2  803876.42  362155.97  45.05
1149.0  801819.45  358371.74  44.69
1152.8  798424.55  354289.86  44.37
1156.6  794882.60  350689.76  44.12
1160.3  791619.00  347735.12  43.93
1164.1  786897.73  344590.10  43.79
1167.9  783863.08  342467.96  43.69
1171.7  781376.97  340718.44  43.60
1175.4  778938.77  339153.87  43.54
1179.2  776917.50  337722.91  43.47
1183.0  777200.75  337230.57  43.39
1186.7  777415.33  336777.50  43.32
1190.5  776104.38  335839.06  43.27
1194.3  773282.77  334392.75  43.24
1198.0  770099.68  332935.69  43.23
1201.8  767638.67  331826.00  43.23
1205.6  766107.58  331301.96  43.24
1209.3  764955.75  331186.98  43.29
1213.1  763488.29  331109.41  43.37
1216.8  761415.07  330956.98  43.47
1220.6  759027.83  330656.72  43.56
1224.3  756616.67  330294.64  43.65
1228.1  754340.43  330025.53  43.75
1231.9  751890.75  329480.64  43.82
1235.6  749302.13  328863.98  43.89
1239.4  746911.43  328319.30  43.96
1243.1  744691.50  327682.99  44.00
1246.9  742739.25  327051.24  44.03
1250.6  740683.88  326324.94  44.06
1254.3  738724.80  325627.72  44.08
1258.1  736676.67  324790.15  44.09
1261.8  734188.93  323769.50  44.10
1265.6  732001.76  322725.05  44.09
1269.3  729954.07  321717.93  44.07
1273.1  730478.24  321782.50  44.05
1276.8  730444.27  321525.65  44.02
1280.6  729580.31  320799.51  43.97
1284.3  726961.07  319175.36  43.91
1288.0  725239.45  317833.06  43.82
1291.8  723870.00  316572.30  43.73
1295.5  722284.31  315160.03  43.63
1299.2  719844.45  313292.16  43.52
1302.9  716843.05  310961.60  43.38
1306.7  713632.50  308349.79  43.21
1310.4  710572.82  305480.51  42.99
1314.1  708046.88  302677.64  42.75
1317.9  705491.15  299596.22  42.47
1321.6  702675.46  296144.07  42.15
1325.3  699866.33  292445.30  41.79
1329.0  697250.40  288665.30  41.40
1332.8  693571.25  284187.06  40.97
1336.5  690112.33  279820.05  40.55
