/*** Spectra Vista SIG Data ***/
name= 37_20220721_LIST_50_avg.sig
comm= Averaged Ref/Tar of files: HR.072122.0033_moc.sig,HR.072122.0034_moc.sig,HR.072122.0035_moc.sig
data=
337.3  3374.50  297.75  8.82
338.8  3511.30  264.78  7.54
340.3  3701.15  264.15  7.14
341.8  3840.90  268.25  6.98
343.2  4040.40  256.25  6.34
344.7  4222.35  254.28  6.02
346.2  4411.80  252.88  5.73
347.7  4601.03  250.93  5.45
349.2  4762.80  241.20  5.06
350.6  5031.33  237.84  4.73
352.1  5323.03  234.77  4.41
353.6  5586.70  242.57  4.34
355.1  5859.45  241.82  4.13
356.6  6161.70  247.22  4.01
358.0  6411.90  247.91  3.87
359.5  6705.30  246.02  3.67
361.0  7032.38  250.80  3.57
362.5  7377.30  257.62  3.49
364.0  7713.58  263.27  3.41
365.4  8064.70  269.76  3.34
366.9  8453.25  285.72  3.38
368.4  8782.55  288.34  3.28
369.9  9134.45  297.02  3.25
371.3  9531.90  301.07  3.16
372.8  9929.70  313.04  3.15
374.3  10346.88  324.04  3.13
375.8  10753.05  321.35  2.99
377.2  11163.50  325.87  2.92
378.7  11540.10  334.59  2.90
380.2  11943.60  337.15  2.82
381.7  12458.53  350.04  2.81
383.1  12962.95  346.50  2.67
384.6  13433.55  358.13  2.67
386.1  13890.85  367.54  2.65
387.6  14310.45  374.22  2.62
389.0  14793.60  380.81  2.57
390.5  15292.80  384.85  2.52
392.0  15843.55  398.01  2.51
393.4  16395.60  400.38  2.44
394.9  16912.80  418.10  2.47
396.4  17413.88  424.35  2.44
397.9  17963.13  439.29  2.45
399.3  18487.25  446.20  2.41
400.8  19042.70  452.92  2.38
402.2  19689.10  471.36  2.39
403.7  20247.08  477.83  2.36
405.2  20857.68  491.99  2.36
406.6  21436.80  502.89  2.35
408.1  22012.40  513.99  2.34
409.6  22608.50  528.89  2.34
411.0  23250.15  543.31  2.34
412.5  23886.28  560.09  2.34
414.0  24531.50  577.49  2.35
415.4  25221.38  597.38  2.37
416.9  25867.05  610.93  2.36
418.4  26555.85  631.04  2.38
419.8  27245.40  649.65  2.38
421.3  27949.60  671.92  2.40
422.7  28710.00  693.35  2.42
424.2  29480.63  718.07  2.44
425.7  30220.20  737.69  2.44
427.1  30937.88  760.20  2.46
428.6  31713.00  784.45  2.47
430.0  32428.98  802.68  2.48
431.5  33282.75  829.83  2.49
432.9  34134.50  852.77  2.50
434.4  35010.30  877.78  2.51
435.9  35826.00  897.07  2.50
437.3  36643.75  916.93  2.50
438.8  37439.85  943.79  2.52
440.2  38282.48  972.00  2.54
441.7  39221.80  999.77  2.55
443.1  40094.50  1024.92  2.56
444.6  41042.30  1051.74  2.56
446.0  41961.15  1073.83  2.56
447.5  42885.15  1103.43  2.57
448.9  43782.60  1130.78  2.58
450.4  44742.25  1166.49  2.61
451.8  45591.00  1195.26  2.62
453.3  46494.70  1222.33  2.63
454.7  47482.70  1246.98  2.63
456.2  48337.38  1269.10  2.63
457.6  49263.53  1297.92  2.63
459.1  50208.60  1326.41  2.64
460.5  51119.25  1353.29  2.65
462.0  52138.88  1382.90  2.65
463.4  53142.30  1409.67  2.65
464.8  54112.50  1434.28  2.65
466.3  55076.18  1462.87  2.66
467.7  56046.65  1487.12  2.65
469.2  57060.05  1517.96  2.66
470.6  57998.40  1546.57  2.67
472.0  59002.40  1578.28  2.67
473.5  59988.88  1602.99  2.67
474.9  60975.75  1630.47  2.67
476.4  62107.20  1661.07  2.67
477.8  63147.50  1693.60  2.68
479.2  64119.00  1725.36  2.69
480.7  65195.40  1758.78  2.70
482.1  66296.60  1790.15  2.70
483.6  67452.60  1829.23  2.71
485.0  68510.18  1863.00  2.72
486.4  69679.95  1901.75  2.73
487.9  70726.50  1938.86  2.74
489.3  71858.00  1981.00  2.76
490.7  72903.48  2025.04  2.78
492.2  74102.70  2079.28  2.81
493.6  75183.80  2131.09  2.83
495.0  76269.38  2187.62  2.87
496.5  77410.63  2242.62  2.90
497.9  78467.23  2308.31  2.94
499.3  79597.20  2379.87  2.99
500.7  80809.40  2468.45  3.05
502.2  81920.60  2563.20  3.13
503.6  83132.40  2672.49  3.21
505.0  84164.25  2793.54  3.32
506.5  85443.83  2931.64  3.43
507.9  86607.65  3089.53  3.57
509.3  87941.60  3282.78  3.73
510.7  89168.63  3498.86  3.92
512.2  90526.65  3748.34  4.14
513.6  91940.45  4035.22  4.39
515.0  93316.00  4358.00  4.67
516.4  94632.30  4719.06  4.99
517.8  96177.13  5133.70  5.34
519.3  97455.30  5567.53  5.71
520.7  98968.20  6047.66  6.11
522.1  100214.73  6541.10  6.53
523.5  101539.50  7054.84  6.95
524.9  102937.05  7581.89  7.37
526.3  104267.10  8087.93  7.76
527.8  105702.30  8594.62  8.13
529.2  106818.10  9072.25  8.49
530.6  108317.20  9561.77  8.83
532.0  109956.00  10019.47  9.11
533.4  111260.70  10403.62  9.35
534.8  112200.90  10719.30  9.55
536.3  113855.40  11069.18  9.72
537.7  115768.80  11421.60  9.87
539.1  117149.13  11699.12  9.99
540.5  118306.90  11940.52  10.09
541.9  119975.48  12221.10  10.19
543.3  121236.55  12458.89  10.28
544.7  122481.60  12690.92  10.36
546.1  124205.40  12969.26  10.44
547.5  125395.20  13182.93  10.51
549.0  127116.00  13435.50  10.57
550.4  128573.13  13647.96  10.61
551.8  130046.90  13830.25  10.63
553.2  131524.10  13972.65  10.62
554.6  132839.20  14051.09  10.58
556.0  134301.60  14103.21  10.50
557.4  135856.35  14114.37  10.39
558.8  137448.00  14089.80  10.25
560.2  138848.63  14004.87  10.09
561.6  140456.03  13905.96  9.90
563.0  141978.15  13765.35  9.70
564.4  143511.65  13594.43  9.47
565.8  144988.75  13381.02  9.23
567.2  146651.50  13150.83  8.97
568.6  148117.50  12875.59  8.69
570.0  149501.45  12572.33  8.41
571.4  151186.10  12286.97  8.13
572.8  152868.63  12012.03  7.86
574.2  154436.80  11741.23  7.60
575.6  155925.00  11481.43  7.36
577.0  157375.10  11253.51  7.15
578.4  159056.63  11062.78  6.96
579.8  160512.30  10881.36  6.78
581.2  162188.90  10738.95  6.62
582.5  163542.60  10593.74  6.48
583.9  165011.20  10473.46  6.35
585.3  166735.35  10385.20  6.23
586.7  168157.60  10300.04  6.13
588.1  169604.50  10229.11  6.03
589.5  171193.75  10188.27  5.95
590.9  172769.20  10160.92  5.88
592.3  174507.75  10158.57  5.82
593.7  175903.65  10150.62  5.77
595.0  177472.35  10160.33  5.73
596.4  178852.45  10166.61  5.68
597.8  180278.10  10170.36  5.64
599.2  181777.20  10171.04  5.60
600.6  183458.60  10166.85  5.54
602.0  184714.58  10122.45  5.48
603.3  186434.45  10085.33  5.41
604.7  188044.93  10023.38  5.33
606.1  189474.00  9927.59  5.24
607.5  191037.08  9818.58  5.14
608.9  192667.65  9706.01  5.04
610.2  193999.05  9567.99  4.93
611.6  195550.58  9438.40  4.83
613.0  197040.20  9307.45  4.72
614.4  198360.15  9170.66  4.62
615.8  199748.25  9048.00  4.53
617.1  201228.30  8951.60  4.45
618.5  202789.60  8873.80  4.38
619.9  204233.70  8811.72  4.31
621.3  205818.98  8773.07  4.26
622.6  207339.00  8752.05  4.22
624.0  208729.50  8739.40  4.19
625.4  210139.05  8742.77  4.16
626.8  211675.10  8771.79  4.14
628.1  212953.13  8795.19  4.13
629.5  214758.90  8849.53  4.12
630.9  216296.85  8888.51  4.11
632.2  217636.48  8910.10  4.09
633.6  219217.13  8931.75  4.07
635.0  220676.00  8920.08  4.04
636.3  222166.60  8880.34  4.00
637.7  223494.63  8807.63  3.94
639.1  225067.50  8721.33  3.87
640.4  226487.45  8598.80  3.80
641.8  227643.08  8459.91  3.72
643.2  229169.85  8326.52  3.63
644.5  230479.25  8184.00  3.55
645.9  232174.80  8062.47  3.47
647.2  234107.48  7970.08  3.40
648.6  235973.25  7886.32  3.34
650.0  237384.00  7814.26  3.29
651.3  237676.73  7734.85  3.25
652.7  238452.25  7668.84  3.22
654.0  240358.40  7644.24  3.18
655.4  241916.05  7586.89  3.14
656.8  242322.50  7494.89  3.09
658.1  243548.30  7417.50  3.05
659.5  245774.03  7374.07  3.00
660.8  247500.00  7319.57  2.96
662.2  248326.40  7245.65  2.92
663.5  249852.00  7198.96  2.88
664.9  251210.70  7166.72  2.85
666.2  251947.80  7137.41  2.83
667.6  253567.35  7146.13  2.82
668.9  254667.65  7187.84  2.82
670.3  255656.75  7230.32  2.83
671.6  257247.38  7321.48  2.85
673.0  258397.88  7420.51  2.87
674.3  259564.50  7529.58  2.90
675.7  260860.28  7653.09  2.93
677.0  261965.35  7803.14  2.98
678.4  263308.88  7972.63  3.03
679.7  264366.08  8156.80  3.09
681.1  265628.48  8362.01  3.15
682.4  266724.90  8588.27  3.22
683.8  267984.60  8847.58  3.30
685.1  268951.50  9142.47  3.40
686.4  270218.40  9496.95  3.51
687.8  271472.25  9943.84  3.66
689.1  272518.00  10502.00  3.85
690.5  273832.20  11257.16  4.11
691.8  274622.03  12235.39  4.46
693.1  275854.35  13560.66  4.92
694.5  277026.75  15239.90  5.50
695.8  278187.00  17314.27  6.22
697.1  279324.50  19805.93  7.09
698.5  280390.40  22716.00  8.10
699.8  281442.10  26041.27  9.25
701.1  282530.50  29742.26  10.53
702.5  283318.20  33714.61  11.90
703.8  284242.50  37951.71  13.35
705.1  285380.55  42391.37  14.85
706.5  286422.38  46958.09  16.39
707.8  287376.30  51597.85  17.95
709.1  288238.08  56261.55  19.52
710.5  289354.33  60985.52  21.08
711.8  290212.20  65650.78  22.62
713.1  291215.70  70346.94  24.16
714.4  292130.00  74981.95  25.67
715.8  292910.50  79554.93  27.16
717.1  294215.40  84193.51  28.62
718.4  295142.40  88637.87  30.03
719.7  296242.98  93036.65  31.41
721.0  296775.00  97147.29  32.73
722.4  297547.25  101205.26  34.01
723.7  298481.70  105193.07  35.24
725.0  299515.50  109062.25  36.41
726.3  300422.65  112735.93  37.53
727.6  300993.28  116105.34  38.57
729.0  301922.25  119447.11  39.56
730.3  302686.65  122556.59  40.49
731.6  303589.10  125550.17  41.36
732.9  304390.45  128339.68  42.16
734.2  305184.00  130978.36  42.92
735.5  306201.40  133552.10  43.62
736.8  306986.10  135866.46  44.26
738.1  307832.00  138060.06  44.85
739.5  308763.10  140164.81  45.40
740.8  309461.90  142016.54  45.89
742.1  310207.78  143789.85  46.35
743.4  310950.00  145436.19  46.77
744.7  311968.60  147098.72  47.15
746.0  312819.00  148586.73  47.50
747.3  313370.43  149823.97  47.81
748.6  314124.25  151042.63  48.08
749.9  314912.00  152188.65  48.33
751.2  315630.50  153242.49  48.55
752.5  316545.75  154298.95  48.74
753.8  317150.23  155160.16  48.92
755.1  317876.00  156004.46  49.08
756.4  318479.48  156728.70  49.21
757.7  319444.83  157579.42  49.33
759.0  321230.03  158779.64  49.43
760.3  322396.80  159645.58  49.52
761.6  323961.40  160675.15  49.60
762.9  324531.00  161176.65  49.66
764.2  324925.10  161562.42  49.72
765.5  325245.88  161879.23  49.77
766.8  325720.00  162251.89  49.81
768.1  326251.80  162638.57  49.85
769.3  326905.95  163050.21  49.88
770.6  327546.05  163471.83  49.91
771.9  328323.28  163932.88  49.93
773.2  328730.00  164207.18  49.95
774.5  329357.60  164583.47  49.97
775.8  330072.85  164993.97  49.99
777.1  330677.60  165349.35  50.00
778.4  331060.68  165571.95  50.01
779.6  331879.63  166007.05  50.02
780.9  332370.00  166293.72  50.03
782.2  332840.75  166574.94  50.05
783.5  333212.50  166796.66  50.06
784.8  333773.10  167111.43  50.07
786.0  334239.50  167359.16  50.07
787.3  334673.68  167600.48  50.08
788.6  335117.25  167871.12  50.09
789.9  335588.40  168144.72  50.10
791.2  336304.30  168505.82  50.11
792.4  337004.50  168881.62  50.11
793.7  337540.40  169152.23  50.11
795.0  338182.35  169509.64  50.12
796.2  338895.95  169879.21  50.13
797.5  339645.23  170272.88  50.13
798.8  340343.95  170640.64  50.14
800.0  341053.00  171017.12  50.14
801.3  341578.20  171291.41  50.15
802.6  342214.43  171614.55  50.15
803.8  342902.20  171970.84  50.15
805.1  343441.00  172251.55  50.15
806.4  343928.70  172510.27  50.16
807.7  344466.68  172805.52  50.17
808.9  345019.10  173110.86  50.17
810.2  345587.90  173395.49  50.17
811.4  346103.10  173678.83  50.18
812.7  346815.63  174006.55  50.17
814.0  347676.35  174440.73  50.17
815.2  348320.25  174770.27  50.18
816.5  348726.48  175005.62  50.18
817.7  349184.65  175259.76  50.19
819.0  349729.05  175528.90  50.19
820.2  349932.00  175642.97  50.19
821.5  350681.10  175999.24  50.19
822.7  351017.08  176199.09  50.20
824.0  351364.50  176360.04  50.19
825.2  351874.13  176624.82  50.20
826.5  352151.48  176779.68  50.20
827.7  352743.63  177055.82  50.19
829.0  353158.80  177261.55  50.19
830.2  353468.60  177410.59  50.19
831.5  353958.70  177640.85  50.19
832.7  354285.23  177806.82  50.19
834.0  354626.60  177956.66  50.18
835.2  354963.95  178141.79  50.19
836.4  355257.65  178302.81  50.19
837.7  355660.40  178519.31  50.19
838.9  356114.95  178757.71  50.20
840.1  356431.05  178972.66  50.21
841.4  356876.80  179221.99  50.22
842.6  357261.80  179409.00  50.22
843.8  357635.80  179597.28  50.22
845.1  358117.90  179854.24  50.22
846.3  358436.40  180064.18  50.24
847.5  358883.70  180277.92  50.23
848.8  359243.40  180504.26  50.25
850.0  359611.00  180682.60  50.24
851.2  360078.75  180959.40  50.26
852.5  360530.10  181176.58  50.25
853.7  360963.00  181416.13  50.26
854.9  361434.80  181661.69  50.26
856.1  361864.75  181908.89  50.27
857.4  362117.68  182015.17  50.26
858.6  362540.65  182224.56  50.26
859.8  362900.63  182429.82  50.27
861.0  363355.20  182679.12  50.28
862.2  363761.85  182926.74  50.29
863.5  364152.75  183112.71  50.28
864.7  364669.80  183380.68  50.29
865.9  365018.20  183592.27  50.30
867.1  365337.05  183740.88  50.29
868.3  365791.95  183954.21  50.29
869.5  366297.30  184207.03  50.29
870.8  366817.50  184483.03  50.29
872.0  367293.75  184746.36  50.30
873.2  367695.75  184969.89  50.31
874.4  368181.45  185182.08  50.30
875.6  368560.50  185359.11  50.29
876.8  369054.40  185610.21  50.29
878.0  369547.90  185864.95  50.30
879.2  370024.05  186112.06  50.30
880.4  370542.38  186397.74  50.30
881.6  371030.53  186627.22  50.30
882.8  371418.40  186803.66  50.29
884.0  372099.35  187127.33  50.29
885.2  372637.30  187348.91  50.28
886.5  373258.85  187656.28  50.28
887.7  373783.80  187919.04  50.27
888.8  374410.05  188228.17  50.27
890.0  375069.65  188497.62  50.26
891.2  375643.30  188797.47  50.26
892.4  376203.98  189097.94  50.26
893.6  376824.85  189369.04  50.25
894.8  377706.00  189802.57  50.25
896.0  378638.75  190232.95  50.24
897.2  379525.25  190643.95  50.23
898.4  380249.10  190998.97  50.23
899.6  380805.75  191258.61  50.22
900.8  381216.80  191449.79  50.22
902.0  381490.65  191568.84  50.22
903.2  381899.48  191739.90  50.21
904.3  382377.30  191926.32  50.19
905.5  383052.93  192242.36  50.19
906.7  383630.00  192506.81  50.18
907.9  384140.40  192745.75  50.18
909.1  384540.08  192934.54  50.17
910.2  384644.40  193001.17  50.18
911.4  384959.25  193120.37  50.17
912.6  385313.50  193243.66  50.15
913.8  385694.25  193402.23  50.14
915.0  386220.45  193577.30  50.12
916.2  386460.75  193683.66  50.12
917.3  386581.28  193649.76  50.09
918.5  386787.30  193727.57  50.09
919.7  387020.10  193849.57  50.09
920.8  387102.75  193882.04  50.09
922.0  387406.25  193939.90  50.06
923.2  387796.50  194014.60  50.03
924.4  388003.50  194067.64  50.02
925.5  388350.40  194151.15  49.99
926.7  388826.13  194381.20  49.99
927.9  389841.60  194708.72  49.95
929.0  391271.85  195336.72  49.92
930.2  393412.10  196313.65  49.90
931.4  395933.40  197359.64  49.85
932.5  398576.30  198591.88  49.83
933.7  400065.08  199150.18  49.78
934.9  400640.63  199393.00  49.77
936.0  400465.00  199125.83  49.72
937.2  398734.50  198032.62  49.67
938.3  397148.40  197176.51  49.65
939.5  395758.80  196346.12  49.61
940.7  396057.60  196290.15  49.56
941.8  397513.05  196890.34  49.53
943.0  399010.50  197424.24  49.48
944.2  400003.50  197662.09  49.42
945.3  399769.50  197338.89  49.36
946.5  399131.55  196807.32  49.31
947.6  399325.80  196671.63  49.25
948.8  399497.48  196401.34  49.16
949.9  399537.60  196174.24  49.10
951.1  399245.28  195819.35  49.05
952.2  399228.00  195400.92  48.94
953.4  399163.50  194909.74  48.83
954.5  399297.60  194614.46  48.74
955.7  399268.80  194273.28  48.66
956.8  398974.90  193852.14  48.59
958.0  398921.50  193418.02  48.49
959.1  398856.08  193100.21  48.41
960.3  398546.68  192767.24  48.37
961.4  398735.00  192576.72  48.30
962.6  398704.25  192507.83  48.28
963.7  398653.13  192297.42  48.24
964.9  398627.70  192222.99  48.22
966.0  398621.25  192136.67  48.20
967.2  398866.50  192140.20  48.17
968.3  398884.50  191965.91  48.13
969.5  398673.95  191868.33  48.13
970.6  399017.95  191955.38  48.11
971.8  399133.53  192065.45  48.12
972.9  399023.55  192086.77  48.14
974.0  399227.50  192256.17  48.16
975.2  399457.38  192225.56  48.12
976.3  399396.85  192176.23  48.12
977.5  399730.98  192177.73  48.08
978.6  399699.90  192192.80  48.08
979.7  400090.95  192469.19  48.11
980.9  399970.48  192532.09  48.14
982.0  400278.30  192711.35  48.14
983.2  400054.28  192506.81  48.12
984.3  400236.80  192349.83  48.06
985.4  399795.33  192494.66  48.15
986.6  400409.50  192753.37  48.14
987.7  401118.38  193369.18  48.21
988.9  401230.80  193649.18  48.26
990.0  401690.40  193984.03  48.29
993.1  340970.99  163386.39  47.92
996.9  342049.55  164488.42  48.09
1000.7  343352.63  165663.25  48.25
1004.5  344002.83  166514.55  48.40
1008.4  343912.21  166979.24  48.55
1012.2  344072.92  167527.92  48.69
1016.0  344268.00  168104.40  48.83
1019.8  344663.55  168722.40  48.95
1023.7  344965.63  169219.83  49.05
1027.5  345054.13  169605.14  49.15
1031.3  345515.45  170109.80  49.23
1035.1  345603.77  170402.53  49.31
1038.9  345657.95  170646.67  49.37
1042.7  345529.25  170761.74  49.42
1046.5  345437.83  170860.14  49.46
1050.3  345488.88  171004.73  49.50
1054.2  345215.50  171000.08  49.53
1058.0  344763.07  170835.90  49.55
1061.8  344604.25  170841.10  49.58
1065.6  344332.17  170730.92  49.58
1069.4  344565.40  170833.46  49.58
1073.2  344392.57  170726.08  49.57
1077.0  344026.45  170499.11  49.56
1080.8  343498.96  170129.02  49.53
1084.6  342294.40  169424.85  49.50
1088.4  341512.29  168934.89  49.47
1092.2  340674.75  168379.71  49.43
1096.0  340112.70  167939.00  49.38
1099.8  339720.12  167530.60  49.31
1103.6  339141.75  167035.37  49.25
1107.4  338290.81  166375.52  49.18
1111.2  338050.80  165986.31  49.10
1114.9  337389.50  165334.25  49.00
1118.7  336691.58  164594.57  48.89
1122.5  335940.80  163710.11  48.73
1126.3  334802.01  162532.05  48.55
1130.1  334329.63  161400.12  48.28
1133.9  332892.70  159507.00  47.92
1137.7  331632.80  157379.46  47.46
1141.4  330085.28  154832.38  46.91
1145.2  329441.91  152551.55  46.31
1149.0  328415.21  150212.71  45.74
1152.8  326981.45  147920.77  45.24
1156.6  325493.12  146077.07  44.88
1160.3  323925.33  144637.33  44.65
1164.1  321673.27  143264.00  44.54
1167.9  320011.46  142360.42  44.49
1171.7  318819.38  141807.38  44.48
1175.4  317802.87  141383.34  44.49
1179.2  316940.25  140988.38  44.48
1183.0  316731.00  140850.48  44.47
1186.7  316146.83  140514.57  44.45
1190.5  315007.40  139942.35  44.43
1194.3  313829.17  139401.02  44.42
1198.0  312748.15  138955.34  44.43
1201.8  311453.18  138457.95  44.46
1205.6  310299.33  138090.19  44.50
1209.3  309334.17  137890.38  44.58
1213.1  308326.88  137682.70  44.65
1216.8  307276.02  137519.41  44.75
1220.6  306234.13  137329.87  44.84
1224.3  305065.83  137071.62  44.93
1228.1  303978.60  136867.00  45.03
1231.9  302878.00  136615.81  45.11
1235.6  301595.33  136260.73  45.18
1239.4  300384.00  135943.88  45.26
1243.1  299287.59  135593.87  45.31
1246.9  298179.61  135218.66  45.35
1250.6  297316.73  134902.22  45.37
1254.3  296353.11  134519.85  45.39
1258.1  295466.73  134143.37  45.40
1261.8  294330.80  133627.48  45.40
1265.6  293010.20  132964.63  45.38
1269.3  291533.13  132203.59  45.35
1273.1  291393.21  131988.80  45.30
1276.8  291690.40  131930.97  45.23
1280.6  291752.20  131725.95  45.15
1284.3  290624.40  130932.91  45.05
1288.0  289264.08  129977.42  44.93
1291.8  287948.51  128924.03  44.77
1295.5  286528.00  127796.74  44.60
1299.2  285268.23  126662.15  44.40
1302.9  283931.19  125381.74  44.16
1306.7  282496.43  123971.52  43.88
1310.4  281155.86  122441.22  43.55
1314.1  279910.58  120859.46  43.18
1317.9  278829.58  119185.54  42.74
1321.6  277551.75  117307.88  42.27
1325.3  276029.25  115185.83  41.73
1329.0  274779.05  113085.75  41.16
1332.8  272811.00  110567.60  40.53
1336.5  271044.40  108116.35  39.89
1340.2  270588.50  106197.00  39.25
1343.9  269993.54  104229.23  38.60
1347.6  268999.95  102153.19  37.98
1351.4  268568.50  100360.29  37.37
1355.1  268159.47  98634.02  36.78
