/*** Spectra Vista SIG Data ***/
name= 26_21220720_CECA_3_avg.sig
comm= Averaged Ref/Tar of files: HR.072122.0000_moc.sig,HR.072122.0001_moc.sig,HR.072122.0002_moc.sig
data=
337.3  3374.50  258.05  7.65
338.8  3511.30  243.71  6.94
340.3  3701.15  243.62  6.58
341.8  3932.35  243.87  6.20
343.2  4129.20  224.96  5.45
344.7  4307.65  227.47  5.28
346.2  4452.65  234.21  5.26
347.7  4679.68  235.95  5.04
349.2  4876.20  221.76  4.55
350.6  5141.50  225.25  4.38
352.1  5465.93  228.64  4.18
353.6  5760.20  235.96  4.10
355.1  5994.15  242.46  4.04
356.6  6325.58  249.09  3.94
358.0  6603.30  238.19  3.61
359.5  6890.70  234.84  3.41
361.0  7241.85  243.39  3.36
362.5  7582.23  253.72  3.35
364.0  7942.98  263.81  3.32
365.4  8317.60  277.25  3.33
366.9  8674.25  279.93  3.23
368.4  9028.03  280.02  3.10
369.9  9404.70  291.87  3.10
371.3  9798.90  309.72  3.16
372.8  10221.75  318.60  3.12
374.3  10642.50  333.25  3.13
375.8  11076.45  334.18  3.02
377.2  11486.30  333.56  2.90
378.7  11862.90  340.73  2.87
380.2  12266.40  347.91  2.84
381.7  12782.83  360.33  2.82
383.1  13259.40  370.11  2.79
384.6  13757.25  377.65  2.75
386.1  14215.15  378.35  2.66
387.6  14660.80  388.08  2.65
389.0  15115.20  400.21  2.65
390.5  15584.85  400.02  2.57
392.0  16134.50  416.15  2.58
393.4  16710.90  427.41  2.56
394.9  17252.10  435.00  2.52
396.4  17802.00  445.05  2.50
397.9  18321.88  454.42  2.48
399.3  18841.80  462.60  2.46
400.8  19416.58  471.91  2.43
402.2  20057.35  481.18  2.40
403.7  20632.28  497.55  2.41
405.2  21236.48  505.07  2.38
406.6  21808.00  522.77  2.40
408.1  22396.60  527.33  2.35
409.6  22981.65  535.58  2.33
411.0  23634.45  540.87  2.29
412.5  24323.60  560.89  2.31
414.0  24959.38  581.37  2.33
415.4  25658.63  593.60  2.31
416.9  26310.38  609.09  2.32
418.4  27004.05  622.50  2.31
419.8  27718.60  640.64  2.31
421.3  28448.70  663.09  2.33
422.7  29214.60  689.04  2.36
424.2  29986.88  708.75  2.36
425.7  30725.50  732.41  2.38
427.1  31475.93  755.38  2.40
428.6  32271.00  787.40  2.44
430.0  32990.45  813.38  2.47
431.5  33849.90  851.72  2.52
432.9  34720.50  880.95  2.54
434.4  35597.63  918.71  2.58
435.9  36428.00  952.00  2.61
437.3  37262.50  984.50  2.64
438.8  38091.45  1017.22  2.67
440.2  38929.28  1051.05  2.70
441.7  39891.80  1088.08  2.73
443.1  40796.75  1127.13  2.76
444.6  41749.70  1166.77  2.79
446.0  42674.78  1204.08  2.82
447.5  43621.88  1240.80  2.84
448.9  44530.80  1279.68  2.87
450.4  45519.25  1319.17  2.90
451.8  46371.00  1357.20  2.93
453.3  47279.20  1398.15  2.96
454.7  48273.20  1436.95  2.98
456.2  49130.88  1470.62  2.99
457.6  50086.58  1504.50  3.00
459.1  51048.08  1535.04  3.01
460.5  51961.88  1563.98  3.01
462.0  53004.48  1603.16  3.02
463.4  54019.10  1640.35  3.04
464.8  54986.63  1672.40  3.04
466.3  55945.73  1697.96  3.04
467.7  56919.30  1734.04  3.05
469.2  57974.93  1764.07  3.04
470.6  58925.70  1798.40  3.05
472.0  59945.43  1831.63  3.06
473.5  60921.13  1864.50  3.06
474.9  61944.75  1903.80  3.07
476.4  63057.60  1939.20  3.08
477.8  64119.00  1977.80  3.08
479.2  65105.00  2008.73  3.09
480.7  66179.70  2047.73  3.09
482.1  67279.20  2092.36  3.11
483.6  68435.20  2130.89  3.11
485.0  69494.48  2167.39  3.12
486.4  70654.80  2215.48  3.14
487.9  71721.00  2258.10  3.15
489.3  72844.58  2308.88  3.17
490.7  73875.33  2363.85  3.20
492.2  75058.20  2418.64  3.22
493.6  76136.05  2476.83  3.25
495.0  77220.00  2538.90  3.29
496.5  78379.18  2606.28  3.33
497.9  79450.45  2680.63  3.37
499.3  80580.43  2768.68  3.44
500.7  81790.95  2857.73  3.49
502.2  82898.80  2964.77  3.58
503.6  84125.20  3085.47  3.67
505.0  85160.45  3211.28  3.77
506.5  86448.53  3358.85  3.89
507.9  87586.10  3524.40  4.02
509.3  88918.40  3717.76  4.18
510.7  90148.50  3933.15  4.36
512.2  91496.48  4180.38  4.57
513.6  92930.60  4461.89  4.80
515.0  94311.75  4773.91  5.06
516.4  95652.90  5116.23  5.35
517.8  97222.38  5508.75  5.67
519.3  98496.85  5917.13  6.01
520.7  100007.90  6371.21  6.37
522.1  101262.85  6829.12  6.74
523.5  102595.90  7311.40  7.13
524.9  104053.05  7802.70  7.50
526.3  105458.15  8284.73  7.86
527.8  106905.15  8763.48  8.20
529.2  107861.10  9194.29  8.52
530.6  109299.80  9662.23  8.84
532.0  110936.00  10102.40  9.11
533.4  112265.25  10469.04  9.33
534.8  113219.23  10773.97  9.52
536.3  114848.70  11109.48  9.67
537.7  116751.60  11455.92  9.81
539.1  118098.15  11721.90  9.93
540.5  119258.85  11947.17  10.02
541.9  120952.80  12227.16  10.11
543.3  122208.85  12460.87  10.20
544.7  123450.60  12688.96  10.28
546.1  125186.33  12966.25  10.36
547.5  126392.00  13184.64  10.43
549.0  128051.00  13442.00  10.50
550.4  129497.50  13665.17  10.55
551.8  130983.63  13857.92  10.58
553.2  132466.85  14014.15  10.58
554.6  133764.80  14106.56  10.55
556.0  135243.45  14175.36  10.48
557.4  136806.25  14204.45  10.38
558.8  138389.85  14190.54  10.25
560.2  139803.13  14125.22  10.10
561.6  141404.70  14048.73  9.94
563.0  142941.85  13928.96  9.74
564.4  144471.70  13785.33  9.54
565.8  145945.00  13602.83  9.32
567.2  147619.00  13405.97  9.08
568.6  149063.63  13164.55  8.83
570.0  150445.30  12891.97  8.57
571.4  152114.30  12636.78  8.31
572.8  153814.25  12388.80  8.05
574.2  155377.60  12142.29  7.81
575.6  156870.00  11913.00  7.59
577.0  158335.60  11705.29  7.39
578.4  160023.50  11538.80  7.21
579.8  161476.20  11381.67  7.05
581.2  163138.05  11260.16  6.90
582.5  164502.00  11130.60  6.77
583.9  165955.20  11030.64  6.65
585.3  167701.28  10959.87  6.54
586.7  169119.60  10889.84  6.44
588.1  170562.38  10834.90  6.35
589.5  172149.25  10809.40  6.28
590.9  173711.60  10796.27  6.22
592.3  175461.55  10809.73  6.16
593.7  176854.28  10814.31  6.11
595.0  178421.40  10839.69  6.08
596.4  179810.75  10862.46  6.04
597.8  181232.58  10888.86  6.01
599.2  182714.40  10910.24  5.97
600.6  184404.68  10930.05  5.93
602.0  185654.33  10906.47  5.87
603.3  187369.40  10886.97  5.81
604.7  188974.83  10839.72  5.74
606.1  190398.60  10765.84  5.65
607.5  191970.05  10670.26  5.56
608.9  193594.95  10571.22  5.46
610.2  194920.43  10442.25  5.36
611.6  196453.05  10319.73  5.25
613.0  197965.00  10201.70  5.15
614.4  199276.80  10072.48  5.05
615.8  200669.63  9956.70  4.96
617.1  202139.70  9862.72  4.88
618.5  203692.40  9793.65  4.81
619.9  205114.28  9731.10  4.74
621.3  206678.25  9698.25  4.69
622.6  208193.00  9682.73  4.65
624.0  209563.80  9667.58  4.61
625.4  210954.15  9676.70  4.59
626.8  212455.43  9703.63  4.57
628.1  213699.48  9730.67  4.55
629.5  215419.90  9785.00  4.54
630.9  216883.98  9834.62  4.53
632.2  218145.73  9861.34  4.52
633.6  219645.25  9882.27  4.50
635.0  221071.60  9877.39  4.47
636.3  222512.60  9851.77  4.43
637.7  223790.00  9792.55  4.38
639.1  225365.00  9716.00  4.31
640.4  226752.58  9615.20  4.24
641.8  227892.63  9485.28  4.16
643.2  229386.15  9363.39  4.08
644.5  230680.00  9232.07  4.00
645.9  232248.60  9114.30  3.92
647.2  233668.75  9008.49  3.86
648.6  235325.25  8918.10  3.79
650.0  236671.20  8830.08  3.73
651.3  237220.23  8749.58  3.69
652.7  238613.60  8706.75  3.65
654.0  240450.00  8692.84  3.62
655.4  241938.83  8627.17  3.57
656.8  242231.70  8504.93  3.51
658.1  243707.20  8417.16  3.45
659.5  245909.48  8358.77  3.40
660.8  247365.00  8271.00  3.34
662.2  248236.80  8144.64  3.28
663.5  249719.10  8050.79  3.22
664.9  250879.20  7973.68  3.18
666.2  251570.40  7897.28  3.14
667.6  253187.83  7864.35  3.11
668.9  254149.58  7856.72  3.09
670.3  255634.38  7867.05  3.08
671.6  256804.88  7894.20  3.07
673.0  257911.13  7953.20  3.08
674.3  259100.40  8017.88  3.09
675.7  260374.63  8114.77  3.12
677.0  261414.73  8216.79  3.14
678.4  262670.15  8351.88  3.18
679.7  263661.28  8498.71  3.22
681.1  264833.78  8682.83  3.28
682.4  265863.00  8890.09  3.34
683.8  267056.40  9146.45  3.42
685.1  268044.38  9437.05  3.52
686.4  269308.20  9803.52  3.64
687.8  270448.75  10270.60  3.80
689.1  271427.75  10852.07  4.00
690.5  272625.30  11604.12  4.26
691.8  273385.90  12583.00  4.60
693.1  274653.90  13876.90  5.05
694.5  275730.00  15494.27  5.62
695.8  276913.00  17478.07  6.31
697.1  278005.00  19847.10  7.14
698.5  278960.30  22600.12  8.10
699.8  279968.23  25734.61  9.19
701.1  281056.63  29238.66  10.40
702.5  281807.35  32992.15  11.71
703.8  282667.50  37011.00  13.09
705.1  283788.38  41247.05  14.53
706.5  284744.25  45618.15  16.02
707.8  285655.35  50102.74  17.54
709.1  286452.08  54651.60  19.08
710.5  287523.68  59313.06  20.63
711.8  288294.40  63980.19  22.19
713.1  289231.00  68710.76  23.76
714.4  290056.10  73435.39  25.32
715.8  290814.30  78139.20  26.87
717.1  292025.10  82945.32  28.40
718.4  292902.40  87616.85  29.91
719.7  293950.53  92267.37  31.39
721.0  294412.50  96672.00  32.84
722.4  295111.85  101042.04  34.24
723.7  296012.85  105355.72  35.59
725.0  296993.03  109567.83  36.89
726.3  297866.25  113580.24  38.13
727.6  298368.40  117299.20  39.31
729.0  299194.18  120976.75  40.43
730.3  299877.60  124408.68  41.49
731.6  300718.50  127710.83  42.47
732.9  301434.53  130783.78  43.39
734.2  302192.00  133698.77  44.24
735.5  303119.63  136520.28  45.04
736.8  303857.70  139068.44  45.77
738.1  304653.30  141478.44  46.44
739.5  305523.65  143763.89  47.05
740.8  306157.78  145789.42  47.62
742.1  306813.60  147688.73  48.14
743.4  307450.00  149450.00  48.61
744.7  308318.23  151197.69  49.04
746.0  309117.90  152782.76  49.43
747.3  309618.25  154106.34  49.77
748.6  310261.75  155399.53  50.09
749.9  310908.00  156578.93  50.36
751.2  311524.95  157656.61  50.61
752.5  312309.45  158747.93  50.83
753.8  312821.78  159624.20  51.03
755.1  313482.00  160478.93  51.19
756.4  314011.78  161225.09  51.34
757.7  314907.78  162106.54  51.48
759.0  316588.20  163339.79  51.59
760.3  317644.80  164208.00  51.70
761.6  319093.60  165228.56  51.78
762.9  319555.50  165703.77  51.85
764.2  319867.90  166069.84  51.92
765.5  320111.13  166351.49  51.97
766.8  320470.40  166681.60  52.01
768.1  320936.20  167045.01  52.05
769.3  321431.25  167418.91  52.09
770.6  322039.90  167811.80  52.11
771.9  322631.93  168227.29  52.14
773.2  322964.80  168453.65  52.16
774.5  323494.60  168785.76  52.18
775.8  324100.90  169149.47  52.19
777.1  324585.25  169454.78  52.21
778.4  324852.00  169633.16  52.22
779.6  325548.20  170023.04  52.23
780.9  325920.00  170252.00  52.24
782.2  326276.50  170497.07  52.26
783.5  326533.00  170653.60  52.26
784.8  327022.43  170914.35  52.26
786.0  327324.20  171100.72  52.27
787.3  327654.75  171286.95  52.28
788.6  327988.45  171502.80  52.29
789.9  328343.40  171707.57  52.30
791.2  328909.78  172022.06  52.30
792.4  329519.18  172349.33  52.30
793.7  329925.20  172580.03  52.31
795.0  330436.43  172877.32  52.32
796.2  330989.98  173183.06  52.32
797.5  331589.03  173518.51  52.33
798.8  332206.98  173842.42  52.33
800.0  332776.40  174155.84  52.33
801.3  333166.90  174372.63  52.34
802.6  333669.15  174656.13  52.34
803.8  334240.43  174955.46  52.34
805.1  334636.75  175182.00  52.35
806.4  335013.30  175392.08  52.35
807.7  335502.00  175640.94  52.35
808.9  335982.70  175913.78  52.36
810.2  336451.85  176155.70  52.36
811.4  336880.10  176397.23  52.36
812.7  337431.25  176675.42  52.36
814.0  338170.70  177082.17  52.36
815.2  338759.50  177376.27  52.36
816.5  339087.78  177571.91  52.37
817.7  339500.55  177804.65  52.37
819.0  339952.80  178034.93  52.37
820.2  340076.00  178112.00  52.37
821.5  340724.15  178445.21  52.37
822.7  341011.30  178600.82  52.37
824.0  341312.40  178746.84  52.37
825.2  341767.35  178965.99  52.36
826.5  341987.35  179115.52  52.37
827.7  342514.30  179376.58  52.37
829.0  342877.83  179548.38  52.37
830.2  343183.00  179668.33  52.35
831.5  343627.80  179891.39  52.35
832.7  343896.53  180030.06  52.35
834.0  344178.15  180182.31  52.35
835.2  344511.48  180356.84  52.35
836.4  344801.05  180493.72  52.35
837.7  345199.80  180695.57  52.35
838.9  345540.55  180903.02  52.35
840.1  345898.35  181072.80  52.35
841.4  346350.30  181306.16  52.35
842.6  346684.40  181476.59  52.35
843.8  347029.20  181675.63  52.35
845.1  347553.60  181935.45  52.35
846.3  347858.80  182143.07  52.36
847.5  348287.10  182342.72  52.35
848.8  348737.40  182557.20  52.35
850.0  349085.80  182737.52  52.35
851.2  349609.50  183006.72  52.35
852.5  349984.90  183212.13  52.35
853.7  350392.50  183448.20  52.36
854.9  350858.80  183669.87  52.35
856.1  351286.65  183898.26  52.35
857.4  351536.98  184013.75  52.35
858.6  352037.20  184247.45  52.34
859.8  352425.00  184454.25  52.34
861.0  352895.40  184672.80  52.33
862.2  353384.90  184908.72  52.33
863.5  353738.13  185097.81  52.33
864.7  354288.00  185352.64  52.32
865.9  354668.80  185555.20  52.32
867.1  354956.05  185711.15  52.32
868.3  355387.80  185917.42  52.31
869.5  355857.60  186139.35  52.31
870.8  356413.50  186405.00  52.30
872.0  356854.88  186662.55  52.31
873.2  357379.95  186882.70  52.29
874.4  357756.75  187086.51  52.29
875.6  358189.75  187237.24  52.27
876.8  358650.55  187473.61  52.27
878.0  359096.70  187697.02  52.27
879.2  359610.15  187924.06  52.26
880.4  360089.25  188178.55  52.26
881.6  360627.80  188399.27  52.24
882.8  360975.20  188593.92  52.25
884.0  361537.20  188837.39  52.23
885.2  362025.60  189046.12  52.22
886.5  362685.70  189321.58  52.20
887.7  363070.83  189532.63  52.20
888.8  363639.60  189839.83  52.21
890.0  364160.55  190101.85  52.20
891.2  364774.10  190348.43  52.18
892.4  365371.13  190594.81  52.16
893.6  365937.30  190850.08  52.15
894.8  366758.00  191251.13  52.15
896.0  367522.75  191645.13  52.15
897.2  368342.00  192042.93  52.14
898.4  368996.10  192324.00  52.12
899.6  369483.38  192570.40  52.12
900.8  369830.90  192702.84  52.11
902.0  370047.00  192795.20  52.10
903.2  370395.83  192914.04  52.08
904.3  370706.70  193027.32  52.07
905.5  371204.78  193281.33  52.07
906.7  371826.00  193509.93  52.04
907.9  372279.95  193728.36  52.04
909.1  372512.25  193830.93  52.03
910.2  372683.48  193885.41  52.02
911.4  372846.83  193958.70  52.02
912.6  373036.95  194010.01  52.01
913.8  373371.75  194071.16  51.98
915.0  373725.45  194222.28  51.97
916.2  373785.75  194231.70  51.96
917.3  373862.25  194168.55  51.94
918.5  373907.40  194247.97  51.95
919.7  374128.20  194273.04  51.93
920.8  374199.33  194234.24  51.91
922.0  374335.50  194201.70  51.88
923.2  374419.50  194212.20  51.87
924.4  374719.50  194241.60  51.84
925.5  374881.60  194268.73  51.82
926.7  375442.88  194484.25  51.80
927.9  376249.20  194747.28  51.76
929.0  377586.90  195317.10  51.73
930.2  379602.90  196290.77  51.71
931.4  381836.70  197333.37  51.68
932.5  384330.25  198505.40  51.65
933.7  385566.50  199007.55  51.61
934.9  386071.88  199149.42  51.58
936.0  385693.75  198788.20  51.54
937.2  383678.55  197635.54  51.51
938.3  382104.90  196635.26  51.46
939.5  380700.00  195708.00  51.41
940.7  380758.50  195668.04  51.39
941.8  382251.08  196265.49  51.34
943.0  383415.75  196720.90  51.31
944.2  384112.95  196921.05  51.27
945.3  383652.75  196488.50  51.22
946.5  382993.65  195906.60  51.15
947.6  383116.30  195734.48  51.09
948.8  383005.35  195318.50  51.00
949.9  383153.40  195110.16  50.92
951.1  382802.23  194616.20  50.84
952.2  382500.00  194180.80  50.77
953.4  382169.00  193709.67  50.69
954.5  381817.80  193386.96  50.65
955.7  381918.60  192979.92  50.53
956.8  381760.80  192507.39  50.43
958.0  381423.00  192025.73  50.34
959.1  381023.80  191625.48  50.29
960.3  380608.63  191155.22  50.22
961.4  380440.10  190892.43  50.18
962.6  380483.25  190809.03  50.15
963.7  380499.08  190503.04  50.07
964.9  380553.90  190310.42  50.01
966.0  380104.65  190103.76  50.01
967.2  379847.70  190011.90  50.02
968.3  379618.65  189764.10  49.99
969.5  379103.70  189626.40  50.02
970.6  379384.65  189557.59  49.96
971.8  379670.90  189555.99  49.93
972.9  379665.60  189416.50  49.89
974.0  379347.60  189413.08  49.93
975.2  378989.88  189301.63  49.95
976.3  378960.93  189253.40  49.94
977.5  378553.18  189087.50  49.95
978.6  378894.70  189060.59  49.90
979.7  378854.70  189030.94  49.90
980.9  378326.08  188907.51  49.93
982.0  377720.65  188972.31  50.03
983.2  377573.58  188701.63  49.98
984.3  376853.40  188444.83  50.00
985.4  377230.90  188461.16  49.96
986.6  377072.75  188495.43  49.99
987.7  376986.05  189058.29  50.15
988.9  377101.80  188803.68  50.07
990.0  377676.30  189007.95  50.04
993.1  356394.56  176100.71  49.41
996.9  355775.90  176402.42  49.58
1000.7  356027.35  177085.82  49.74
1004.5  356210.50  177661.04  49.88
1008.4  355654.79  177905.34  50.02
1012.2  355368.00  178212.82  50.15
1016.0  354955.20  178459.97  50.28
1019.8  354486.83  178661.18  50.40
1023.7  353654.28  178634.79  50.51
1027.5  352481.98  178422.19  50.62
1031.3  351934.23  178436.06  50.70
1035.1  351292.03  178355.51  50.77
1038.9  350974.25  178377.34  50.82
1042.7  350651.08  178398.18  50.88
1046.5  350488.00  178419.31  50.91
1050.3  350404.18  178490.21  50.94
1054.2  349976.67  178380.33  50.97
1058.0  349504.17  178164.64  50.98
1061.8  349342.93  178150.50  51.00
1065.6  348897.23  177934.63  51.00
1069.4  348375.20  177689.41  51.01
1073.2  347447.38  177187.36  51.00
1077.0  346728.70  176765.76  50.98
1080.8  346489.58  176485.71  50.94
1084.6  346011.05  176059.57  50.88
1088.4  345816.69  175818.52  50.84
1092.2  345208.50  175337.03  50.79
1096.0  344619.80  174844.11  50.74
1099.8  344006.00  174318.27  50.67
1103.6  343204.17  173687.32  50.61
1107.4  342176.98  172906.66  50.53
1111.2  341818.00  172440.41  50.45
1114.9  341145.58  171753.67  50.35
1118.7  340639.20  171062.45  50.22
1122.5  340024.53  170227.20  50.06
1126.3  339040.68  169078.58  49.87
1130.1  338578.69  167956.57  49.61
1133.9  337062.60  166000.50  49.25
1137.7  335642.00  163808.13  48.80
1141.4  333795.80  161153.62  48.28
1145.2  332975.13  158794.66  47.69
1149.0  331811.67  156421.25  47.14
1152.8  330197.50  154079.31  46.66
1156.6  328565.42  152169.42  46.31
1160.3  326967.00  150654.62  46.08
1164.1  324750.90  149197.71  45.94
1167.9  323150.00  148219.94  45.87
1171.7  321914.25  147544.88  45.83
1175.4  320638.30  146906.92  45.82
1179.2  319446.73  146285.78  45.79
1183.0  319097.67  146019.95  45.76
1186.7  318786.30  145739.63  45.72
1190.5  318148.40  145316.95  45.68
1194.3  317215.07  144800.69  45.65
1198.0  315943.65  144231.17  45.65
1201.8  314358.90  143577.57  45.67
1205.6  313202.67  143185.38  45.72
1209.3  312504.57  143061.15  45.78
1213.1  311903.25  142977.59  45.84
1216.8  311222.45  142923.26  45.92
1220.6  310217.60  142733.07  46.01
1224.3  309082.50  142476.90  46.10
1228.1  307742.20  142141.03  46.19
1231.9  306416.65  141757.99  46.26
1235.6  304908.53  141265.49  46.33
1239.4  303531.63  140826.29  46.40
1243.1  302285.43  140391.47  46.44
1246.9  301090.28  139940.69  46.48
1250.6  300114.33  139549.51  46.50
1254.3  299006.86  139099.47  46.52
1258.1  297897.83  138612.97  46.53
1261.8  296549.07  137984.17  46.53
1265.6  295261.22  137316.93  46.51
1269.3  294224.20  136703.23  46.46
1273.1  294399.32  136603.54  46.40
1276.8  294363.60  136403.49  46.34
1280.6  293634.37  135869.05  46.27
1284.3  291952.80  134833.77  46.18
1288.0  290595.90  133866.14  46.07
1291.8  289783.82  133026.21  45.91
1295.5  288899.60  132088.21  45.72
1299.2  287797.66  131000.58  45.52
1302.9  286334.88  129656.20  45.28
1306.7  284746.35  128165.45  45.01
1310.4  283235.98  126570.65  44.69
1314.1  281843.10  124917.96  44.32
1317.9  280593.75  123183.15  43.90
1321.6  279192.45  121251.20  43.43
1325.3  277612.65  119105.18  42.90
1329.0  276353.23  117022.30  42.35
1332.8  274489.60  114560.60  41.74
1336.5  272830.60  112179.47  41.12
1340.2  272514.67  110350.50  40.49
1343.9  272122.71  108509.29  39.88
1347.6  271518.30  106620.45  39.27
1351.4  271777.00  105125.43  38.68
1355.1  272164.20  103710.88  38.11
