/*** Spectra Vista SIG Data ***/
name= 49_20220926_CECA_33_avg.sig
comm= Averaged Ref/Tar of files: HR.092722.0060_moc.sig,HR.092722.0061_moc.sig,HR.092722.0062_moc.sig
data=
337.3  3176.00  185.27  5.83
338.8  3318.90  190.57  5.74
340.3  3466.90  190.08  5.48
341.8  3658.00  188.13  5.14
343.2  3818.40  188.59  4.94
344.7  3966.45  186.85  4.71
346.2  4166.70  189.86  4.56
347.7  4404.40  191.76  4.35
349.2  4573.80  189.36  4.14
350.6  4847.70  192.37  3.97
352.1  5108.68  200.06  3.92
353.6  5343.80  200.93  3.76
355.1  5657.40  198.20  3.50
356.6  5965.05  204.77  3.43
358.0  6220.50  210.84  3.39
359.5  6519.90  223.66  3.43
361.0  6822.90  234.27  3.43
362.5  7201.65  238.66  3.31
364.0  7541.53  244.15  3.24
365.4  7924.20  248.35  3.13
366.9  8287.50  254.15  3.07
368.4  8673.45  268.07  3.09
369.9  9053.38  285.18  3.15
371.3  9451.80  302.60  3.20
372.8  9903.15  314.05  3.17
374.3  10346.88  319.43  3.09
375.8  10753.05  321.35  2.99
377.2  11163.50  326.90  2.93
378.7  11593.90  333.05  2.87
380.2  12024.30  342.78  2.85
381.7  12512.58  350.55  2.80
383.1  12989.90  365.49  2.81
384.6  13514.48  373.03  2.76
386.1  13998.95  382.47  2.73
387.6  14445.20  383.97  2.66
389.0  14927.60  400.21  2.68
390.5  15399.00  406.09  2.64
392.0  16002.25  417.66  2.61
393.4  16553.25  433.91  2.62
394.9  17121.60  446.43  2.61
396.4  17646.75  455.89  2.58
397.9  18193.75  460.76  2.53
399.3  18765.83  473.70  2.52
400.8  19316.88  486.63  2.52
402.2  19983.70  499.42  2.50
403.7  20584.13  518.19  2.52
405.2  21212.80  531.22  2.50
406.6  21761.60  534.26  2.46
408.1  22374.00  547.14  2.45
409.6  22981.65  567.36  2.47
411.0  23655.80  581.94  2.46
412.5  24323.60  596.98  2.45
414.0  24979.75  617.46  2.47
415.4  25698.38  636.76  2.48
416.9  26368.20  659.39  2.50
418.4  27060.08  676.21  2.50
419.8  27809.60  701.31  2.52
421.3  28537.83  724.20  2.54
422.7  29301.60  747.37  2.55
424.2  30071.25  772.39  2.57
425.7  30839.60  800.10  2.59
427.1  31618.35  825.01  2.61
428.6  32441.50  855.30  2.64
430.0  33187.73  884.20  2.66
431.5  34073.78  917.11  2.69
432.9  34940.25  944.86  2.70
434.4  35855.48  972.19  2.71
435.9  36708.00  1001.07  2.73
437.3  37565.00  1028.76  2.74
438.8  38430.83  1057.04  2.75
440.2  39320.05  1085.96  2.76
441.7  40293.80  1119.47  2.78
443.1  41207.50  1153.89  2.80
444.6  42195.10  1180.25  2.80
446.0  43141.88  1210.26  2.81
447.5  44125.95  1240.31  2.81
448.9  45072.60  1274.27  2.83
450.4  46102.00  1306.84  2.83
451.8  46982.00  1337.89  2.85
453.3  47932.95  1369.26  2.86
454.7  48945.13  1396.55  2.85
456.2  49818.58  1424.77  2.86
457.6  50803.43  1451.40  2.86
459.1  51807.60  1484.79  2.87
460.5  52751.00  1511.50  2.87
462.0  53843.03  1541.33  2.86
463.4  54895.90  1568.58  2.86
464.8  55902.38  1596.29  2.86
466.3  56871.38  1619.42  2.85
467.7  57862.33  1649.59  2.85
469.2  58946.10  1677.20  2.85
470.6  59951.35  1704.73  2.84
472.0  61015.13  1734.58  2.84
473.5  62051.13  1764.41  2.84
474.9  63099.00  1796.31  2.85
476.4  64267.20  1826.47  2.84
477.8  65351.50  1859.59  2.85
479.2  66366.50  1891.35  2.85
480.7  67467.98  1920.90  2.85
482.1  68623.05  1953.64  2.85
483.6  69822.40  1989.15  2.85
485.0  70913.03  2018.23  2.85
486.4  72138.90  2059.17  2.85
487.9  73227.38  2091.79  2.86
489.3  74390.70  2134.14  2.87
490.7  75450.90  2168.92  2.87
492.2  76675.20  2212.56  2.89
493.6  77791.50  2253.59  2.90
495.0  78916.50  2301.00  2.92
496.5  80125.50  2352.19  2.94
497.9  81240.80  2403.63  2.96
499.3  82429.48  2463.44  2.99
500.7  83710.10  2529.01  3.02
502.2  84869.80  2589.90  3.05
503.6  86154.60  2666.10  3.09
505.0  87255.40  2744.99  3.15
506.5  88576.13  2837.36  3.20
507.9  89780.20  2938.46  3.27
509.3  91108.80  3062.33  3.36
510.7  92342.25  3191.87  3.46
512.2  93740.10  3338.35  3.56
513.6  95240.95  3511.79  3.69
515.0  96715.78  3704.46  3.83
516.4  98119.35  3925.26  4.00
517.8  99779.00  4180.19  4.19
519.3  101114.80  4451.72  4.40
520.7  102719.55  4754.52  4.63
522.1  104015.93  5068.53  4.87
523.5  105375.90  5401.14  5.13
524.9  106898.85  5750.59  5.38
526.3  108371.20  6103.26  5.63
527.8  109875.15  6463.85  5.88
529.2  110870.90  6795.82  6.13
530.6  112392.10  7147.66  6.36
532.0  114086.00  7492.27  6.57
533.4  115455.38  7791.53  6.75
534.8  116340.33  8036.52  6.91
536.3  117970.50  8308.09  7.04
537.7  119952.00  8587.44  7.16
539.1  121413.58  8813.67  7.26
540.5  122620.80  9010.42  7.35
541.9  124391.10  9239.45  7.43
543.3  125681.35  9431.53  7.50
544.7  127018.80  9623.34  7.58
546.1  128816.88  9848.12  7.65
547.5  130065.60  10028.80  7.71
549.0  131714.00  10230.42  7.77
550.4  133226.88  10411.89  7.82
551.8  134814.73  10575.92  7.84
553.2  136342.60  10705.65  7.85
554.6  137696.00  10783.51  7.83
556.0  139228.20  10835.76  7.78
557.4  140853.65  10858.56  7.71
558.8  142509.15  10852.32  7.62
560.2  143984.25  10798.89  7.50
561.6  145658.10  10734.37  7.37
563.0  147257.55  10637.01  7.22
564.4  148871.05  10518.65  7.07
565.8  150396.88  10371.62  6.90
567.2  152155.50  10220.90  6.72
568.6  153652.88  10030.69  6.53
570.0  155087.73  9822.94  6.33
571.4  156810.55  9623.18  6.14
572.8  158575.75  9433.36  5.95
574.2  160204.80  9245.65  5.77
575.6  161775.00  9071.79  5.61
577.0  163318.90  8917.10  5.46
578.4  165039.88  8791.25  5.33
579.8  166582.58  8675.10  5.21
581.2  168300.50  8583.80  5.10
582.5  169731.90  8497.10  5.01
583.9  171253.40  8423.63  4.92
585.3  173067.53  8372.94  4.84
586.7  174566.93  8316.72  4.76
588.1  176055.00  8278.26  4.70
589.5  177710.75  8255.80  4.65
590.9  179353.60  8242.10  4.60
592.3  181171.80  8247.86  4.55
593.7  182646.75  8251.30  4.52
595.0  184269.60  8269.80  4.49
596.4  185728.90  8280.60  4.46
597.8  187220.93  8293.53  4.43
599.2  188773.20  8309.97  4.40
600.6  190547.50  8323.43  4.37
602.0  191843.25  8307.90  4.33
603.3  193656.60  8304.73  4.29
604.7  195333.70  8288.09  4.24
606.1  196815.60  8244.25  4.19
607.5  198473.03  8196.39  4.13
608.9  200184.40  8141.77  4.07
610.2  201568.50  8068.14  4.00
611.6  203185.80  7998.26  3.94
613.0  204756.50  7930.99  3.87
614.4  206144.40  7857.83  3.81
615.8  207616.50  7796.10  3.76
617.1  209151.60  7743.40  3.70
618.5  210796.40  7706.15  3.66
619.9  212323.05  7674.29  3.61
621.3  213944.40  7660.40  3.58
622.6  215543.50  7656.66  3.55
624.0  217010.70  7658.20  3.53
625.4  218493.83  7671.49  3.51
626.8  220083.50  7700.42  3.50
628.1  221357.68  7721.55  3.49
629.5  223137.08  7767.38  3.48
630.9  224634.03  7797.98  3.47
632.2  225903.30  7822.40  3.46
633.6  227420.00  7841.95  3.45
635.0  228880.40  7845.17  3.43
636.3  230384.10  7828.17  3.40
637.7  231747.75  7788.96  3.36
639.1  233397.50  7743.33  3.32
640.4  234883.08  7683.74  3.27
641.8  236092.13  7611.44  3.22
643.2  237677.65  7544.75  3.17
644.5  239038.50  7470.68  3.13
645.9  240624.90  7408.47  3.08
647.2  241699.33  7342.97  3.04
648.6  243263.25  7306.20  3.00
650.0  244641.60  7279.41  2.98
651.3  245551.35  7260.52  2.96
652.7  247672.25  7267.12  2.93
654.0  249747.40  7274.78  2.91
655.4  251094.38  7254.60  2.89
656.8  251243.60  7206.93  2.87
658.1  252696.40  7183.14  2.84
659.5  255074.93  7177.56  2.81
660.8  256545.00  7143.43  2.78
662.2  257577.60  7094.19  2.75
663.5  259155.00  7068.17  2.73
664.9  260205.40  7037.90  2.70
666.2  260983.20  7020.27  2.69
667.6  262720.60  7032.16  2.68
668.9  263655.13  7044.53  2.67
670.3  265479.38  7075.61  2.67
671.6  266539.88  7116.66  2.67
673.0  267734.63  7175.66  2.68
674.3  268979.10  7253.43  2.70
675.7  270308.38  7340.25  2.72
677.0  271370.03  7428.93  2.74
678.4  272669.50  7543.46  2.77
679.7  273748.73  7666.80  2.80
681.1  274988.28  7812.03  2.84
682.4  276095.30  7967.79  2.89
683.8  277288.70  8155.11  2.94
685.1  278266.13  8348.92  3.00
686.4  279586.80  8592.46  3.07
687.8  280817.25  8873.30  3.16
689.1  281885.25  9231.84  3.28
690.5  283219.20  9701.18  3.43
691.8  284016.58  10310.25  3.63
693.1  285344.70  11155.88  3.91
694.5  286513.50  12260.73  4.28
695.8  287764.75  13677.30  4.75
697.1  288925.00  15447.90  5.35
698.5  289969.80  17597.47  6.07
699.8  291010.95  20150.95  6.92
701.1  292167.38  23087.04  7.90
702.5  292969.60  26328.95  8.99
703.8  293917.50  29872.71  10.16
705.1  295045.73  33672.95  11.41
706.5  296088.38  37678.22  12.73
707.8  297031.50  41848.14  14.09
709.1  297860.15  46134.93  15.49
710.5  298976.40  50585.47  16.92
711.8  299801.20  55110.31  18.38
713.1  300782.40  59755.08  19.87
714.4  301696.70  64463.14  21.37
715.8  302499.50  69211.13  22.88
717.1  303803.55  74111.32  24.39
718.4  304774.40  78946.56  25.90
719.7  305862.28  83809.06  27.40
721.0  306360.00  88484.57  28.88
722.4  307085.90  93178.75  30.34
723.7  308040.00  97842.39  31.76
725.0  309060.00  102435.21  33.14
726.3  310009.15  106869.26  34.47
727.6  310556.95  111021.67  35.75
729.0  311459.05  115142.01  36.97
730.3  312242.03  119048.02  38.13
731.6  313126.90  122801.27  39.22
732.9  313909.93  126319.41  40.24
734.2  314697.63  129659.12  41.20
735.5  315705.50  132899.22  42.10
736.8  316489.80  135857.43  42.93
738.1  317344.20  138657.78  43.69
739.5  318312.23  141323.37  44.40
740.8  319007.15  143690.16  45.04
742.1  319647.05  145893.13  45.64
743.4  320275.00  147925.71  46.19
744.7  321132.30  149932.23  46.69
746.0  322021.05  151794.35  47.14
747.3  322636.00  153381.43  47.54
748.6  323394.25  154911.02  47.90
749.9  324038.00  156280.30  48.23
751.2  324626.10  157513.16  48.52
752.5  325358.30  158713.56  48.78
753.8  325859.28  159714.59  49.01
755.1  326508.00  160706.74  49.22
756.4  327077.20  161579.34  49.40
757.7  328049.58  162581.85  49.56
759.0  329831.83  163922.23  49.70
760.3  331029.60  164881.83  49.81
761.6  332553.20  165992.11  49.91
762.9  333037.50  166534.29  50.00
764.2  333371.70  166965.99  50.08
765.5  333596.60  167311.00  50.15
766.8  333961.60  167689.81  50.21
768.1  334444.40  168089.87  50.26
769.3  335007.40  168509.11  50.30
770.6  335623.60  168940.45  50.34
771.9  336296.80  169382.73  50.37
773.2  336625.20  169635.63  50.39
774.5  337194.00  169990.23  50.41
775.8  337775.80  170373.26  50.44
777.1  338314.90  170696.85  50.46
778.4  338593.48  170886.95  50.47
779.6  339310.88  171295.83  50.48
780.9  339750.00  171546.86  50.49
782.2  340161.25  171798.10  50.50
783.5  340380.00  171957.26  50.52
784.8  340832.03  172217.22  50.53
786.0  341185.95  172409.02  50.53
787.3  341503.75  172598.11  50.54
788.6  341895.98  172797.63  50.54
789.9  342286.00  173020.11  50.55
791.2  342884.45  173334.99  50.55
792.4  343467.60  173657.03  50.56
793.7  343886.40  173884.85  50.56
795.0  344439.98  174182.64  50.57
796.2  345022.23  174487.52  50.57
797.5  345652.65  174803.00  50.57
798.8  346296.98  175126.62  50.57
800.0  346868.03  175430.62  50.58
801.3  347282.00  175629.59  50.57
802.6  347825.70  175907.97  50.57
803.8  348366.93  176203.84  50.58
805.1  348783.75  176427.57  50.58
806.4  349186.50  176633.78  50.58
807.7  349660.80  176888.26  50.59
808.9  350160.50  177131.25  50.59
810.2  350571.20  177364.05  50.59
811.4  351035.40  177591.82  50.59
812.7  351609.38  177883.33  50.59
814.0  352408.60  178294.72  50.59
815.2  352996.25  178603.32  50.60
816.5  353376.73  178806.34  50.60
817.7  353769.60  179028.93  50.61
819.0  354247.85  179269.73  50.61
820.2  354376.00  179342.32  50.61
821.5  355012.15  179683.51  50.61
822.7  355363.48  179862.48  50.61
824.0  355633.20  180012.81  50.62
825.2  356065.88  180250.57  50.62
826.5  356311.68  180399.60  50.63
827.7  356825.75  180671.88  50.63
829.0  357251.70  180855.13  50.62
830.2  357523.50  181023.73  50.63
831.5  358020.85  181281.26  50.63
832.7  358257.38  181436.56  50.64
834.0  358609.43  181619.78  50.65
835.2  358955.85  181801.53  50.65
836.4  359205.55  181947.89  50.65
837.7  359617.00  182170.85  50.66
838.9  360025.28  182419.94  50.67
840.1  360408.83  182624.43  50.67
841.4  360746.00  182843.00  50.68
842.6  361134.40  183038.84  50.68
843.8  361444.80  183227.13  50.69
845.1  361916.30  183520.37  50.71
846.3  362282.80  183732.00  50.72
847.5  362659.50  183948.16  50.72
848.8  363075.00  184182.83  50.73
850.0  363432.65  184373.58  50.73
851.2  363949.20  184661.25  50.74
852.5  364323.80  184861.89  50.74
853.7  364812.75  185121.09  50.74
854.9  365268.60  185377.14  50.75
856.1  365680.90  185595.60  50.75
857.4  365848.05  185689.35  50.76
858.6  366316.40  185957.81  50.76
859.8  366716.25  186166.82  50.77
861.0  367146.00  186403.06  50.77
862.2  367599.90  186602.34  50.76
863.5  367959.48  186809.30  50.77
864.7  368445.00  187057.70  50.77
865.9  368761.60  187274.86  50.78
867.1  369044.55  187403.18  50.78
868.3  369459.60  187605.47  50.78
869.5  369928.50  187843.99  50.78
870.8  370413.00  188122.97  50.79
872.0  370928.03  188363.70  50.78
873.2  371368.80  188545.43  50.77
874.4  371735.33  188763.79  50.78
875.6  372070.60  188961.90  50.79
876.8  372522.35  189180.32  50.78
878.0  373058.85  189386.01  50.77
879.2  373495.35  189606.97  50.77
880.4  373971.00  189852.64  50.77
881.6  374413.53  190045.66  50.76
882.8  374756.80  190245.59  50.77
884.0  375389.20  190521.07  50.75
885.2  375882.20  190694.88  50.73
886.5  376368.60  190966.57  50.74
887.7  376754.63  191144.51  50.73
888.8  377239.58  191430.62  50.75
890.0  377750.70  191672.62  50.74
891.2  378360.60  191936.86  50.73
892.4  378959.70  192207.52  50.72
893.6  379522.65  192441.23  50.71
894.8  380345.25  192817.00  50.70
896.0  381020.75  193155.62  50.69
897.2  381741.75  193516.76  50.69
898.4  382499.70  193849.73  50.68
899.6  383091.00  194091.92  50.66
900.8  383325.30  194204.90  50.66
902.0  383522.70  194259.91  50.65
903.2  383635.88  194330.03  50.65
904.3  383918.70  194474.35  50.66
905.5  384394.23  194680.11  50.65
906.7  384992.00  194941.11  50.64
907.9  385522.20  195092.61  50.60
909.1  385707.83  195167.73  50.60
910.2  385828.65  195175.68  50.59
911.4  385918.65  195224.19  50.59
912.6  385921.25  195278.76  50.60
913.8  386063.93  195298.72  50.59
915.0  386470.35  195398.00  50.56
916.2  386587.50  195397.80  50.54
917.3  386452.80  195367.65  50.55
918.5  386657.20  195392.85  50.53
919.7  386757.00  195430.68  50.53
920.8  386703.68  195354.18  50.52
922.0  386732.50  195284.83  50.50
923.2  386841.00  195247.00  50.47
924.4  387034.88  195264.26  50.45
925.5  387228.00  195310.96  50.44
926.7  387829.50  195522.91  50.41
927.9  388395.60  195824.21  50.42
929.0  389800.35  196429.83  50.39
930.2  391761.00  197394.37  50.39
931.4  394094.70  198448.26  50.36
932.5  396697.70  199674.31  50.33
933.7  398153.18  200224.49  50.29
934.9  398698.13  200413.58  50.27
936.0  398167.25  200044.93  50.24
937.2  395921.85  198804.72  50.21
938.3  393972.55  197727.31  50.19
939.5  392374.80  196845.67  50.17
940.7  392447.70  196768.20  50.14
941.8  394004.55  197328.06  50.08
943.0  395067.00  197803.23  50.07
944.2  395985.20  198020.43  50.01
945.3  395323.50  197607.06  49.99
946.5  394440.30  197021.78  49.95
947.6  394558.30  196809.66  49.88
948.8  394258.80  196512.22  49.84
949.9  394207.80  196324.64  49.80
951.1  393831.10  195823.17  49.72
952.2  393516.00  195455.31  49.67
953.4  393153.25  194953.17  49.59
954.5  392979.60  194546.26  49.51
955.7  392628.60  194240.64  49.47
956.8  392437.90  193843.84  49.39
958.0  391833.50  193312.54  49.34
959.1  391632.88  192958.33  49.27
960.3  391417.45  192517.55  49.18
961.4  390994.85  192201.44  49.16
962.6  391032.25  192105.97  49.13
963.7  390557.40  191769.38  49.10
964.9  390343.88  191591.84  49.08
966.0  390134.48  191333.30  49.04
967.2  390149.55  191194.29  49.01
968.3  389658.60  190921.86  49.00
969.5  389727.55  190739.38  48.94
970.6  389490.03  190712.49  48.96
971.8  389551.93  190702.36  48.95
972.9  389656.80  190570.25  48.91
974.0  389776.40  190685.64  48.92
975.2  389564.75  190588.16  48.92
976.3  389358.15  190407.51  48.90
977.5  389520.25  190362.49  48.87
978.6  389697.40  190325.66  48.84
979.7  389897.55  190309.16  48.81
980.9  389599.20  190127.16  48.80
982.0  389239.45  190133.34  48.85
983.2  389324.85  189986.24  48.80
984.3  388817.00  189781.02  48.81
985.4  388802.40  189585.25  48.76
986.6  388127.00  189571.61  48.84
987.7  388726.10  189778.84  48.82
988.9  388821.60  189604.70  48.76
990.0  388591.80  189756.44  48.83
993.1  387477.77  188586.45  48.67
996.9  386348.23  188521.09  48.80
1000.7  386358.41  188974.81  48.91
1004.5  386499.33  189455.56  49.02
1008.4  386102.38  189703.17  49.13
1012.2  385978.63  190015.63  49.23
1016.0  385659.00  190237.30  49.33
1019.8  385088.55  190295.88  49.42
1023.7  384007.61  190061.85  49.49
1027.5  382408.68  189545.45  49.57
1031.3  381419.40  189263.15  49.62
1035.1  380372.83  188925.83  49.67
1038.9  379885.73  188823.45  49.71
1042.7  379599.17  188807.02  49.74
1046.5  379438.00  188843.86  49.77
1050.3  379360.33  188901.96  49.79
1054.2  378976.50  188792.38  49.82
1058.0  378588.99  188614.55  49.82
1061.8  378494.83  188629.97  49.84
1065.6  377939.47  188336.17  49.83
1069.4  377140.67  187921.07  49.83
1073.2  375860.06  187238.71  49.82
1077.0  375162.38  186785.53  49.79
1080.8  375278.13  186705.24  49.75
1084.6  375260.78  186571.13  49.72
1088.4  375469.23  186563.86  49.69
1092.2  374985.00  186160.93  49.64
1096.0  374291.54  185639.51  49.60
1099.8  373581.43  185078.26  49.54
1103.6  372649.68  184403.48  49.48
1107.4  371462.02  183588.77  49.42
1111.2  371180.00  183197.25  49.36
1114.9  370618.50  182616.32  49.27
1118.7  370314.45  182101.98  49.17
1122.5  369927.13  181436.99  49.05
1126.3  368951.33  180364.36  48.89
1130.1  368506.84  179347.71  48.67
1133.9  366847.60  177405.54  48.36
1137.7  365299.80  175270.33  47.98
1141.4  363252.83  172658.21  47.53
1145.2  362318.44  170443.20  47.04
1149.0  361016.25  168176.83  46.58
1152.8  359191.05  165885.13  46.18
1156.6  357313.37  163912.89  45.87
1160.3  355485.67  162283.25  45.65
1164.1  353128.13  160667.77  45.50
1167.9  351468.75  159559.46  45.40
1171.7  350169.75  158707.13  45.32
1175.4  348688.00  157852.14  45.27
1179.2  347299.05  156993.61  45.20
1183.0  346929.67  156595.95  45.14
1186.7  346901.33  156337.15  45.07
1190.5  346510.47  155957.94  45.01
1194.3  345546.07  155377.02  44.97
1198.0  344064.05  154650.24  44.95
1201.8  342357.48  153902.96  44.95
1205.6  341231.00  153529.97  44.99
1209.3  340641.87  153479.93  45.06
1213.1  340102.43  153505.45  45.14
1216.8  339435.25  153541.71  45.23
1220.6  338286.67  153355.97  45.33
1224.3  337018.42  153089.51  45.42
1228.1  335484.20  152733.12  45.53
1231.9  333888.75  152284.25  45.61
1235.6  332148.30  151710.67  45.68
1239.4  330575.13  151214.89  45.74
1243.1  329174.05  150748.61  45.80
1246.9  327904.79  150282.51  45.83
1250.6  326835.00  149880.82  45.86
1254.3  325668.20  149412.58  45.88
1258.1  324410.92  148886.00  45.89
1261.8  322958.67  148234.61  45.90
1265.6  321792.28  147646.84  45.88
1269.3  320982.63  147176.31  45.85
1273.1  321288.21  147200.71  45.82
1276.8  321046.40  146942.44  45.77
1280.6  319935.60  146256.69  45.71
1284.3  317963.20  145112.67  45.64
1288.0  316728.74  144221.87  45.53
1291.8  316209.01  143592.83  45.41
1295.5  315422.80  142797.93  45.27
1299.2  314253.22  141763.20  45.11
1302.9  312619.31  140417.03  44.92
1306.7  310829.87  138907.91  44.69
1310.4  309106.58  137296.56  44.42
1314.1  307513.62  135641.85  44.11
1317.9  306098.13  133933.76  43.76
1321.6  304562.53  132049.58  43.36
1325.3  302901.38  129981.87  42.91
1329.0  301586.02  127992.82  42.44
1332.8  299622.40  125627.58  41.93
1336.5  297944.27  123359.76  41.40
1340.2  297797.50  121724.78  40.88
1343.9  297763.96  120150.90  40.35
1347.6  297953.25  118689.84  39.84
1351.4  299460.00  117800.25  39.34
1355.1  301537.50  117147.58  38.85
1358.8  303264.00  116275.81  38.34
