/*** Spectra Vista SIG Data ***/
name= 50_20221021_QUPA_14_avg.sig
comm= Averaged Ref/Tar of files: HR.102122.0063_moc.sig,HR.102122.0064_moc.sig
data=
337.3  4621.58  333.98  7.23
338.8  4858.10  344.95  7.10
340.3  5089.50  315.00  6.19
341.8  5253.33  352.18  6.70
343.2  5595.45  331.16  5.92
344.7  5869.22  315.71  5.38
346.2  6113.88  305.96  5.00
347.7  6417.32  286.60  4.47
349.2  6633.90  292.68  4.41
350.6  6970.72  301.11  4.32
352.1  7382.15  299.21  4.05
353.6  7762.50  307.61  3.96
355.1  8166.31  307.34  3.76
356.6  8610.80  297.37  3.45
358.0  8982.82  307.48  3.42
359.5  9355.80  311.59  3.33
361.0  9844.40  325.50  3.31
362.5  10361.26  337.18  3.25
364.0  10897.67  346.74  3.18
365.4  11401.13  337.04  2.96
366.9  11861.00  353.73  2.98
368.4  12377.65  362.17  2.93
369.9  12897.02  387.15  3.00
371.3  13534.13  419.65  3.10
372.8  14116.73  446.63  3.16
374.3  14729.18  426.39  2.89
375.8  15343.22  437.69  2.85
377.2  15936.33  428.94  2.69
378.7  16538.15  441.97  2.67
380.2  17158.65  442.24  2.58
381.7  17829.07  463.58  2.60
383.1  18537.33  488.83  2.64
384.6  19224.13  480.58  2.50
386.1  19950.36  494.72  2.48
387.6  20609.79  500.83  2.43
389.0  21363.95  511.77  2.40
390.5  22079.04  520.30  2.36
392.0  22886.15  545.30  2.38
393.4  23721.49  561.40  2.37
394.9  24485.35  583.75  2.38
396.4  25299.72  581.82  2.30
397.9  26074.45  605.80  2.32
399.3  26811.36  626.49  2.34
400.8  27709.82  648.50  2.34
402.2  28621.30  661.42  2.31
403.7  29498.25  685.32  2.32
405.2  30339.67  691.17  2.28
406.6  31201.20  718.34  2.30
408.1  32034.74  737.40  2.30
409.6  32922.52  774.98  2.35
411.0  33867.69  793.65  2.34
412.5  34870.32  824.50  2.36
414.0  35858.82  843.88  2.35
415.4  36813.34  867.57  2.36
416.9  37752.22  899.59  2.38
418.4  38746.48  926.08  2.39
419.8  39786.60  961.08  2.42
421.3  40877.03  995.64  2.44
422.7  41974.30  1022.65  2.44
424.2  43086.79  1054.08  2.45
425.7  44177.24  1080.95  2.45
427.1  45282.75  1112.22  2.46
428.6  46403.53  1152.91  2.48
430.0  47534.63  1191.59  2.51
431.5  48774.28  1225.51  2.51
432.9  50022.04  1257.64  2.51
434.4  51291.99  1292.77  2.52
435.9  52503.45  1325.75  2.53
437.3  53770.88  1368.95  2.55
438.8  54997.61  1407.69  2.56
440.2  56251.39  1446.79  2.57
441.7  57642.00  1483.24  2.57
443.1  58976.90  1526.07  2.59
444.6  60331.62  1562.95  2.59
446.0  61695.89  1607.86  2.61
447.5  63155.50  1658.97  2.63
448.9  64476.54  1701.15  2.64
450.4  65891.45  1747.31  2.65
451.8  67218.25  1796.09  2.67
453.3  68567.18  1839.81  2.68
454.7  69959.73  1890.41  2.70
456.2  71259.14  1934.10  2.71
457.6  72683.10  1977.85  2.72
459.1  74068.42  2019.58  2.73
460.5  75437.63  2065.52  2.74
462.0  76968.72  2118.40  2.75
463.4  78454.67  2168.46  2.76
464.8  79928.37  2216.63  2.77
466.3  81340.51  2255.57  2.77
467.7  82822.00  2302.56  2.78
469.2  84267.44  2350.52  2.79
470.6  85771.14  2399.39  2.80
472.0  87302.22  2447.83  2.80
473.5  88799.59  2504.85  2.82
474.9  90368.28  2557.27  2.83
476.4  91950.30  2609.16  2.84
477.8  93510.50  2652.40  2.84
479.2  95032.72  2704.48  2.85
480.7  96620.03  2766.84  2.86
482.1  98243.03  2822.07  2.87
483.6  99914.10  2892.06  2.89
485.0  101543.74  2948.22  2.90
486.4  103155.68  3016.86  2.92
487.9  104789.82  3081.45  2.94
489.3  106411.17  3159.50  2.97
490.7  108005.63  3243.60  3.00
492.2  109701.09  3343.24  3.05
493.6  111343.88  3440.34  3.09
495.0  113016.16  3543.01  3.13
496.5  114679.14  3668.46  3.20
497.9  116360.25  3802.66  3.27
499.3  118053.39  3956.83  3.35
500.7  119797.70  4140.37  3.46
502.2  121547.57  4341.32  3.57
503.6  123295.50  4584.63  3.72
505.0  124952.75  4854.22  3.88
506.5  126800.89  5170.74  4.08
507.9  128574.69  5534.37  4.30
509.3  130330.38  5952.28  4.57
510.7  132249.49  6426.78  4.86
512.2  134229.76  6964.57  5.19
513.6  136381.73  7592.10  5.57
515.0  138453.35  8280.05  5.98
516.4  140546.63  9035.55  6.43
517.8  142725.13  9858.17  6.91
519.3  144849.87  10736.74  7.41
520.7  146955.20  11658.44  7.93
522.1  148882.34  12602.78  8.46
523.5  150826.63  13569.77  9.00
524.9  153010.69  14557.08  9.51
526.3  155018.44  15505.06  10.00
527.8  157121.24  16453.22  10.47
529.2  158880.75  17362.25  10.93
530.6  160980.80  18293.61  11.36
532.0  163217.77  19194.10  11.76
533.4  165176.84  20002.66  12.11
534.8  166892.08  20749.15  12.43
536.3  169127.93  21518.96  12.72
537.7  171499.08  22284.21  12.99
539.1  173646.38  22995.59  13.24
540.5  175640.40  23674.55  13.48
541.9  178002.04  24386.38  13.70
543.3  179953.72  25035.10  13.91
544.7  182106.30  25712.81  14.12
546.1  184393.77  26412.21  14.32
547.5  186427.60  27067.89  14.52
549.0  188678.50  27728.06  14.70
550.4  190888.59  28349.65  14.85
551.8  193189.74  28929.78  14.97
553.2  195359.82  29423.19  15.06
554.6  197444.78  29823.23  15.10
556.0  199618.13  30155.49  15.11
557.4  201975.10  30428.85  15.07
558.8  204251.34  30629.98  15.00
560.2  206571.38  30779.35  14.90
561.6  208874.78  30852.48  14.77
563.0  211052.67  30858.18  14.62
564.4  213431.00  30840.54  14.45
565.8  215691.80  30758.78  14.26
567.2  218168.09  30644.58  14.05
568.6  220426.88  30440.53  13.81
570.0  222559.70  30131.81  13.54
571.4  225105.69  29806.29  13.24
572.8  227565.95  29445.38  12.94
574.2  229783.14  29059.56  12.65
575.6  232090.88  28708.77  12.37
577.0  234344.02  28381.23  12.11
578.4  236899.26  28127.65  11.87
579.8  239198.82  27877.36  11.65
581.2  241565.10  27674.78  11.46
582.5  243741.60  27470.91  11.27
583.9  246011.90  27319.46  11.10
585.3  248346.20  27199.16  10.95
586.7  250573.52  27103.28  10.82
588.1  252796.27  27038.09  10.70
589.5  255287.33  27030.26  10.59
590.9  257563.24  27038.22  10.50
592.3  259924.29  27094.40  10.42
593.7  262129.63  27169.41  10.36
595.0  264385.47  27283.55  10.32
596.4  266751.40  27407.92  10.27
597.8  268799.53  27494.26  10.23
599.2  271112.48  27575.90  10.17
600.6  273573.71  27627.87  10.10
602.0  275690.07  27600.57  10.01
603.3  278013.23  27531.60  9.90
604.7  280346.75  27392.67  9.77
606.1  282579.00  27166.83  9.61
607.5  285033.73  26905.60  9.44
608.9  287412.68  26575.53  9.25
610.2  289665.46  26193.00  9.04
611.6  291927.84  25802.29  8.84
613.0  294110.24  25394.21  8.63
614.4  296159.97  24981.40  8.44
615.8  298515.80  24615.30  8.25
617.1  300599.68  24276.04  8.08
618.5  303024.87  24009.54  7.92
619.9  305151.45  23786.04  7.79
621.3  307401.48  23632.84  7.69
622.6  309626.25  23541.80  7.60
624.0  311711.22  23489.02  7.54
625.4  313954.66  23510.69  7.49
626.8  316203.07  23571.14  7.45
628.1  318197.73  23654.91  7.43
629.5  320420.56  23789.04  7.42
630.9  322533.14  23935.36  7.42
632.2  324606.21  24046.67  7.41
633.6  326526.76  24099.87  7.38
635.0  328675.05  24084.39  7.33
636.3  330892.73  23977.12  7.25
637.7  332900.18  23738.48  7.13
639.1  335180.58  23406.56  6.98
640.4  337260.69  22961.43  6.81
641.8  339224.37  22440.69  6.62
643.2  341294.40  21857.56  6.40
644.5  343369.25  21237.00  6.18
645.9  345426.55  20610.77  5.97
647.2  346991.49  20002.72  5.76
648.6  348991.23  19488.34  5.58
650.0  351022.50  19058.71  5.43
651.3  353021.63  18675.84  5.29
652.7  356129.40  18363.50  5.16
654.0  358534.70  18011.69  5.02
655.4  360354.36  17611.46  4.89
656.8  361383.38  17136.02  4.74
658.1  363448.34  16643.68  4.58
659.5  366044.44  16123.69  4.40
660.8  368070.68  15563.10  4.23
662.2  369856.98  15013.10  4.06
663.5  372024.49  14506.84  3.90
664.9  373510.84  14021.50  3.75
666.2  375022.62  13626.54  3.63
667.6  377170.43  13341.21  3.54
668.9  378890.92  13139.75  3.47
670.3  381328.32  13012.03  3.41
671.6  382865.45  12942.91  3.38
673.0  384585.50  12941.75  3.37
674.3  386415.38  12994.42  3.36
675.7  388304.33  13105.27  3.37
677.0  389960.03  13257.64  3.40
678.4  391691.54  13446.89  3.43
679.7  393364.37  13719.46  3.49
681.1  395227.63  14085.56  3.56
682.4  396784.02  14556.07  3.67
683.8  398534.98  15225.71  3.82
685.1  400165.50  16128.50  4.03
686.4  401911.69  17407.81  4.33
687.8  403676.28  19188.57  4.75
689.1  405466.08  21621.95  5.33
690.5  407047.53  24851.84  6.11
691.8  408742.22  29033.89  7.10
693.1  410631.30  34212.26  8.33
694.5  412372.18  40265.77  9.76
695.8  414176.80  47013.94  11.35
697.1  415904.50  54296.57  13.06
698.5  417531.99  61951.28  14.84
699.8  419260.79  69795.24  16.65
701.1  420813.39  77656.85  18.45
702.5  422199.48  85397.67  20.23
703.8  423863.70  92994.28  21.94
705.1  425324.19  100260.79  23.57
706.5  426978.52  107248.85  25.12
707.8  428362.73  113884.84  26.59
709.1  429920.38  120241.38  27.97
710.5  431510.29  126348.86  29.28
711.8  432867.20  132135.91  30.53
713.1  434314.95  137730.17  31.71
714.4  435788.18  143076.60  32.83
715.8  437320.92  148246.01  33.90
717.1  439062.53  153275.65  34.91
718.4  440651.80  158054.47  35.87
719.7  442238.69  162639.59  36.78
721.0  443320.08  166848.62  37.64
722.4  444606.20  170927.50  38.44
723.7  446022.65  174844.42  39.20
725.0  447385.69  178540.54  39.91
726.3  448929.45  182134.16  40.57
727.6  450036.64  185340.65  41.18
729.0  451364.38  188442.30  41.75
730.3  452707.49  191362.74  42.27
731.6  453868.30  194054.42  42.76
732.9  455190.34  196630.78  43.20
734.2  456394.82  199013.22  43.61
735.5  457740.37  201316.49  43.98
736.8  459079.52  203470.55  44.32
738.1  460404.98  205473.92  44.63
739.5  461730.39  207365.69  44.91
740.8  462993.03  209133.83  45.17
742.1  464095.54  210705.84  45.40
743.4  465210.93  212217.15  45.62
744.7  466512.63  213715.75  45.81
746.0  467653.48  215058.69  45.99
747.3  468679.18  216272.11  46.15
748.6  469785.85  217425.50  46.28
749.9  470954.33  218544.18  46.40
751.2  471790.33  219498.61  46.52
752.5  472857.00  220500.51  46.63
753.8  473708.13  221365.98  46.73
755.1  474765.63  222272.58  46.82
756.4  475591.58  223024.25  46.89
757.7  477068.33  224040.09  46.96
759.0  479703.53  225558.56  47.02
760.3  481540.65  226677.42  47.07
761.6  483653.07  227916.66  47.12
762.9  484525.25  228539.24  47.17
764.2  485034.45  228984.37  47.21
765.5  485547.03  229360.28  47.24
766.8  485949.15  229711.94  47.27
768.1  486677.55  230189.81  47.30
769.3  487551.15  230718.84  47.32
770.6  488461.80  231297.23  47.35
771.9  489336.56  231818.92  47.37
773.2  490170.27  232307.58  47.39
774.5  490863.00  232713.38  47.41
775.8  491632.62  233165.41  47.43
777.1  492426.64  233630.67  47.44
778.4  493133.37  234056.92  47.46
779.6  494045.44  234585.03  47.48
780.9  494533.39  234907.15  47.50
782.2  495194.75  235292.91  47.52
783.5  495694.00  235594.32  47.53
784.8  496275.87  235936.28  47.54
786.0  496758.04  236234.65  47.56
787.3  497262.16  236537.64  47.57
788.6  497828.52  236891.62  47.58
789.9  498336.40  237195.52  47.60
791.2  499237.88  237688.55  47.61
792.4  500050.88  238128.94  47.62
793.7  500954.42  238628.83  47.63
795.0  501708.29  239029.88  47.64
796.2  502565.48  239515.92  47.66
797.5  503466.93  239970.39  47.66
798.8  504392.41  240470.01  47.68
800.0  505161.12  240908.30  47.69
801.3  505902.99  241312.69  47.70
802.6  506625.30  241736.66  47.72
803.8  507443.18  242184.43  47.73
805.1  508106.44  242545.64  47.74
806.4  508747.35  242913.54  47.75
807.7  509444.17  243305.38  47.76
808.9  510247.37  243745.44  47.77
810.2  510821.68  244108.38  47.79
811.4  511589.85  244512.93  47.79
812.7  512523.78  245008.43  47.80
814.0  513480.60  245526.75  47.82
815.2  514392.48  246045.55  47.83
816.5  515147.24  246457.17  47.84
817.7  515775.83  246800.29  47.85
819.0  516349.13  247111.15  47.86
820.2  516765.50  247393.67  47.87
821.5  517619.68  247845.55  47.88
822.7  518283.44  248230.28  47.89
824.0  518846.28  248547.66  47.90
825.2  519386.48  248873.70  47.92
826.5  519887.63  249182.78  47.93
827.7  520742.39  249599.58  47.93
829.0  521374.92  249949.94  47.94
830.2  522011.28  250282.55  47.95
831.5  522710.74  250646.26  47.95
832.7  523320.12  250983.27  47.96
834.0  523802.71  251292.93  47.97
835.2  524526.82  251667.66  47.98
836.4  525023.33  251991.31  48.00
837.7  525653.02  252328.80  48.00
838.9  526552.14  252781.71  48.01
840.1  527139.60  253104.02  48.01
841.4  527861.30  253508.50  48.03
842.6  528492.30  253856.88  48.03
843.8  529073.40  254255.71  48.06
845.1  529779.70  254653.74  48.07
846.3  530515.28  255010.09  48.07
847.5  531267.78  255422.15  48.08
848.8  531925.13  255792.24  48.09
850.0  532704.73  256222.62  48.10
851.2  533408.73  256641.03  48.11
852.5  534247.45  257059.06  48.12
853.7  535002.42  257450.63  48.12
854.9  535769.35  257897.64  48.14
856.1  536601.30  258306.71  48.14
857.4  537205.73  258639.07  48.15
858.6  537996.68  259067.05  48.15
859.8  538788.68  259516.91  48.17
861.0  539558.85  259919.54  48.17
862.2  540330.87  260353.87  48.18
863.5  541034.47  260727.50  48.19
864.7  541871.83  261130.37  48.19
865.9  542585.88  261495.08  48.19
867.1  543193.19  261797.76  48.20
868.3  544088.28  262247.90  48.20
869.5  544924.65  262732.89  48.21
870.8  545798.48  263208.47  48.22
872.0  546586.27  263627.82  48.23
873.2  547286.80  263940.66  48.23
874.4  547975.80  264303.92  48.23
875.6  548776.86  264722.19  48.24
876.8  549707.85  265199.70  48.24
878.0  550547.88  265604.26  48.24
879.2  551322.55  266017.38  48.25
880.4  552242.88  266435.86  48.25
881.6  552909.63  266840.84  48.26
882.8  553813.15  267240.37  48.25
884.0  554601.34  267632.67  48.26
885.2  555586.18  268050.06  48.25
886.5  556542.24  268524.00  48.25
887.7  557254.84  268899.67  48.25
888.8  558168.00  269470.83  48.28
890.0  558927.15  269765.03  48.26
891.2  559746.90  270182.55  48.27
892.4  560744.74  270704.24  48.28
893.6  561978.35  271238.73  48.26
894.8  563206.62  271880.17  48.27
896.0  564365.97  272407.77  48.27
897.2  565592.12  272989.65  48.27
898.4  566755.95  273610.80  48.28
899.6  567675.68  274070.22  48.28
900.8  568193.58  274295.64  48.28
902.0  568686.68  274447.03  48.26
903.2  568843.93  274599.23  48.27
904.3  569491.35  274850.54  48.26
905.5  570247.75  275266.48  48.27
906.7  571298.53  275712.30  48.26
907.9  572039.93  276075.04  48.26
909.1  572687.45  276385.17  48.26
910.2  572736.72  276531.99  48.28
911.4  572998.95  276619.52  48.28
912.6  573192.53  276736.00  48.28
913.8  573850.55  276963.35  48.26
915.0  574249.40  277058.57  48.25
916.2  574520.25  277134.99  48.24
917.3  574706.12  277275.66  48.25
918.5  574867.03  277436.34  48.26
919.7  574821.35  277444.04  48.27
920.8  575001.31  277500.14  48.26
922.0  575258.48  277484.27  48.24
923.2  575507.33  277602.69  48.24
924.4  575742.50  277726.89  48.24
925.5  576212.10  277930.29  48.23
926.7  576730.54  278158.87  48.23
927.9  577726.59  278663.67  48.23
929.0  580138.88  279660.68  48.21
930.2  583363.65  281090.13  48.18
931.4  587088.74  282838.13  48.18
932.5  590630.10  284446.39  48.16
933.7  592772.18  285381.01  48.14
934.9  593514.69  285783.38  48.15
936.0  592685.62  285314.46  48.14
937.2  589936.15  283885.51  48.12
938.3  587225.70  282320.39  48.08
939.5  585203.85  281316.22  48.07
940.7  585342.73  281178.26  48.04
941.8  587253.67  282095.08  48.04
943.0  588875.74  282829.05  48.03
944.2  590076.93  283290.85  48.01
945.3  589683.00  282846.35  47.97
946.5  588246.75  281900.19  47.92
947.6  588557.83  281863.00  47.89
948.8  587964.47  281435.58  47.87
949.9  588090.30  281293.92  47.83
951.1  587723.09  280951.75  47.80
952.2  587186.67  280434.83  47.76
953.4  586901.40  280007.46  47.71
954.5  586162.17  279262.91  47.64
955.7  585662.90  278750.27  47.60
956.8  585790.45  278406.93  47.53
958.0  584684.33  277855.80  47.52
959.1  584342.04  277319.07  47.46
960.3  583882.89  276928.80  47.43
961.4  584107.05  276768.07  47.38
962.6  583991.20  276489.77  47.34
963.7  583746.53  276341.52  47.34
964.9  583740.20  276052.13  47.29
966.0  583740.00  275992.24  47.28
967.2  583692.38  275915.31  47.27
968.3  584361.68  276128.99  47.25
969.5  584118.08  276023.97  47.25
970.6  584346.79  275967.99  47.23
971.8  584190.95  275767.53  47.21
972.9  584329.09  275760.74  47.19
974.0  584747.73  275798.77  47.17
975.2  584360.94  275322.87  47.12
976.3  584520.18  275522.45  47.14
977.5  584079.18  275321.86  47.14
978.6  584230.80  275327.03  47.13
979.7  583524.73  275059.82  47.14
980.9  583536.52  274750.47  47.08
982.0  582872.05  274291.45  47.06
983.2  583250.53  274282.15  47.03
984.3  582259.18  273835.98  47.03
985.4  581314.64  273826.00  47.10
986.6  581335.45  273357.95  47.02
987.7  580225.66  273544.15  47.14
988.9  581568.98  273448.46  47.02
990.0  582400.80  273132.76  46.90
993.1  634703.89  295823.72  46.61
996.9  633204.10  295714.62  46.70
1000.7  632685.22  296044.12  46.79
1004.5  632028.65  296389.08  46.89
1008.4  632127.67  296996.48  46.98
1012.2  632510.96  297637.29  47.06
1016.0  631969.88  297830.84  47.13
1019.8  630557.68  297616.63  47.20
1023.7  628858.02  297172.63  47.26
1027.5  626460.08  296405.30  47.31
1031.3  624868.53  295982.88  47.37
1035.1  623569.46  295653.38  47.41
1038.9  622999.69  295663.18  47.46
1042.7  622621.13  295788.08  47.51
1046.5  622169.21  295823.29  47.55
1050.3  621328.30  295599.17  47.58
1054.2  620145.94  295227.93  47.61
1058.0  619503.95  295037.19  47.62
1061.8  618848.72  294912.08  47.65
1065.6  617464.60  294280.98  47.66
1069.4  615809.72  293509.30  47.66
1073.2  614018.41  292563.84  47.65
1077.0  612830.47  291940.65  47.64
1080.8  612749.75  291805.39  47.62
1084.6  612839.33  291782.21  47.61
1088.4  612820.85  291756.04  47.61
1092.2  611985.24  291241.40  47.59
1096.0  610974.87  290573.02  47.56
1099.8  609832.87  289772.53  47.52
1103.6  608392.98  288867.10  47.48
1107.4  606969.60  287943.79  47.44
1111.2  606108.93  287286.65  47.40
1114.9  605463.17  286635.77  47.34
1118.7  605267.80  286109.61  47.27
1122.5  605186.24  285472.84  47.17
1126.3  603585.36  284000.35  47.05
1130.1  603097.28  282711.89  46.88
1133.9  600477.09  280048.01  46.64
1137.7  598302.55  277198.17  46.33
1141.4  595258.76  273675.47  45.98
1145.2  594273.44  270848.36  45.58
1149.0  592545.87  267866.56  45.21
1152.8  589839.60  264718.45  44.88
1156.6  587022.12  261961.82  44.63
1160.3  584477.17  259725.73  44.44
1164.1  580941.00  257400.42  44.31
1167.9  578600.09  255835.94  44.22
1171.7  576683.65  254610.86  44.15
1175.4  574638.82  253377.71  44.09
1179.2  572872.27  252207.22  44.03
1183.0  572805.96  251802.49  43.96
1186.7  572955.13  251540.34  43.90
1190.5  572293.07  251027.77  43.86
1194.3  570484.02  250088.57  43.84
1198.0  568112.79  248970.85  43.82
1201.8  565935.22  247997.79  43.82
1205.6  564636.50  247539.49  43.84
1209.3  563869.61  247515.09  43.90
1213.1  563149.40  247556.47  43.96
1216.8  561979.48  247542.05  44.05
1220.6  560310.45  247268.83  44.13
1224.3  558519.71  246929.53  44.21
1228.1  556568.64  246562.82  44.30
1231.9  554492.85  246017.76  44.37
1235.6  552276.78  245366.38  44.43
1239.4  550235.40  244800.10  44.49
1243.1  548391.48  244229.12  44.54
1246.9  546693.69  243656.38  44.57
1250.6  545107.90  243082.23  44.59
1254.3  543449.18  242474.64  44.62
1258.1  541710.17  241764.30  44.63
1261.8  539640.29  240878.24  44.64
1265.6  537957.01  240091.54  44.63
1269.3  536628.24  239442.38  44.62
1273.1  537161.11  239560.16  44.60
1276.8  536939.24  239231.87  44.55
1280.6  535728.31  238386.88  44.50
1284.3  533218.79  236922.39  44.43
1288.0  531689.05  235813.80  44.35
1291.8  530912.47  234971.70  44.26
1295.5  529850.34  233927.78  44.15
1299.2  528126.99  232481.70  44.02
1302.9  525833.31  230619.64  43.86
1306.7  523313.41  228517.08  43.67
1310.4  520868.41  226245.43  43.44
1314.1  518772.98  223979.48  43.17
1317.9  516734.02  221538.58  42.87
1321.6  514474.52  218851.51  42.54
1325.3  512167.73  215938.01  42.16
1329.0  510182.93  213048.89  41.76
1332.8  507393.88  209657.75  41.32
1336.5  504876.87  206366.05  40.87
1340.2  504068.68  203811.17  40.43
