/*** Spectra Vista SIG Data ***/
name= 47_20220825_ACRU_21_avg.sig
comm= Averaged Ref/Tar of files: HR.082522.0059_moc.sig,HR.082522.0060_moc.sig,HR.082522.0061_moc.sig
data=
337.3  3275.25  277.90  8.48
338.8  3367.00  275.77  8.19
340.3  3560.60  274.85  7.72
341.8  3749.45  280.45  7.48
343.2  3907.20  284.16  7.27
344.7  4051.75  278.65  6.88
346.2  4289.25  272.33  6.35
347.7  4443.73  272.65  6.14
349.2  4649.40  277.20  5.96
350.6  4884.43  279.11  5.71
352.1  5144.40  285.80  5.56
353.6  5447.90  296.11  5.44
355.1  5691.08  300.83  5.29
356.6  5997.83  301.53  5.03
358.0  6284.30  301.99  4.81
359.5  6550.80  317.24  4.84
361.0  6852.83  327.18  4.77
362.5  7230.93  339.59  4.70
364.0  7598.88  359.39  4.73
365.4  7980.40  355.93  4.46
366.9  8315.13  368.33  4.43
368.4  8700.73  378.21  4.35
369.9  9053.38  392.76  4.34
371.3  9478.50  416.52  4.39
372.8  9903.15  435.42  4.40
374.3  10346.88  440.75  4.26
375.8  10753.05  449.17  4.18
377.2  11190.40  462.68  4.13
378.7  11593.90  473.44  4.08
380.2  12024.30  480.61  4.00
381.7  12539.60  500.86  3.99
383.1  13016.85  513.85  3.95
384.6  13568.43  517.92  3.82
386.1  14025.98  536.90  3.83
387.6  14499.10  556.97  3.84
389.0  15008.00  568.16  3.79
390.5  15531.75  577.02  3.72
392.0  16108.05  599.53  3.72
393.4  16710.90  606.08  3.63
394.9  17252.10  629.88  3.65
396.4  17802.00  648.60  3.64
397.9  18373.13  659.42  3.59
399.3  18943.10  682.09  3.60
400.8  19541.20  701.22  3.59
402.2  20180.10  716.86  3.55
403.7  20800.80  741.51  3.56
405.2  21402.20  763.91  3.57
406.6  21993.60  782.61  3.56
408.1  22622.60  801.55  3.54
409.6  23245.05  819.47  3.53
411.0  23912.00  839.77  3.51
412.5  24594.33  869.10  3.53
414.0  25265.00  888.35  3.52
415.4  25976.63  914.25  3.52
416.9  26657.33  948.33  3.56
418.4  27377.55  968.61  3.54
419.8  28119.00  999.79  3.56
421.3  28858.68  1021.97  3.54
422.7  29632.20  1053.28  3.55
424.2  30425.63  1084.50  3.56
425.7  31198.20  1112.75  3.57
427.1  31982.33  1145.73  3.58
428.6  32813.50  1180.07  3.60
430.0  33567.10  1207.93  3.60
431.5  34446.90  1239.77  3.60
432.9  35335.80  1269.67  3.59
434.4  36256.58  1300.71  3.59
435.9  37114.00  1336.53  3.60
437.3  37963.75  1373.17  3.62
438.8  38824.50  1406.37  3.62
440.2  39724.30  1440.93  3.63
441.7  40709.20  1475.79  3.63
443.1  41618.25  1510.50  3.63
444.6  42601.20  1552.79  3.64
446.0  43570.05  1591.60  3.65
447.5  44552.48  1635.44  3.67
448.9  45524.10  1675.28  3.68
450.4  46542.30  1716.31  3.69
451.8  47437.00  1754.13  3.70
453.3  48377.50  1788.66  3.70
454.7  49406.25  1833.96  3.71
456.2  50281.45  1872.66  3.72
457.6  51281.33  1915.14  3.73
459.1  52287.30  1954.33  3.74
460.5  53245.88  1986.63  3.73
462.0  54329.93  2026.95  3.73
463.4  55402.80  2069.61  3.74
464.8  56401.88  2109.00  3.74
466.3  57390.30  2150.50  3.75
467.7  58397.18  2193.82  3.76
469.2  59480.95  2229.48  3.75
470.6  60471.20  2266.73  3.75
472.0  61549.98  2304.55  3.74
473.5  62573.75  2348.52  3.75
474.9  63626.25  2395.90  3.77
476.4  64800.00  2444.16  3.77
477.8  65873.50  2488.20  3.78
479.2  66917.50  2526.87  3.78
480.7  68032.50  2574.62  3.78
482.1  69201.05  2624.12  3.79
483.6  70414.85  2679.99  3.81
485.0  71520.98  2727.09  3.81
486.4  72735.45  2781.96  3.82
487.9  73856.25  2833.35  3.84
489.3  75038.60  2899.84  3.86
490.7  76128.25  2952.85  3.88
492.2  77366.10  3020.36  3.90
493.6  78494.70  3086.27  3.93
495.0  79618.50  3157.05  3.97
496.5  80829.90  3236.33  4.00
497.9  81959.88  3320.46  4.05
499.3  83148.55  3418.30  4.11
500.7  84427.95  3529.67  4.18
502.2  85599.80  3642.21  4.25
503.6  86884.60  3776.53  4.35
505.0  87987.90  3922.29  4.46
506.5  89329.65  4099.57  4.59
507.9  90521.45  4295.30  4.75
509.3  91893.20  4522.88  4.92
510.7  93146.63  4775.55  5.13
512.2  94565.18  5068.18  5.36
513.6  96073.25  5405.17  5.63
515.0  97526.60  5779.14  5.93
516.4  98941.50  6197.31  6.26
517.8  100584.13  6667.00  6.63
519.3  101945.23  7157.61  7.02
520.7  103534.45  7690.03  7.43
522.1  104840.45  8226.62  7.85
523.5  106209.90  8784.80  8.27
524.9  107638.20  9350.22  8.69
526.3  109060.00  9895.76  9.07
527.8  110602.80  10448.46  9.45
529.2  111809.60  10954.48  9.80
530.6  113374.70  11467.52  10.11
532.0  115122.00  11959.73  10.39
533.4  116446.35  12380.40  10.63
534.8  117345.43  12720.69  10.84
536.3  119041.20  13111.56  11.01
537.7  121073.40  13508.88  11.16
539.1  122572.13  13823.72  11.28
540.5  123801.70  14098.50  11.39
541.9  125615.70  14428.30  11.49
543.3  126908.30  14706.42  11.59
544.7  128284.20  14985.68  11.68
546.1  130102.23  15323.48  11.78
547.5  131353.60  15587.41  11.87
549.0  133100.00  15897.20  11.94
550.4  134618.75  16158.50  12.00
551.8  136204.03  16397.95  12.04
553.2  137756.73  16597.99  12.05
554.6  139131.20  16730.13  12.02
556.0  140687.55  16834.62  11.97
557.4  142330.13  16898.58  11.87
558.8  143999.55  16916.04  11.75
560.2  145478.25  16868.37  11.60
561.6  147180.15  16799.54  11.41
563.0  148807.85  16681.79  11.21
564.4  150432.45  16522.71  10.98
565.8  151990.63  16325.67  10.74
567.2  153778.75  16120.70  10.48
568.6  155305.88  15858.65  10.21
570.0  156755.93  15556.70  9.92
571.4  158512.25  15272.57  9.63
572.8  160322.38  14999.47  9.36
574.2  161974.40  14730.24  9.09
575.6  163563.75  14470.50  8.85
577.0  165115.60  14245.53  8.63
578.4  166871.25  14059.50  8.43
579.8  168407.10  13880.16  8.24
581.2  170152.50  13741.84  8.08
582.5  171615.60  13598.52  7.92
583.9  173153.20  13478.75  7.78
585.3  174987.45  13398.93  7.66
586.7  176490.93  13317.29  7.55
588.1  178019.25  13250.20  7.44
589.5  179695.25  13220.20  7.36
590.9  181337.60  13198.56  7.28
592.3  183179.80  13212.64  7.21
593.7  184649.40  13219.18  7.16
595.0  186295.95  13247.37  7.11
596.4  187762.05  13278.07  7.07
597.8  189273.70  13301.63  7.03
599.2  190845.60  13332.00  6.99
600.6  192626.20  13360.53  6.94
602.0  193937.55  13340.87  6.88
603.3  195756.85  13329.59  6.81
604.7  197453.33  13290.28  6.73
606.1  198954.60  13214.88  6.64
607.5  200617.48  13128.49  6.54
608.9  202334.05  13025.29  6.44
610.2  203751.45  12887.91  6.33
611.6  205363.20  12762.62  6.21
613.0  206924.00  12631.23  6.10
614.4  208326.90  12491.66  6.00
615.8  209795.63  12372.75  5.90
617.1  211356.60  12271.56  5.81
618.5  213031.20  12193.23  5.72
619.9  214576.73  12133.03  5.65
621.3  216220.73  12102.21  5.60
622.6  217846.25  12086.13  5.55
624.0  219343.65  12090.14  5.51
625.4  220860.75  12107.37  5.48
626.8  222472.25  12147.59  5.46
628.1  223807.65  12186.06  5.44
629.5  225665.40  12254.94  5.43
630.9  227234.15  12312.85  5.42
632.2  228585.35  12341.96  5.40
633.6  230177.13  12368.82  5.37
635.0  231684.00  12361.07  5.34
636.3  233238.60  12312.99  5.28
637.7  234649.38  12225.05  5.21
639.1  236337.50  12124.00  5.13
640.4  237834.80  11993.08  5.04
641.8  239068.90  11833.42  4.95
643.2  240687.83  11692.22  4.86
644.5  242068.00  11534.00  4.76
645.9  243798.30  11402.10  4.68
647.2  245418.95  11292.40  4.60
648.6  247232.25  11221.20  4.54
650.0  248702.40  11160.00  4.49
651.3  249294.65  11083.82  4.45
652.7  250668.75  11039.41  4.40
654.0  252793.10  11028.64  4.36
655.4  254260.10  10992.73  4.32
656.8  254467.00  10911.13  4.29
658.1  255647.40  10853.63  4.25
659.5  258099.98  10836.00  4.20
660.8  259852.50  10779.00  4.15
662.2  260736.00  10701.23  4.10
663.5  262433.20  10661.53  4.06
664.9  263697.20  10625.68  4.03
666.2  264490.80  10584.96  4.00
667.6  266292.60  10617.77  3.99
668.9  267394.28  10646.82  3.98
670.3  268656.63  10692.27  3.98
671.6  270146.25  10779.30  3.99
673.0  271363.13  10867.80  4.00
674.3  272603.50  10970.44  4.02
675.7  273972.83  11090.48  4.05
677.0  275092.25  11229.81  4.08
678.4  276523.88  11397.20  4.12
679.7  277647.15  11576.34  4.17
681.1  278961.78  11788.05  4.23
682.4  280095.40  12010.61  4.29
683.8  281333.00  12266.97  4.36
685.1  282381.38  12564.05  4.45
686.4  283693.80  12944.08  4.56
687.8  285000.25  13421.20  4.71
689.1  286090.50  14035.30  4.91
690.5  287488.05  14891.06  5.18
691.8  288331.78  16041.16  5.56
693.1  289670.85  17603.58  6.08
694.5  290836.00  19601.40  6.74
695.8  292041.75  22064.47  7.56
697.1  293270.25  24991.63  8.52
698.5  294350.90  28362.89  9.64
699.8  295477.93  32122.92  10.87
701.1  296634.35  36207.44  12.21
702.5  297457.05  40472.74  13.61
703.8  298417.50  44871.00  15.04
705.1  299620.43  49382.84  16.48
706.5  300697.63  53887.95  17.92
707.8  301725.00  58387.14  19.35
709.1  302637.70  62828.50  20.76
710.5  303798.60  67293.50  22.15
711.8  304662.60  71660.31  23.52
713.1  305710.70  76031.11  24.87
714.4  306625.00  80333.52  26.20
715.8  307517.00  84564.57  27.50
717.1  308854.65  88884.46  28.78
718.4  309836.80  93052.59  30.03
719.7  310986.58  97202.88  31.26
721.0  311535.00  101094.00  32.45
722.4  312317.50  104965.74  33.61
723.7  313294.80  108792.48  34.73
725.0  314377.65  112534.20  35.80
726.3  315373.03  116112.30  36.82
727.6  315920.83  119420.40  37.80
729.0  316869.35  122712.94  38.73
730.3  317698.95  125805.53  39.60
731.6  318636.60  128794.25  40.42
732.9  319472.65  131599.95  41.19
734.2  320331.00  134253.53  41.91
735.5  321398.55  136846.49  42.58
736.8  322225.20  139198.00  43.20
738.1  323104.10  141421.08  43.77
739.5  324090.05  143551.15  44.29
740.8  324832.20  145423.92  44.77
742.1  325543.50  147180.02  45.21
743.4  326250.00  148796.67  45.61
744.7  327249.83  150429.02  45.97
746.0  328181.10  151924.24  46.29
747.3  328813.05  153160.21  46.58
748.6  329574.25  154383.27  46.84
749.9  330330.00  155480.00  47.07
751.2  331006.70  156467.65  47.27
752.5  331843.50  157475.30  47.45
753.8  332430.18  158303.06  47.62
755.1  333138.00  159123.47  47.77
756.4  333752.78  159836.30  47.89
757.7  334803.00  160698.49  48.00
759.0  336676.55  161902.66  48.09
760.3  337893.60  162768.32  48.17
761.6  339522.40  163792.16  48.24
762.9  340072.75  164259.27  48.30
764.2  340473.30  164624.41  48.35
765.5  340785.25  164902.95  48.39
766.8  341251.20  165238.19  48.42
768.1  341815.00  165612.91  48.45
769.3  342445.25  166003.23  48.48
770.6  343114.20  166410.57  48.50
771.9  343847.70  166837.32  48.52
773.2  344264.80  167090.45  48.54
774.5  344916.00  167432.03  48.54
775.8  345623.00  167818.53  48.56
777.1  346243.70  168141.09  48.56
778.4  346567.65  168342.39  48.57
779.6  347366.35  168754.77  48.58
780.9  347850.00  169008.00  48.59
782.2  348359.00  169258.83  48.59
783.5  348706.50  169445.80  48.59
784.8  349247.25  169734.78  48.60
786.0  349689.90  169962.71  48.60
787.3  350096.43  170179.03  48.61
788.6  350552.38  170408.02  48.61
789.9  351012.20  170647.12  48.62
791.2  351679.70  170984.00  48.62
792.4  352403.83  171338.10  48.62
793.7  352937.80  171595.84  48.62
795.0  353572.73  171925.71  48.63
796.2  354262.98  172261.27  48.63
797.5  354993.68  172643.44  48.63
798.8  355666.83  172973.54  48.63
800.0  356357.58  173313.91  48.63
801.3  356884.60  173559.17  48.63
802.6  357544.58  173863.95  48.63
803.8  358181.13  174197.09  48.63
805.1  358679.13  174454.58  48.64
806.4  359168.70  174701.20  48.64
807.7  359741.25  174979.17  48.64
808.9  360287.50  175264.61  48.65
810.2  360854.20  175533.45  48.64
811.4  361381.20  175803.75  48.65
812.7  362090.63  176117.50  48.64
814.0  362901.85  176544.47  48.65
815.2  363559.00  176864.13  48.65
816.5  363945.48  177104.07  48.66
817.7  364482.10  177359.01  48.66
819.0  365023.45  177635.19  48.66
820.2  365200.00  177730.67  48.67
821.5  365996.05  178082.06  48.66
822.7  366365.30  178280.88  48.66
824.0  366649.20  178446.96  48.67
825.2  367197.30  178723.80  48.67
826.5  367563.13  178907.51  48.67
827.7  368111.63  179203.69  48.68
829.0  368604.63  179418.44  48.68
830.2  368946.45  179589.21  48.68
831.5  369455.05  179857.96  48.68
832.7  369766.43  180016.48  48.68
834.0  370144.10  180203.00  48.68
835.2  370511.35  180412.87  48.69
836.4  370835.85  180586.19  48.70
837.7  371324.20  180818.43  48.70
838.9  371811.33  181064.57  48.70
840.1  372174.08  181274.49  48.71
841.4  372695.00  181533.76  48.71
842.6  373041.20  181738.61  48.72
843.8  373399.20  181917.84  48.72
845.1  373964.35  182188.67  48.72
846.3  374423.00  182407.51  48.72
847.5  374839.50  182659.40  48.73
848.8  375311.40  182903.28  48.73
850.0  375649.40  183121.77  48.75
851.2  376258.50  183404.34  48.74
852.5  376669.40  183589.36  48.74
853.7  377210.25  183848.40  48.74
854.9  377695.40  184101.72  48.74
856.1  378133.60  184371.37  48.76
857.4  378395.68  184502.09  48.76
858.6  378879.35  184769.19  48.77
859.8  379342.50  184963.00  48.76
861.0  379852.20  185215.68  48.76
862.2  380322.33  185448.89  48.76
863.5  380744.33  185653.26  48.76
864.7  381295.20  185933.44  48.76
865.9  381753.40  186142.40  48.76
867.1  382094.95  186294.46  48.76
868.3  382633.20  186546.16  48.75
869.5  383167.25  186825.24  48.76
870.8  383724.00  187088.40  48.76
872.0  384305.25  187363.63  48.75
873.2  384732.45  187580.84  48.76
874.4  385161.08  187813.08  48.76
875.6  385632.35  187981.81  48.75
876.8  386152.20  188247.85  48.75
878.0  386776.05  188502.63  48.74
879.2  387380.55  188761.58  48.73
880.4  387852.75  189037.10  48.74
881.6  388452.98  189245.02  48.72
882.8  388880.80  189472.75  48.72
884.0  389500.93  189749.31  48.72
885.2  390089.60  190028.36  48.71
886.5  390762.30  190328.55  48.71
887.7  391338.68  190576.92  48.70
888.8  392026.13  190886.45  48.69
890.0  392635.15  191161.95  48.69
891.2  393352.60  191485.32  48.68
892.4  393878.63  191760.45  48.69
893.6  394553.25  192031.97  48.67
894.8  395496.50  192463.23  48.66
896.0  396503.75  192902.30  48.65
897.2  397358.00  193332.53  48.65
898.4  398253.90  193688.00  48.63
899.6  398880.00  193969.25  48.63
900.8  399244.48  194164.74  48.63
902.0  399565.20  194263.98  48.62
903.2  399806.10  194389.98  48.62
904.3  400213.50  194568.72  48.62
905.5  400936.93  194890.89  48.61
906.7  401563.00  195144.33  48.60
907.9  402103.80  195401.87  48.59
909.1  402523.43  195559.20  48.58
910.2  402763.43  195669.68  48.58
911.4  403067.93  195765.57  48.57
912.6  403302.90  195841.36  48.56
913.8  403561.88  195927.75  48.55
915.0  404088.30  196088.20  48.53
916.2  404205.75  196192.10  48.54
917.3  404310.83  196224.15  48.53
918.5  404480.90  196329.57  48.54
919.7  404910.90  196412.92  48.51
920.8  404928.10  196433.58  48.51
922.0  405193.25  196447.53  48.48
923.2  405405.00  196505.40  48.47
924.4  405715.50  196584.75  48.45
925.5  405887.90  196719.31  48.47
926.7  406623.00  197028.02  48.45
927.9  407482.80  197407.92  48.45
929.0  409077.00  198044.28  48.41
930.2  411424.10  199092.64  48.39
931.4  414013.95  200234.43  48.36
932.5  416736.10  201532.03  48.36
933.7  418068.80  202151.56  48.35
934.9  418932.50  202473.25  48.33
936.0  418518.75  202223.88  48.32
937.2  416437.65  201076.90  48.28
938.3  414699.15  200156.55  48.27
939.5  413186.40  199385.28  48.26
940.7  413591.40  199381.08  48.21
941.8  415055.55  200078.06  48.21
943.0  416577.00  200736.10  48.19
944.2  417355.25  201061.12  48.18
945.3  416997.75  200712.20  48.13
946.5  416207.70  200235.06  48.11
947.6  416679.50  200235.00  48.05
948.8  416571.68  200052.71  48.02
949.9  416711.40  199953.04  47.98
951.1  416490.43  199642.69  47.93
952.2  416160.00  199403.20  47.92
953.4  416158.00  199098.17  47.84
954.5  416145.60  198890.64  47.79
955.7  415976.40  198749.04  47.78
956.8  415753.20  198434.27  47.73
958.0  415534.00  198139.13  47.68
959.1  415334.00  197915.68  47.65
960.3  415104.88  197655.85  47.62
961.4  414918.95  197584.92  47.62
962.6  415247.00  197490.07  47.56
963.7  415089.90  197241.30  47.52
964.9  414944.33  197138.30  47.51
966.0  414823.28  197064.63  47.51
967.2  414979.65  197126.34  47.50
968.3  414894.15  196963.92  47.47
969.5  414609.73  196820.80  47.47
970.6  414897.83  196794.96  47.43
971.8  415302.48  196941.80  47.42
972.9  415259.25  196951.53  47.43
974.0  415522.50  197060.87  47.42
975.2  415490.25  196988.32  47.41
976.3  415889.00  196949.73  47.36
977.5  415992.50  196953.54  47.35
978.6  416504.10  196955.89  47.29
979.7  416655.23  197015.77  47.29
980.9  416654.70  197024.16  47.29
982.0  416116.65  197099.47  47.37
983.2  415892.95  196944.56  47.35
984.3  416007.00  196710.59  47.29
985.4  415995.43  196638.36  47.27
986.6  415762.63  196601.88  47.29
987.7  417424.00  196971.95  47.19
988.9  416397.60  196800.72  47.26
990.0  417699.80  197255.21  47.22
993.1  368670.46  173841.13  47.15
996.9  369571.58  174520.73  47.22
1000.7  370783.00  175374.24  47.30
1004.5  371470.08  175908.86  47.35
1008.4  371346.21  176123.91  47.43
1012.2  371646.21  176422.96  47.47
1016.0  371949.60  176739.26  47.52
1019.8  372314.25  177096.15  47.57
1023.7  372549.23  177328.51  47.60
1027.5  372433.12  177422.58  47.64
1031.3  372838.15  177685.82  47.66
1035.1  372766.04  177744.85  47.68
1038.9  372764.52  177819.45  47.70
1042.7  372662.00  177837.84  47.72
1046.5  372522.17  177812.74  47.73
1050.3  372586.04  177878.04  47.74
1054.2  372329.42  177801.75  47.75
1058.0  371842.04  177552.46  47.75
1061.8  371716.72  177516.39  47.76
1065.6  371452.27  177355.41  47.75
1069.4  371558.87  177364.54  47.74
1073.2  371263.02  177170.41  47.72
1077.0  370868.80  176903.01  47.70
1080.8  370414.58  176550.45  47.66
1084.6  369308.10  175908.48  47.63
1088.4  368594.14  175506.79  47.62
1092.2  367701.75  174990.21  47.59
1096.0  367126.41  174592.34  47.56
1099.8  366655.90  174225.01  47.52
1103.6  366009.73  173763.37  47.48
1107.4  365133.12  173168.38  47.43
1111.2  364947.50  172907.36  47.38
1114.9  364312.67  172407.75  47.32
1118.7  363726.00  171867.54  47.25
1122.5  363049.27  171236.62  47.17
1126.3  361940.19  170377.22  47.07
1130.1  361460.27  169660.72  46.94
1133.9  359828.70  168246.40  46.76
1137.7  358412.20  166781.98  46.53
1141.4  356614.27  165004.78  46.27
1145.2  355953.63  163573.64  45.95
1149.0  354843.13  162024.17  45.66
1152.8  353200.85  160339.56  45.40
1156.6  351534.52  158846.97  45.19
1160.3  349743.00  157523.57  45.04
1164.1  347263.67  156062.67  44.94
1167.9  345455.21  155020.68  44.87
1171.7  344192.63  154298.25  44.83
1175.4  343040.57  153682.50  44.80
1179.2  342028.43  153112.49  44.77
1183.0  341770.33  152856.24  44.72
1186.7  341245.33  152493.17  44.69
1190.5  340135.40  151904.74  44.66
1194.3  338912.47  151276.35  44.64
1198.0  337673.05  150693.91  44.63
1201.8  336230.68  150022.94  44.62
1205.6  335000.00  149502.52  44.63
1209.3  334058.88  149169.21  44.65
1213.1  333036.38  148832.94  44.69
1216.8  332004.20  148564.02  44.75
1220.6  330853.60  148224.27  44.80
1224.3  329567.50  147819.07  44.85
1228.1  328286.80  147423.37  44.91
1231.9  327039.75  147011.61  44.95
1235.6  325559.55  146455.81  44.99
1239.4  324186.75  145980.09  45.03
1243.1  322957.67  145488.59  45.05
1246.9  321737.82  144979.79  45.06
1250.6  320773.53  144563.16  45.07
1254.3  319688.42  144096.10  45.07
1258.1  318685.50  143636.23  45.07
1261.8  317404.27  143044.52  45.07
1265.6  316001.50  142349.19  45.05
1269.3  314551.13  141616.31  45.02
1273.1  314478.79  141481.65  44.99
1276.8  314781.60  141480.46  44.95
1280.6  314714.63  141312.14  44.90
1284.3  313420.40  140566.74  44.85
1288.0  312002.42  139710.82  44.78
1291.8  310686.84  138850.01  44.69
1295.5  309243.73  137933.09  44.60
1299.2  307953.52  137041.20  44.50
1302.9  306500.84  136013.24  44.38
1306.7  304964.57  134884.17  44.23
1310.4  303482.53  133687.10  44.05
1314.1  302096.48  132489.34  43.86
1317.9  300866.46  131271.81  43.63
1321.6  299488.52  129897.43  43.37
1325.3  297861.90  128325.00  43.08
1329.0  296511.95  126827.65  42.77
1332.8  294432.60  124927.00  42.43
1336.5  292646.73  123143.12  42.08
1340.2  292322.33  121972.50  41.73
1343.9  291969.58  120786.76  41.37
