/*** Spectra Vista SIG Data ***/
name= 19_20221020_BENI_69_avg.sig
comm= Averaged Ref/Tar of files: HR.102022.0054_moc.sig,HR.102022.0055_moc.sig,HR.102022.0056_moc.sig
data=
337.3  3076.75  236.31  7.68
338.8  3222.70  213.47  6.62
340.3  3373.20  229.34  6.80
341.8  3566.55  219.48  6.15
343.2  3729.60  217.35  5.83
344.7  3881.15  212.84  5.48
346.2  4044.15  198.42  4.91
347.7  4207.78  203.74  4.84
349.2  4384.80  200.88  4.58
350.6  4664.08  210.56  4.51
352.1  4930.05  212.99  4.32
353.6  5205.00  208.86  4.01
355.1  5489.03  207.18  3.77
356.6  5768.40  212.26  3.68
358.0  5997.20  221.17  3.69
359.5  6303.60  233.07  3.70
361.0  6613.43  228.57  3.46
362.5  6967.45  245.35  3.52
364.0  7312.13  239.23  3.27
365.4  7643.20  252.63  3.31
366.9  7983.63  254.68  3.19
368.4  8318.88  260.28  3.13
369.9  8702.05  271.79  3.12
371.3  9104.70  290.90  3.20
372.8  9531.45  314.05  3.29
374.3  9943.75  317.89  3.20
375.8  10321.85  318.78  3.09
377.2  10706.20  330.49  3.09
378.7  11136.60  326.90  2.94
380.2  11486.30  330.49  2.88
381.7  12026.13  343.35  2.86
383.1  12477.85  347.53  2.79
384.6  12948.00  360.18  2.78
386.1  13404.40  375.78  2.80
387.6  13852.30  379.87  2.74
389.0  14311.20  388.98  2.72
390.5  14761.80  396.48  2.69
392.0  15288.10  401.03  2.62
393.4  15843.83  417.90  2.64
394.9  16364.70  433.51  2.65
396.4  16922.25  446.53  2.64
397.9  17425.00  464.67  2.67
399.3  17930.10  477.08  2.66
400.8  18469.43  483.31  2.62
402.2  19099.90  494.27  2.59
403.7  19693.35  509.47  2.59
405.2  20289.48  526.26  2.59
406.6  20833.60  544.87  2.62
408.1  21424.80  563.49  2.63
409.6  21993.90  577.81  2.63
411.0  22652.35  599.83  2.65
412.5  23282.35  616.02  2.65
414.0  23940.63  637.64  2.66
415.4  24605.25  660.99  2.69
416.9  25269.53  684.36  2.71
418.4  25939.58  705.38  2.72
419.8  26626.60  735.63  2.76
421.3  27325.73  757.14  2.77
422.7  28083.60  782.83  2.79
424.2  28856.25  815.79  2.83
425.7  29600.80  844.18  2.85
427.1  30320.70  871.13  2.87
428.6  31093.00  902.25  2.90
430.0  31821.98  934.20  2.94
431.5  32685.75  968.84  2.96
432.9  33533.85  1002.90  2.99
434.4  34408.65  1034.68  3.01
435.9  35210.00  1069.33  3.04
437.3  36038.75  1100.78  3.05
438.8  36856.13  1136.16  3.08
440.2  37716.53  1176.05  3.12
441.7  38659.00  1209.57  3.13
443.1  39551.25  1243.48  3.14
444.6  40492.10  1281.30  3.16
446.0  41416.20  1320.49  3.19
447.5  42355.23  1359.96  3.21
448.9  43266.60  1398.85  3.23
450.4  44250.15  1441.52  3.26
451.8  45110.00  1478.04  3.28
453.3  46010.93  1510.97  3.28
454.7  46995.23  1550.13  3.30
456.2  47861.28  1587.50  3.32
457.6  48812.18  1626.38  3.33
459.1  49768.88  1663.47  3.34
460.5  50691.25  1697.23  3.35
462.0  51733.13  1731.46  3.35
463.4  52745.00  1768.47  3.35
464.8  53724.00  1806.66  3.36
466.3  54683.48  1847.03  3.38
467.7  55652.55  1883.91  3.39
469.2  56708.18  1920.63  3.39
470.6  57675.25  1957.10  3.39
472.0  58720.90  1995.97  3.40
473.5  59706.38  2035.88  3.41
474.9  60719.25  2075.07  3.42
476.4  61876.80  2118.58  3.42
477.8  62915.50  2160.36  3.43
479.2  63916.00  2199.58  3.44
480.7  64978.28  2244.87  3.45
482.1  66108.75  2288.05  3.46
483.6  67264.75  2334.57  3.47
485.0  68336.48  2377.76  3.48
486.4  69490.80  2430.82  3.50
487.9  70551.00  2475.39  3.51
489.3  71681.30  2529.33  3.53
490.7  72741.50  2581.50  3.55
492.2  73941.00  2646.28  3.58
493.6  75022.65  2703.69  3.60
495.0  76123.13  2768.72  3.64
496.5  77278.55  2846.11  3.68
497.9  78364.50  2924.10  3.73
499.3  79509.15  3009.07  3.78
500.7  80750.80  3103.85  3.84
502.2  81891.40  3208.66  3.92
503.6  83132.40  3333.53  4.01
505.0  84193.55  3465.49  4.12
506.5  85488.15  3624.24  4.24
507.9  86637.30  3798.59  4.38
509.3  87986.00  4001.08  4.55
510.7  89197.88  4220.36  4.73
512.2  90570.08  4480.08  4.95
513.6  92026.55  4777.87  5.19
515.0  93444.03  5106.37  5.46
516.4  94802.40  5469.66  5.77
517.8  96403.13  5884.34  6.10
519.3  97708.65  6317.40  6.47
520.7  99249.20  6794.85  6.85
522.1  100536.15  7279.24  7.24
523.5  101873.10  7795.38  7.65
524.9  103355.55  8329.08  8.06
526.3  104755.00  8851.90  8.45
527.8  106207.20  9382.94  8.83
529.2  107235.30  9879.13  9.21
530.6  108765.15  10411.98  9.57
532.0  110404.00  10937.60  9.91
533.4  111722.25  11406.88  10.21
534.8  112597.65  11807.03  10.49
536.3  114126.30  12248.12  10.73
537.7  116008.20  12706.56  10.95
539.1  117407.95  13099.95  11.16
540.5  118584.05  13460.19  11.35
541.9  120281.63  13872.52  11.53
543.3  121572.23  14233.50  11.71
544.7  122869.20  14593.52  11.88
546.1  124645.13  15008.21  12.04
547.5  125854.40  15343.36  12.19
549.0  127468.00  15713.87  12.33
550.4  128945.00  16052.25  12.45
551.8  130499.48  16363.07  12.54
553.2  131985.00  16626.12  12.60
554.6  133296.80  16820.27  12.62
556.0  134788.05  16990.76  12.61
557.4  136362.28  17119.44  12.55
558.8  137975.85  17218.06  12.48
560.2  139398.50  17251.75  12.38
561.6  141039.83  17269.76  12.24
563.0  142606.65  17243.44  12.09
564.4  144186.85  17197.50  11.93
565.8  145679.38  17109.89  11.74
567.2  147414.75  17013.46  11.54
568.6  148857.00  16851.07  11.32
570.0  150258.73  16639.35  11.07
571.4  151937.50  16429.56  10.81
572.8  153669.63  16221.31  10.56
574.2  155254.40  15999.79  10.31
575.6  156791.25  15787.50  10.07
577.0  158279.10  15593.78  9.85
578.4  159955.25  15444.65  9.66
579.8  161453.25  15292.35  9.47
581.2  163138.05  15183.09  9.31
582.5  164537.10  15067.82  9.16
583.9  166037.80  14973.41  9.02
585.3  167784.75  14924.19  8.89
586.7  169251.88  14869.08  8.79
588.1  170707.88  14828.53  8.69
589.5  172320.75  14820.17  8.60
590.9  173910.00  14827.33  8.53
592.3  175687.45  14866.61  8.46
593.7  177133.13  14897.35  8.41
595.0  178703.55  14955.66  8.37
596.4  180147.45  15005.72  8.33
597.8  181611.75  15054.68  8.29
599.2  183110.40  15099.29  8.25
600.6  184831.08  15136.95  8.19
602.0  186110.78  15119.11  8.12
603.3  187857.20  15111.99  8.04
604.7  189508.15  15061.78  7.95
606.1  190964.40  14962.09  7.84
607.5  192568.83  14842.46  7.71
608.9  194227.20  14708.34  7.57
610.2  195586.65  14536.26  7.43
611.6  197183.63  14369.20  7.29
613.0  198716.40  14196.50  7.14
614.4  200077.05  14010.96  7.00
615.8  201503.25  13850.01  6.87
617.1  203007.00  13714.12  6.76
618.5  204610.00  13614.31  6.65
619.9  206099.33  13530.58  6.57
621.3  207688.28  13481.36  6.49
622.6  209230.00  13449.92  6.43
624.0  210660.75  13438.85  6.38
625.4  212098.43  13453.93  6.34
626.8  213602.03  13500.15  6.32
628.1  214851.45  13544.32  6.30
629.5  216593.18  13636.43  6.30
630.9  218075.00  13707.89  6.29
632.2  219333.98  13759.45  6.27
633.6  220861.13  13801.12  6.25
635.0  222292.80  13808.49  6.21
636.3  223740.90  13776.07  6.16
637.7  225075.75  13689.18  6.08
639.1  226660.00  13576.00  5.99
640.4  228113.55  13411.79  5.88
641.8  229300.80  13209.85  5.76
643.2  230810.13  13009.59  5.64
644.5  232158.25  12795.16  5.51
645.9  233706.15  12578.33  5.38
647.2  234660.65  12356.24  5.27
648.6  236094.75  12175.84  5.16
650.0  237405.60  12006.72  5.06
651.3  238452.78  11845.52  4.97
652.7  240711.15  11742.33  4.88
654.0  242854.50  11631.89  4.79
655.4  244193.55  11488.58  4.70
656.8  244365.50  11274.33  4.61
658.1  245727.50  11090.57  4.51
659.5  247873.50  10918.56  4.40
660.8  249142.50  10701.00  4.30
662.2  250140.80  10481.49  4.19
663.5  251624.00  10300.80  4.09
664.9  252625.10  10119.27  4.01
666.2  253390.80  9969.28  3.93
667.6  255085.45  9897.42  3.88
668.9  255996.63  9833.34  3.84
670.3  257871.88  9821.98  3.81
671.6  258862.50  9819.29  3.79
673.0  260035.13  9854.69  3.79
674.3  261266.20  9910.90  3.79
675.7  262560.05  9993.88  3.81
677.0  263639.25  10092.06  3.83
678.4  264916.70  10227.57  3.86
679.7  265951.88  10383.63  3.90
681.1  267195.80  10583.81  3.96
682.4  268271.90  10824.37  4.03
683.8  269443.20  11137.56  4.13
685.1  270433.88  11534.50  4.27
686.4  271750.20  12081.45  4.45
687.8  272963.00  12799.05  4.69
689.1  274097.75  13751.77  5.02
690.5  275396.70  15016.65  5.45
691.8  276172.80  16637.49  6.02
693.1  277530.45  18761.10  6.76
694.5  278687.50  21343.83  7.66
695.8  279938.75  24407.50  8.72
697.1  281121.75  27901.90  9.93
698.5  282183.70  31814.16  11.27
699.8  283256.10  36080.46  12.74
701.1  284389.85  40657.36  14.30
702.5  285167.30  45379.19  15.91
703.8  286042.50  50254.28  17.57
705.1  287196.98  55218.89  19.23
706.5  288212.38  60172.56  20.88
707.8  289164.30  65090.01  22.51
709.1  290001.75  69915.95  24.11
710.5  291095.68  74756.86  25.68
711.8  291907.00  79445.34  27.22
713.1  292865.90  84099.03  28.72
714.4  293735.60  88634.64  30.17
715.8  294538.40  93054.29  31.59
717.1  295846.95  97517.09  32.96
718.4  296777.60  101752.75  34.29
719.7  297861.18  105904.34  35.55
721.0  298350.00  109716.00  36.77
722.4  299080.65  113464.73  37.94
723.7  300021.90  117124.66  39.04
725.0  301015.35  120640.31  40.08
726.3  301929.10  123963.23  41.06
727.6  302431.25  126955.26  41.98
729.0  303297.75  129919.25  42.84
730.3  304091.18  132665.67  43.63
731.6  304954.95  135285.07  44.36
732.9  305693.85  137682.93  45.04
734.2  306446.25  139943.23  45.67
735.5  307424.70  142153.73  46.24
736.8  308218.50  144131.21  46.76
738.1  309027.00  145997.13  47.24
739.5  309947.68  147770.95  47.68
740.8  310612.23  149313.82  48.07
742.1  311297.88  150778.76  48.44
743.4  311925.00  152136.19  48.77
744.7  312799.38  153502.76  49.07
746.0  313655.55  154766.82  49.34
747.3  314212.75  155804.60  49.59
748.6  314922.50  156843.50  49.80
749.9  315562.00  157781.37  50.00
751.2  316153.50  158649.31  50.18
752.5  316938.00  159536.91  50.34
753.8  317437.05  160240.06  50.48
755.1  318032.00  160942.48  50.61
756.4  318583.38  161565.98  50.71
757.7  319523.05  162344.94  50.81
759.0  321230.03  163479.66  50.89
760.3  322317.60  164280.41  50.97
761.6  323801.80  165239.20  51.03
762.9  324290.25  165672.17  51.09
764.2  324629.20  165997.08  51.13
765.5  324840.50  166259.34  51.18
766.8  325176.00  166568.14  51.22
768.1  325649.00  166914.01  51.26
769.3  326159.40  167285.13  51.29
770.6  326763.45  167684.03  51.32
771.9  327421.68  168102.78  51.34
773.2  327707.60  168327.07  51.37
774.5  328242.20  168664.82  51.38
775.8  328832.30  169024.73  51.40
777.1  329336.70  169336.51  51.42
778.4  329618.85  169518.83  51.43
779.6  330274.48  169906.97  51.44
780.9  330690.00  170161.14  51.46
782.2  331056.00  170406.61  51.47
783.5  331291.00  170568.78  51.49
784.8  331738.65  170826.28  51.49
786.0  332059.00  171024.18  51.50
787.3  332344.53  171213.81  51.52
788.6  332698.55  171417.94  51.52
789.9  333076.80  171647.47  51.53
791.2  333633.15  171958.15  51.54
792.4  334201.63  172280.87  51.55
793.7  334601.20  172507.50  51.56
795.0  335138.10  172804.52  51.56
796.2  335678.80  173117.22  51.57
797.5  336276.90  173455.67  51.58
798.8  336856.68  173780.02  51.59
800.0  337414.15  174083.13  51.59
801.3  337787.70  174284.61  51.60
802.6  338326.88  174574.40  51.60
803.8  338887.30  174895.98  51.61
805.1  339264.63  175103.17  51.61
806.4  339699.60  175315.88  51.61
807.7  340119.00  175573.52  51.62
808.9  340578.80  175835.14  51.63
810.2  341039.65  176078.11  51.63
811.4  341491.60  176313.97  51.63
812.7  342062.50  176625.89  51.64
814.0  342820.65  177024.95  51.64
815.2  343393.75  177337.30  51.64
816.5  343780.30  177549.36  51.65
817.7  344171.20  177773.63  51.65
819.0  344601.95  178037.41  51.66
820.2  344740.00  178112.84  51.67
821.5  345367.75  178458.82  51.67
822.7  345719.90  178642.21  51.67
824.0  346040.10  178819.41  51.68
825.2  346424.85  179056.48  51.69
826.5  346714.85  179220.88  51.69
827.7  347220.75  179499.15  51.70
829.0  347604.15  179701.51  51.70
830.2  347930.20  179874.61  51.70
831.5  348392.05  180136.89  51.71
832.7  348734.40  180295.84  51.70
834.0  349040.30  180492.66  51.71
835.2  349396.30  180694.00  51.72
836.4  349709.25  180866.66  51.72
837.7  350077.80  181090.97  51.73
838.9  350607.45  181346.76  51.72
840.1  350940.60  181558.35  51.73
841.4  351357.50  181804.71  51.74
842.6  351713.00  182023.76  51.75
843.8  352068.80  182250.47  51.77
845.1  352598.35  182536.86  51.77
846.3  353027.40  182763.53  51.77
847.5  353463.60  183000.44  51.77
848.8  353866.80  183241.12  51.78
850.0  354285.75  183455.91  51.78
851.2  354812.40  183770.54  51.79
852.5  355128.90  184000.88  51.81
853.7  355677.75  184278.43  51.81
854.9  356146.80  184542.39  51.82
856.1  356642.65  184769.25  51.81
857.4  356895.15  184896.12  51.81
858.6  357460.55  185196.78  51.81
859.8  357836.25  185429.47  51.82
861.0  358300.80  185671.65  51.82
862.2  358715.53  185929.49  51.83
863.5  359125.00  186117.04  51.83
864.7  359733.00  186392.55  51.81
865.9  360100.40  186585.59  51.81
867.1  360443.15  186774.67  51.82
868.3  360851.85  187005.24  51.82
869.5  361304.40  187247.44  51.83
870.8  361921.50  187540.12  51.82
872.0  362422.28  187806.96  51.82
873.2  362850.45  188033.36  51.82
874.4  363285.00  188276.40  51.83
875.6  363694.23  188449.82  51.82
876.8  364134.75  188701.03  51.82
878.0  364648.90  188917.88  51.81
879.2  365230.35  189178.77  51.80
880.4  365692.13  189430.54  51.80
881.6  366125.18  189630.04  51.79
882.8  366453.60  189852.65  51.81
884.0  367078.00  190150.03  51.80
885.2  367550.70  190349.09  51.79
886.5  368105.55  190641.64  51.79
887.7  368562.35  190868.43  51.79
888.8  369207.38  191166.36  51.78
890.0  369707.55  191424.33  51.78
891.2  370302.40  191667.37  51.76
892.4  370882.58  191941.45  51.75
893.6  371429.25  192200.81  51.75
894.8  372232.00  192612.18  51.75
896.0  372981.50  192987.37  51.74
897.2  373681.75  193344.05  51.74
898.4  374418.00  193662.67  51.72
899.6  374884.88  193927.70  51.73
900.8  375313.00  194080.40  51.71
902.0  375501.45  194135.64  51.70
903.2  375713.55  194237.01  51.70
904.3  375991.50  194377.88  51.70
905.5  376569.98  194609.86  51.68
906.7  377160.50  194856.80  51.66
907.9  377576.85  195026.81  51.65
909.1  377767.13  195132.14  51.65
910.2  377775.75  195150.86  51.66
911.4  378003.60  195235.62  51.65
912.6  378142.05  195290.33  51.64
913.8  378300.75  195310.45  51.63
915.0  378598.50  195445.60  51.62
916.2  378729.00  195460.57  51.61
917.3  378615.83  195394.57  51.61
918.5  378721.10  195415.16  51.60
919.7  378995.55  195455.74  51.57
920.8  378988.23  195389.65  51.56
922.0  378917.00  195354.13  51.56
923.2  379060.50  195338.00  51.53
924.4  379147.50  195388.14  51.53
925.5  379230.90  195396.48  51.52
926.7  379856.50  195615.12  51.50
927.9  380731.80  195915.10  51.46
929.0  381854.25  196555.96  51.47
930.2  383805.70  197543.04  51.47
931.4  386127.00  198640.89  51.44
932.5  388713.65  199826.38  51.41
933.7  390027.60  200394.43  51.38
934.9  390604.38  200589.33  51.35
936.0  390289.25  200201.24  51.30
937.2  388145.70  198978.05  51.26
938.3  386116.50  197927.89  51.26
939.5  384253.20  196939.13  51.25
940.7  384368.40  196882.80  51.22
941.8  385935.00  197491.79  51.17
943.0  387359.25  198035.40  51.12
944.2  387948.60  198239.61  51.10
945.3  387357.75  197794.07  51.06
946.5  386371.35  197179.05  51.03
947.6  386548.90  197031.24  50.97
948.8  386109.75  196630.48  50.93
949.9  386311.80  196460.00  50.86
951.1  385609.58  195949.21  50.82
952.2  385560.00  195568.00  50.72
953.4  384863.25  195134.76  50.70
954.5  384766.20  194762.88  50.62
955.7  384703.20  194395.68  50.53
956.8  384375.60  193951.75  50.46
958.0  383859.50  193477.09  50.40
959.1  383506.78  193091.61  50.35
960.3  382908.38  192692.77  50.32
961.4  382551.05  192411.42  50.30
962.6  382641.00  192270.37  50.25
963.7  382461.68  191960.97  50.19
964.9  382311.08  191744.85  50.15
966.0  381904.88  191514.55  50.15
967.2  381696.75  191325.10  50.12
968.3  381246.75  191071.75  50.12
969.5  381060.73  190867.18  50.09
970.6  381117.00  190800.48  50.06
971.8  381168.03  190736.58  50.04
972.9  381226.73  190647.56  50.01
974.0  380977.10  190642.19  50.04
975.2  380695.50  190471.21  50.03
976.3  380395.03  190427.99  50.06
977.5  380444.05  190254.44  50.01
978.6  380495.10  190203.73  49.99
979.7  380128.88  190212.08  50.04
980.9  380129.78  190024.09  49.99
982.0  380120.40  190078.48  50.00
983.2  379617.28  189918.12  50.03
984.3  379028.60  189739.59  50.06
985.4  378966.63  189541.17  50.02
986.6  378915.13  189478.03  50.01
987.7  379594.95  189753.99  49.99
988.9  379859.40  189854.19  49.98
990.0  379859.40  190033.66  50.03
993.1  391412.35  194315.95  49.64
996.9  389675.83  193986.76  49.78
1000.7  389448.27  194317.76  49.90
1004.5  389436.08  194772.43  50.01
1008.4  389012.04  194993.85  50.13
1012.2  388778.67  195317.41  50.24
1016.0  388243.20  195464.80  50.35
1019.8  387311.93  195387.50  50.45
1023.7  385828.81  194927.42  50.52
1027.5  383844.02  194184.65  50.59
1031.3  382483.48  193722.67  50.65
1035.1  381247.94  193281.11  50.70
1038.9  380706.15  193158.90  50.74
1042.7  380377.17  193138.50  50.78
1046.5  380242.17  193200.15  50.81
1050.3  380242.57  193300.12  50.84
1054.2  379873.08  193194.82  50.86
1058.0  379531.13  193061.37  50.87
1061.8  379484.56  193086.35  50.88
1065.6  378840.47  192733.91  50.87
1069.4  377790.40  192209.49  50.88
1073.2  376364.25  191428.07  50.86
1077.0  375612.75  190992.36  50.85
1080.8  375942.71  191077.78  50.83
1084.6  376318.37  191130.49  50.79
1088.4  376784.46  191260.17  50.76
1092.2  376359.75  190918.00  50.73
1096.0  375649.45  190389.66  50.68
1099.8  374943.83  189821.43  50.63
1103.6  373966.47  189106.27  50.57
1107.4  372766.66  188263.18  50.50
1111.2  372454.20  187855.24  50.44
1114.9  371961.92  187316.76  50.36
1118.7  371757.38  186854.25  50.26
1122.5  371458.53  186227.79  50.13
1126.3  370577.49  185156.93  49.96
1130.1  370222.30  184090.67  49.72
1133.9  368531.10  182100.02  49.41
1137.7  366918.90  179888.58  49.03
1141.4  364792.57  177230.16  48.58
1145.2  363796.88  175024.10  48.11
1149.0  362503.75  172775.88  47.66
1152.8  360664.05  170507.93  47.28
1156.6  358800.75  168575.53  46.98
1160.3  356994.33  166980.74  46.77
1164.1  354654.83  165411.35  46.64
1167.9  353050.00  164354.17  46.55
1171.7  351752.63  163511.25  46.48
1175.4  350211.17  162606.50  46.43
1179.2  348727.98  161720.99  46.37
1183.0  348444.33  161343.55  46.30
1186.7  348598.13  161211.71  46.25
1190.5  348418.33  160963.97  46.20
1194.3  347503.90  160460.44  46.18
1198.0  345935.70  159693.84  46.16
1201.8  344204.53  158921.38  46.17
1205.6  343151.67  158551.78  46.20
1209.3  342711.43  158515.11  46.25
1213.1  342356.63  158593.57  46.32
1216.8  341765.33  158636.36  46.42
1220.6  340648.00  158435.20  46.51
1224.3  339368.17  158154.02  46.60
1228.1  337754.00  157760.80  46.71
1231.9  336095.65  157256.42  46.79
1235.6  334294.35  156665.83  46.86
1239.4  332717.00  156139.58  46.93
1243.1  331289.09  155642.54  46.98
1246.9  329978.64  155170.87  47.02
1250.6  328933.20  154768.65  47.05
1254.3  327738.13  154279.20  47.07
1258.1  326454.45  153719.12  47.09
1261.8  324984.80  153035.17  47.09
1265.6  323888.65  152492.54  47.08
1269.3  323301.35  152144.47  47.06
1273.1  323713.03  152224.60  47.02
1276.8  323276.80  151871.29  46.98
1280.6  321883.23  151031.60  46.92
1284.3  319767.20  149790.31  46.84
1288.0  318596.53  148928.86  46.75
1291.8  318336.67  148423.57  46.62
1295.5  317729.87  147684.53  46.48
1299.2  316575.83  146628.88  46.32
1302.9  314898.13  145223.40  46.12
1306.7  313064.27  143653.30  45.89
1310.4  311294.56  141979.23  45.61
1314.1  309659.17  140277.38  45.30
1317.9  308196.88  138524.26  44.95
1321.6  306628.60  136586.59  44.54
1325.3  304926.30  134477.35  44.10
1329.0  303633.98  132462.35  43.63
1332.8  301747.60  130085.51  43.11
1336.5  300127.40  127802.36  42.58
1340.2  300042.17  126186.67  42.06
1343.9  300106.04  124630.60  41.53
1347.6  300456.15  123239.50  41.02
