/*** Spectra Vista SIG Data ***/
name= 42_20220825_ACSA_24_avg.sig
comm= Averaged Ref/Tar of files: HR.082522.0044_moc.sig,HR.082522.0045_moc.sig,HR.082522.0046_moc.sig
data=
337.3  3324.88  275.06  8.27
338.8  3415.10  271.19  7.94
340.3  3607.45  270.39  7.50
341.8  3840.90  259.54  6.76
343.2  4040.40  252.02  6.24
344.7  4179.70  246.15  5.89
346.2  4370.95  250.55  5.73
347.7  4561.70  250.18  5.48
349.2  4762.80  245.52  5.15
350.6  5068.05  243.43  4.80
352.1  5323.03  253.14  4.76
353.6  5586.70  253.81  4.54
355.1  5893.13  245.03  4.16
356.6  6194.48  254.71  4.11
358.0  6507.60  256.42  3.94
359.5  6798.00  267.80  3.94
361.0  7122.15  270.18  3.79
362.5  7465.13  280.48  3.76
364.0  7828.28  280.20  3.58
365.4  8177.10  292.24  3.57
366.9  8591.38  304.66  3.55
368.4  8946.20  307.04  3.43
369.9  9323.63  317.61  3.41
371.3  9772.20  332.10  3.40
372.8  10195.20  341.36  3.35
374.3  10642.50  346.56  3.26
375.8  11076.45  359.85  3.25
377.2  11513.20  369.94  3.21
378.7  11943.60  379.67  3.18
380.2  12347.10  377.62  3.06
381.7  12863.90  382.98  2.98
383.1  13367.20  381.92  2.86
384.6  13892.13  398.20  2.87
386.1  14404.33  412.32  2.86
387.6  14876.40  420.93  2.83
389.0  15383.20  424.72  2.76
390.5  15876.90  436.43  2.75
392.0  16451.90  446.88  2.72
393.4  17026.20  456.93  2.68
394.9  17617.50  465.82  2.64
396.4  18164.25  483.99  2.66
397.9  18757.50  491.02  2.62
399.3  19348.30  506.02  2.62
400.8  19915.08  512.74  2.57
402.2  20572.90  528.41  2.57
403.7  21186.00  534.69  2.52
405.2  21828.35  554.67  2.54
406.6  22434.40  561.66  2.50
408.1  23074.60  582.86  2.53
409.6  23684.05  599.97  2.53
411.0  24360.35  608.78  2.50
412.5  25052.48  617.61  2.47
414.0  25713.25  638.42  2.48
415.4  26433.75  656.06  2.48
416.9  27158.48  679.95  2.50
418.4  27863.10  702.89  2.52
419.8  28610.40  723.15  2.53
421.3  29357.78  741.52  2.53
422.7  30154.20  771.23  2.56
424.2  30948.75  795.54  2.57
425.7  31736.10  822.45  2.59
427.1  32552.03  848.22  2.61
428.6  33387.00  873.61  2.62
430.0  34143.75  894.60  2.62
431.5  35043.90  927.91  2.65
432.9  35951.10  956.85  2.66
434.4  36872.55  983.10  2.67
435.9  37744.00  1016.27  2.69
437.3  38610.00  1042.38  2.70
438.8  39489.68  1068.68  2.71
440.2  40384.58  1095.71  2.71
441.7  41392.60  1127.90  2.72
443.1  42333.75  1162.21  2.75
444.6  43321.70  1190.23  2.75
446.0  44309.63  1224.84  2.76
447.5  45302.13  1258.28  2.78
448.9  46272.30  1290.49  2.79
450.4  47319.30  1324.35  2.80
451.8  48230.00  1356.70  2.81
453.3  49175.08  1389.44  2.83
454.7  50236.28  1423.40  2.83
456.2  51127.85  1452.99  2.84
457.6  52130.93  1483.77  2.85
459.1  53140.10  1520.83  2.86
460.5  54128.63  1550.23  2.86
462.0  55222.58  1583.58  2.87
463.4  56307.00  1615.82  2.87
464.8  57331.50  1646.50  2.87
466.3  58344.00  1682.20  2.88
467.7  59340.20  1712.59  2.89
469.2  60438.05  1743.96  2.89
470.6  61468.75  1779.13  2.89
472.0  62549.30  1807.77  2.89
473.5  63590.75  1842.44  2.90
474.9  64666.50  1878.83  2.91
476.4  65851.20  1918.35  2.91
477.8  66961.00  1952.11  2.92
479.2  67990.50  1985.81  2.92
480.7  69132.60  2022.36  2.93
482.1  70313.70  2067.31  2.94
483.6  71556.40  2114.65  2.96
485.0  72693.45  2159.12  2.97
486.4  73928.55  2204.67  2.98
487.9  75070.13  2251.97  3.00
489.3  76275.50  2300.75  3.02
490.7  77365.15  2350.95  3.04
492.2  78630.30  2414.44  3.07
493.6  79769.25  2477.38  3.11
495.0  80934.75  2548.93  3.15
496.5  82150.65  2623.61  3.19
497.9  83309.98  2704.39  3.25
499.3  84513.33  2794.96  3.31
500.7  85805.05  2901.54  3.38
502.2  87001.40  3017.61  3.47
503.6  88315.40  3155.55  3.57
505.0  89438.25  3301.97  3.69
506.5  90777.60  3479.02  3.83
507.9  92003.95  3671.23  3.99
509.3  93402.80  3896.77  4.17
510.7  94667.63  4148.21  4.38
512.2  96114.00  4438.17  4.62
513.6  97637.40  4771.03  4.89
515.0  99119.80  5139.42  5.19
516.4  100543.28  5543.37  5.51
517.8  102222.63  6000.03  5.87
519.3  103592.00  6470.75  6.25
520.7  105206.40  6989.14  6.64
522.1  106531.43  7512.43  7.05
523.5  107919.60  8051.14  7.46
524.9  109354.05  8592.93  7.86
526.3  110767.65  9120.59  8.23
527.8  112340.25  9655.33  8.59
529.2  113612.50  10149.03  8.93
530.6  115209.85  10655.84  9.25
532.0  116984.00  11142.40  9.52
533.4  118346.85  11562.80  9.77
534.8  119276.28  11901.49  9.98
536.3  120989.10  12286.94  10.16
537.7  123026.40  12677.76  10.30
539.1  124544.13  12992.90  10.43
540.5  125802.00  13269.92  10.55
541.9  127652.78  13600.01  10.65
543.3  128980.23  13871.70  10.75
544.7  130370.40  14154.46  10.86
546.1  132210.65  14483.33  10.95
547.5  133470.40  14736.64  11.04
549.0  135289.00  15039.62  11.12
550.4  136818.13  15298.58  11.18
551.8  138403.75  15533.50  11.22
553.2  139977.43  15732.05  11.24
554.6  141367.20  15866.64  11.22
556.0  142943.85  15971.92  11.17
557.4  144601.63  16042.30  11.09
558.8  146297.25  16074.24  10.99
560.2  147812.63  16050.62  10.86
561.6  149536.20  16011.41  10.71
563.0  151196.15  15922.60  10.53
564.4  152827.30  15807.52  10.34
565.8  154402.50  15650.12  10.14
567.2  156208.25  15484.71  9.91
568.6  157763.63  15262.70  9.67
570.0  159247.25  15001.88  9.42
571.4  161031.65  14747.65  9.16
572.8  162847.75  14501.28  8.90
574.2  164528.00  14248.11  8.66
575.6  166140.00  14007.21  8.43
577.0  167703.30  13786.22  8.22
578.4  169498.88  13604.50  8.03
579.8  171069.30  13424.66  7.85
581.2  172849.48  13285.90  7.69
582.5  174306.60  13142.55  7.54
583.9  175867.20  13024.05  7.41
585.3  177730.20  12941.69  7.28
586.7  179256.68  12853.24  7.17
588.1  180795.88  12782.98  7.07
589.5  182500.50  12738.60  6.98
590.9  184177.20  12715.08  6.90
592.3  186041.20  12716.86  6.84
593.7  187539.30  12719.91  6.78
595.0  189220.05  12745.85  6.74
596.4  190701.70  12765.00  6.69
597.8  192228.65  12786.85  6.65
599.2  193815.60  12805.51  6.61
600.6  195611.00  12828.29  6.56
602.0  196958.18  12805.92  6.50
603.3  198805.60  12791.20  6.43
604.7  200516.53  12746.66  6.36
606.1  202059.60  12662.88  6.27
607.5  203736.68  12565.39  6.17
608.9  205481.25  12451.24  6.06
610.2  206898.30  12310.65  5.95
611.6  208543.35  12173.79  5.84
613.0  210146.35  12029.56  5.72
614.4  211571.55  11874.46  5.61
615.8  213071.63  11732.04  5.51
617.1  214649.40  11610.20  5.41
618.5  216331.60  11520.60  5.33
619.9  217890.08  11443.92  5.25
621.3  219567.38  11393.54  5.19
622.6  221231.75  11366.62  5.14
624.0  222758.10  11355.90  5.10
625.4  224293.58  11367.51  5.07
626.8  225943.90  11401.39  5.05
628.1  227296.03  11432.91  5.03
629.5  229185.23  11496.68  5.02
630.9  230790.45  11537.37  5.00
632.2  232150.10  11556.26  4.98
633.6  233773.38  11560.52  4.95
635.0  235330.40  11522.03  4.90
636.3  236923.50  11435.46  4.83
637.7  238350.25  11305.66  4.74
639.1  240082.50  11144.33  4.64
640.4  241617.25  10952.10  4.53
641.8  242865.63  10732.35  4.42
643.2  244491.10  10525.91  4.31
644.5  245900.50  10308.30  4.19
645.9  247635.90  10119.39  4.09
647.2  249386.55  9956.79  3.99
648.6  251262.00  9835.71  3.91
650.0  252784.80  9734.40  3.85
651.3  253357.50  9623.45  3.80
652.7  254610.30  9544.02  3.75
654.0  256731.90  9492.38  3.70
655.4  258291.28  9437.53  3.65
656.8  258598.40  9330.35  3.61
658.1  259801.50  9238.68  3.56
659.5  262208.63  9162.44  3.49
660.8  263970.00  9057.43  3.43
662.2  264880.00  8926.72  3.37
663.5  266597.40  8832.15  3.31
664.9  267940.40  8749.07  3.27
666.2  268775.40  8679.57  3.23
667.6  270623.65  8664.65  3.20
668.9  271786.65  8667.62  3.19
670.3  272975.00  8686.19  3.18
671.6  274615.50  8745.91  3.18
673.0  275810.25  8830.19  3.20
674.3  277134.00  8933.45  3.22
675.7  278498.20  9065.89  3.26
677.0  279695.48  9217.36  3.30
678.4  281127.10  9400.27  3.34
679.7  282272.40  9596.61  3.40
681.1  283619.60  9838.72  3.47
682.4  284780.60  10109.17  3.55
683.8  286062.40  10433.30  3.65
685.1  287116.13  10824.81  3.77
686.4  288489.00  11324.96  3.93
687.8  289806.25  11958.21  4.13
689.1  290874.25  12787.60  4.40
690.5  292338.00  13914.05  4.76
691.8  293186.38  15400.73  5.25
693.1  294585.90  17365.86  5.90
694.5  295750.00  19813.73  6.70
695.8  297024.00  22749.57  7.66
697.1  298275.25  26165.53  8.77
698.5  299367.60  30008.10  10.02
699.8  300534.45  34227.59  11.39
701.1  301736.23  38730.63  12.84
702.5  302575.90  43363.44  14.33
703.8  303592.50  48100.29  15.84
705.1  304823.03  52868.33  17.34
706.5  305933.38  57584.30  18.82
707.8  306977.25  62223.68  20.27
709.1  307906.40  66740.69  21.68
710.5  309134.28  71226.96  23.04
711.8  310036.90  75557.92  24.37
713.1  311107.30  79840.80  25.66
714.4  312066.20  83993.27  26.92
715.8  312958.20  88055.69  28.14
717.1  314330.40  92161.18  29.32
718.4  315347.20  96067.41  30.46
719.7  316537.90  99921.71  31.57
721.0  317115.00  103488.43  32.63
722.4  317932.45  107008.98  33.66
723.7  318957.30  110469.01  34.63
725.0  320058.90  113844.89  35.57
726.3  321079.28  117040.51  36.45
727.6  321649.90  119960.37  37.30
729.0  322623.53  122869.70  38.08
730.3  323455.20  125585.37  38.83
731.6  324424.10  128206.90  39.52
732.9  325291.40  130654.32  40.17
734.2  326174.75  132974.81  40.77
735.5  327279.80  135253.96  41.33
736.8  328126.50  137298.84  41.84
738.1  329031.30  139239.58  42.32
739.5  330085.45  141101.42  42.75
740.8  330853.05  142730.74  43.14
742.1  331638.15  144260.81  43.50
743.4  332350.00  145682.38  43.83
744.7  333342.18  147122.70  44.14
746.0  334265.10  148436.08  44.41
747.3  334862.48  149510.38  44.65
748.6  335677.00  150567.85  44.85
749.9  336440.00  151535.92  45.04
751.2  337151.95  152416.15  45.21
752.5  338041.05  153315.71  45.35
753.8  338636.03  154052.59  45.49
755.1  339404.00  154790.63  45.61
756.4  340090.68  155420.05  45.70
757.7  341191.38  156210.61  45.78
759.0  343101.68  157340.51  45.86
760.3  344388.00  158146.56  45.92
761.6  346039.40  159116.64  45.98
762.9  346626.50  159552.29  46.03
764.2  347063.80  159884.89  46.07
765.5  347379.35  160155.30  46.10
766.8  347888.00  160473.26  46.13
768.1  348473.20  160824.95  46.15
769.3  349108.90  161195.29  46.17
770.6  349850.15  161580.81  46.19
771.9  350609.70  161990.15  46.20
773.2  351052.40  162245.68  46.22
774.5  351722.80  162592.91  46.23
775.8  352489.30  162977.77  46.24
777.1  353123.10  163295.52  46.24
778.4  353482.53  163500.99  46.25
779.6  354322.00  163904.22  46.26
780.9  354840.00  164172.57  46.27
782.2  355377.00  164434.97  46.27
783.5  355752.00  164641.32  46.28
784.8  356337.00  164929.60  46.28
786.0  356792.10  165154.93  46.29
787.3  357209.78  165382.24  46.30
788.6  357681.18  165622.15  46.30
789.9  358225.00  165890.11  46.31
791.2  358911.35  166228.05  46.31
792.4  359691.30  166584.05  46.31
793.7  360185.60  166844.77  46.32
795.0  360878.93  167177.32  46.33
796.2  361621.35  167523.23  46.33
797.5  362390.10  167901.00  46.33
798.8  363169.75  168255.40  46.33
800.0  363885.00  168600.73  46.33
801.3  364393.40  168854.48  46.34
802.6  365062.95  169162.56  46.34
803.8  365764.83  169505.96  46.34
805.1  366317.00  169768.30  46.34
806.4  366826.80  170010.91  46.35
807.7  367397.78  170286.69  46.35
808.9  368038.55  170569.84  46.35
810.2  368645.55  170861.27  46.35
811.4  369160.60  171122.36  46.35
812.7  369890.63  171446.79  46.35
814.0  370761.50  171871.40  46.36
815.2  371449.75  172204.04  46.36
816.5  371893.18  172424.02  46.36
817.7  372452.20  172674.89  46.36
819.0  373018.25  172935.14  46.36
820.2  373208.00  173031.47  46.36
821.5  373988.40  173396.79  46.36
822.7  374378.98  173586.07  46.37
824.0  374727.60  173759.91  46.37
825.2  375301.35  174005.09  46.36
826.5  375599.88  174182.71  46.37
827.7  376227.85  174463.39  46.37
829.0  376692.98  174666.60  46.37
830.2  377056.25  174824.12  46.37
831.5  377579.35  175077.95  46.37
832.7  377914.43  175222.74  46.37
834.0  378316.65  175399.97  46.36
835.2  378757.78  175602.58  46.36
836.4  379051.75  175765.39  46.37
837.7  379508.40  176000.30  46.38
838.9  379962.43  176212.72  46.38
840.1  380353.73  176407.25  46.38
841.4  380831.70  176629.52  46.38
842.6  381248.80  176840.48  46.38
843.8  381661.80  177038.97  46.39
845.1  382154.65  177310.67  46.40
846.3  382656.70  177515.94  46.39
847.5  383061.00  177708.52  46.39
848.8  383530.80  177929.85  46.39
850.0  383919.20  178149.15  46.40
851.2  384507.00  178418.98  46.40
852.5  384899.80  178621.73  46.41
853.7  385497.00  178875.73  46.40
854.9  385957.90  179108.34  46.41
856.1  386435.40  179339.28  46.41
857.4  386670.33  179475.29  46.42
858.6  387186.00  179710.01  46.41
859.8  387598.13  179913.82  46.42
861.0  388135.80  180147.91  46.41
862.2  388709.18  180377.52  46.40
863.5  389147.85  180566.68  46.40
864.7  389716.80  180834.85  46.40
865.9  390047.60  181035.16  46.41
867.1  390399.75  181195.76  46.41
868.3  390941.55  181402.18  46.40
869.5  391488.75  181652.22  46.40
870.8  392139.00  181947.60  46.40
872.0  392733.68  182201.27  46.39
873.2  393250.80  182397.63  46.38
874.4  393690.38  182627.81  46.39
875.6  394168.28  182819.99  46.38
876.8  394701.10  183053.99  46.38
878.0  395267.65  183319.02  46.38
879.2  395893.50  183564.86  46.37
880.4  396382.50  183814.12  46.37
881.6  396995.05  184044.87  46.36
882.8  397440.80  184243.81  46.36
884.0  398158.43  184523.48  46.34
885.2  398684.20  184776.38  46.35
886.5  399380.75  185073.70  46.34
887.7  399891.05  185302.32  46.34
888.8  400697.25  185630.75  46.33
890.0  401325.45  185893.18  46.32
891.2  401973.00  186170.30  46.31
892.4  402620.93  186460.77  46.31
893.6  403321.10  186729.97  46.30
894.8  404294.00  187162.39  46.29
896.0  405337.00  187548.47  46.27
897.2  406224.00  187959.20  46.27
898.4  407154.00  188321.63  46.25
899.6  407709.38  188627.11  46.27
900.8  408100.18  188766.98  46.26
902.0  408335.10  188875.74  46.26
903.2  408922.20  189021.61  46.22
904.3  409241.70  189202.13  46.23
905.5  410102.48  189512.92  46.21
906.7  410643.00  189780.65  46.22
907.9  411085.50  190010.66  46.22
909.1  411631.88  190154.19  46.20
910.2  411882.15  190233.41  46.19
911.4  412302.15  190347.24  46.17
912.6  412540.70  190456.12  46.17
913.8  412803.75  190531.67  46.16
915.0  413209.65  190687.98  46.15
916.2  413585.25  190784.10  46.13
917.3  413561.03  190786.60  46.13
918.5  413978.20  190909.98  46.12
919.7  414250.95  191010.60  46.11
920.8  414372.88  191016.30  46.10
922.0  414625.75  191011.33  46.07
923.2  414960.00  191058.40  46.04
924.4  415263.38  191147.27  46.03
925.5  415568.60  191286.36  46.03
926.7  416304.50  191533.70  46.01
927.9  417171.00  191915.87  46.00
929.0  418788.90  192536.67  45.97
930.2  421180.60  193508.92  45.94
931.4  423820.35  194610.34  45.92
932.5  426755.30  195815.72  45.88
933.7  428265.60  196461.38  45.87
934.9  428968.75  196676.58  45.85
936.0  428530.38  196387.29  45.83
937.2  426530.10  195271.97  45.78
938.3  424895.30  194374.76  45.75
939.5  423338.40  193580.91  45.73
940.7  423561.60  193582.32  45.70
941.8  425405.63  194247.27  45.66
943.0  426973.50  194798.66  45.62
944.2  427948.95  195063.24  45.58
945.3  427557.00  194724.21  45.54
946.5  426716.10  194208.81  45.51
947.6  426977.30  194158.03  45.47
948.8  426855.00  193925.22  45.43
949.9  427173.60  193760.32  45.36
951.1  426917.73  193378.67  45.30
952.2  426768.00  193104.46  45.25
953.4  426727.75  192710.92  45.16
954.5  426675.60  192464.33  45.11
955.7  426686.40  192151.68  45.03
956.8  426430.30  191785.20  44.97
958.0  426166.00  191426.63  44.92
959.1  426168.80  191156.83  44.85
960.3  425683.73  190844.21  44.83
961.4  425708.25  190673.51  44.79
962.6  426035.75  190626.37  44.74
963.7  425884.20  190395.56  44.71
964.9  425738.40  190276.95  44.69
966.0  425881.80  190108.66  44.64
967.2  425809.80  190157.81  44.66
968.3  425748.15  190084.55  44.65
969.5  425792.73  189945.92  44.61
970.6  425869.38  189876.56  44.59
971.8  426081.78  190023.66  44.60
972.9  426187.13  189856.59  44.55
974.0  426603.10  190033.84  44.55
975.2  426406.25  190100.84  44.58
976.3  426286.23  190066.05  44.59
977.5  426203.23  190059.95  44.59
978.6  426506.60  190142.76  44.58
979.7  426848.63  190220.17  44.56
980.9  426575.05  190204.46  44.59
982.0  426675.55  190270.46  44.59
983.2  426111.45  190073.83  44.61
984.3  425795.40  189988.18  44.62
985.4  425831.20  190059.13  44.63
986.6  426202.75  190062.91  44.59
987.7  427207.38  190437.28  44.58
988.9  426738.60  190510.77  44.64
990.0  427159.90  190837.59  44.68
993.1  371739.43  164195.79  44.17
996.9  372760.53  165112.34  44.29
1000.7  373998.98  166113.67  44.42
1004.5  374694.75  166802.46  44.52
1008.4  374567.63  167149.96  44.62
1012.2  374636.08  167602.50  44.74
1016.0  374752.80  168029.31  44.84
1019.8  375063.15  168531.83  44.93
1023.7  375281.03  168927.14  45.01
1027.5  375267.90  169189.92  45.09
1031.3  375790.10  169614.54  45.14
1035.1  375862.61  169811.10  45.18
1038.9  375947.73  169999.71  45.22
1042.7  375871.25  170080.99  45.25
1046.5  375738.83  170111.12  45.27
1050.3  375831.40  170226.02  45.29
1054.2  375606.58  170191.83  45.31
1058.0  375124.34  169980.59  45.31
1061.8  374985.81  169962.77  45.33
1065.6  374816.00  169868.53  45.32
1069.4  374984.73  169922.14  45.31
1073.2  374792.36  169789.72  45.30
1077.0  374381.73  169542.60  45.29
1080.8  373767.71  169153.72  45.26
1084.6  372511.07  168453.60  45.22
1088.4  371672.98  167986.90  45.20
1092.2  370773.00  167427.00  45.16
1096.0  370217.82  167018.60  45.11
1099.8  369806.45  166622.33  45.06
1103.6  369203.63  166146.84  45.00
1107.4  368353.08  165526.91  44.94
1111.2  368188.40  165214.67  44.87
1114.9  367547.83  164644.92  44.80
1118.7  366938.55  164015.07  44.70
1122.5  366219.53  163241.87  44.57
1126.3  365085.88  162212.15  44.43
1130.1  364574.48  161283.24  44.24
1133.9  362988.50  159621.70  43.97
1137.7  361573.30  157831.04  43.65
1141.4  359794.72  155661.75  43.26
1145.2  359136.03  153786.57  42.82
1149.0  358041.25  151792.29  42.40
1152.8  356416.90  149730.45  42.01
1156.6  354753.12  147972.00  41.71
1160.3  353003.67  146504.05  41.50
1164.1  350535.17  144998.42  41.36
1167.9  348713.54  143969.05  41.29
1171.7  347405.63  143289.00  41.25
1175.4  346250.93  142745.82  41.23
1179.2  345261.08  142249.98  41.20
1183.0  344989.00  142033.81  41.17
1186.7  344379.70  141672.70  41.14
1190.5  343206.60  141072.45  41.10
1194.3  341929.83  140473.72  41.08
1198.0  340754.43  139953.12  41.07
1201.8  339294.08  139375.05  41.08
1205.6  338059.67  138961.19  41.11
1209.3  337075.17  138733.31  41.16
1213.1  336070.88  138493.96  41.21
1216.8  335068.98  138308.10  41.28
1220.6  333995.20  138072.00  41.34
1224.3  332760.75  137768.80  41.40
1228.1  331546.00  137490.57  41.47
1231.9  330331.08  137181.12  41.53
1235.6  328872.75  136739.42  41.58
1239.4  327520.63  136358.95  41.63
1243.1  326304.95  135964.34  41.67
1246.9  325085.08  135546.11  41.70
1250.6  324091.20  135201.96  41.72
1254.3  323014.45  134800.39  41.73
1258.1  322015.05  134405.10  41.74
1261.8  320740.40  133869.52  41.74
1265.6  319231.97  133210.11  41.73
1269.3  317665.33  132479.23  41.70
1273.1  317551.33  132301.98  41.66
1276.8  317946.80  132291.77  41.61
1280.6  317987.97  132130.44  41.55
1284.3  316749.60  131401.48  41.48
1288.0  315218.27  130506.43  41.40
1291.8  313756.52  129536.57  41.29
1295.5  312228.40  128499.70  41.16
1299.2  310944.28  127505.29  41.01
1302.9  309560.08  126378.44  40.83
1306.7  308036.87  125133.05  40.62
1310.4  306579.61  123781.74  40.38
1314.1  305231.12  122400.69  40.10
1317.9  304014.58  120949.70  39.78
1321.6  302633.19  119313.18  39.43
1325.3  300998.25  117458.70  39.02
1329.0  299629.75  115648.98  38.60
1332.8  297481.80  113425.40  38.13
1336.5  295654.27  111291.82  37.64
1340.2  295310.17  109720.00  37.15
1343.9  294950.42  108144.29  36.67
1347.6  294446.10  106540.99  36.18
