/*** Spectra Vista SIG Data ***/
name= 42_20221021_ACRU_27_avg.sig
comm= Averaged Ref/Tar of files: HR.102122.0042_moc.sig,HR.102122.0043_moc.sig,HR.102122.0044_moc.sig
data=
337.3  6417.60  506.15  7.89
338.8  6637.80  485.58  7.32
340.3  6900.33  468.12  6.78
341.8  7167.28  461.40  6.44
343.2  7638.95  448.35  5.87
344.7  7986.38  464.54  5.82
346.2  8307.25  466.87  5.62
347.7  8706.50  459.82  5.28
349.2  8996.40  429.12  4.77
350.6  9496.50  441.08  4.64
352.1  9975.75  433.93  4.35
353.6  10526.40  462.60  4.39
355.1  11043.15  477.71  4.33
356.6  11648.43  473.50  4.06
358.0  12158.40  480.06  3.95
359.5  12682.80  476.19  3.75
361.0  13342.50  484.57  3.63
362.5  14015.03  510.84  3.64
364.0  14652.93  521.57  3.56
365.4  15380.35  530.07  3.45
366.9  15981.63  551.04  3.45
368.4  16676.40  575.22  3.45
369.9  17384.00  594.61  3.42
371.3  18226.18  639.30  3.51
372.8  19013.70  656.05  3.45
374.3  19830.20  671.28  3.39
375.8  20654.58  681.19  3.30
377.2  21428.55  690.97  3.22
378.7  22228.85  698.32  3.14
380.2  22988.10  723.09  3.15
381.7  23948.50  730.46  3.05
383.1  24886.20  742.17  2.98
384.6  25761.75  759.08  2.95
386.1  26678.85  780.33  2.92
387.6  27549.30  795.13  2.89
389.0  28519.20  809.84  2.84
390.5  29550.20  836.36  2.83
392.0  30584.25  857.57  2.80
393.4  31647.00  883.65  2.79
394.9  32576.00  896.81  2.75
396.4  33699.60  928.15  2.75
397.9  34719.30  941.88  2.71
399.3  35711.30  963.01  2.70
400.8  36895.65  983.70  2.67
402.2  38040.75  1012.60  2.66
403.7  39203.25  1044.53  2.66
405.2  40337.50  1073.91  2.66
406.6  41540.10  1104.46  2.66
408.1  42572.18  1115.30  2.62
409.6  43758.83  1138.22  2.60
411.0  44971.58  1180.10  2.62
412.5  46267.55  1213.41  2.62
414.0  47630.28  1259.09  2.64
415.4  48916.80  1291.47  2.64
416.9  50170.93  1328.74  2.65
418.4  51436.20  1355.44  2.64
419.8  52777.55  1389.76  2.63
421.3  54192.60  1436.16  2.65
422.7  55668.60  1488.49  2.67
424.2  57126.83  1551.97  2.72
425.7  58537.88  1592.09  2.72
427.1  59987.80  1630.90  2.72
428.6  61431.15  1672.82  2.72
430.0  62969.50  1715.62  2.72
431.5  64589.53  1765.25  2.73
432.9  66227.25  1821.95  2.75
434.4  67898.53  1875.79  2.76
435.9  69511.50  1924.36  2.77
437.3  71168.63  1975.32  2.78
438.8  72781.75  2023.43  2.78
440.2  74444.13  2078.05  2.79
441.7  76271.35  2140.17  2.81
443.1  78078.60  2202.48  2.82
444.6  79824.40  2257.54  2.83
446.0  81619.13  2306.90  2.83
447.5  83525.00  2370.48  2.84
448.9  85243.50  2429.83  2.85
450.4  87100.00  2495.24  2.86
451.8  88892.25  2567.06  2.89
453.3  90686.70  2622.34  2.89
454.7  92470.73  2676.16  2.89
456.2  94228.40  2731.17  2.90
457.6  96110.55  2797.56  2.91
459.1  97935.08  2853.76  2.91
460.5  99761.98  2910.60  2.92
462.0  101763.90  2974.90  2.92
463.4  103718.13  3036.11  2.93
464.8  105627.38  3095.70  2.93
466.3  107541.90  3163.39  2.94
467.7  109561.60  3230.84  2.95
469.2  111396.45  3281.79  2.95
470.6  113382.50  3340.77  2.95
472.0  115412.23  3395.06  2.94
473.5  117391.60  3465.74  2.95
474.9  119539.45  3540.57  2.96
476.4  121597.20  3609.23  2.97
477.8  123676.00  3675.73  2.97
479.2  125692.13  3734.00  2.97
480.7  127817.78  3803.53  2.98
482.1  129990.88  3872.80  2.98
483.6  132134.40  3959.14  3.00
485.0  134363.93  4035.86  3.00
486.4  136416.43  4113.92  3.02
487.9  138651.00  4191.22  3.02
489.3  140760.60  4271.33  3.03
490.7  142932.80  4372.09  3.06
492.2  145138.13  4489.20  3.09
493.6  147358.10  4607.24  3.13
495.0  149631.30  4736.74  3.17
496.5  151785.90  4869.18  3.21
497.9  154076.25  5014.00  3.25
499.3  156289.50  5177.76  3.31
500.7  158564.90  5359.21  3.38
502.2  160910.73  5575.65  3.47
503.6  163193.40  5820.48  3.57
505.0  165418.00  6093.38  3.68
506.5  167845.45  6404.99  3.82
507.9  170272.15  6754.74  3.97
509.3  172564.43  7149.19  4.14
510.7  175163.63  7606.78  4.34
512.2  177781.13  8123.41  4.57
513.6  180600.65  8705.65  4.82
515.0  183313.20  9349.87  5.10
516.4  186155.60  10051.36  5.40
517.8  188897.00  10812.28  5.72
519.3  191787.20  11631.76  6.06
520.7  194442.50  12493.87  6.43
522.1  197052.38  13385.25  6.79
523.5  199631.65  14299.51  7.16
524.9  202502.93  15223.14  7.52
526.3  205127.10  16109.49  7.85
527.8  207903.38  16999.98  8.18
529.2  210441.60  17877.39  8.50
530.6  213128.10  18742.42  8.79
532.0  215934.88  19576.14  9.07
533.4  218457.10  20340.72  9.31
534.8  220942.43  21060.65  9.53
536.3  223876.35  21770.68  9.72
537.7  226834.50  22439.33  9.89
539.1  229681.73  23085.10  10.05
540.5  232500.00  23736.26  10.21
541.9  235434.53  24393.98  10.36
543.3  237963.30  25005.73  10.51
544.7  240966.00  25670.02  10.65
546.1  243734.40  26314.87  10.80
547.5  246607.20  26958.86  10.93
549.0  249545.20  27608.86  11.06
550.4  252436.28  28242.63  11.19
551.8  255424.45  28848.04  11.29
553.2  258280.35  29386.33  11.38
554.6  261131.20  29854.26  11.43
556.0  264018.30  30266.24  11.46
557.4  267117.70  30633.11  11.47
558.8  269963.83  30938.02  11.46
560.2  273120.00  31219.05  11.43
561.6  276051.33  31419.86  11.38
563.0  278835.70  31544.15  11.31
564.4  282007.60  31677.67  11.23
565.8  285011.65  31747.36  11.14
567.2  288168.15  31781.61  11.03
568.6  291171.38  31747.01  10.90
570.0  294017.75  31626.34  10.76
571.4  297381.95  31504.02  10.59
572.8  300520.20  31343.05  10.43
574.2  303351.83  31161.23  10.27
575.6  306404.63  31024.67  10.13
577.0  309407.45  30913.23  9.99
578.4  312790.63  30872.92  9.87
579.8  315827.03  30833.94  9.76
581.2  318887.00  30825.36  9.67
582.5  321772.50  30822.86  9.58
583.9  324814.30  30854.27  9.50
585.3  327676.10  30894.94  9.43
586.7  330630.30  30971.16  9.37
588.1  333609.40  31080.42  9.32
589.5  336929.85  31244.79  9.27
590.9  339863.63  31407.25  9.24
592.3  342755.78  31594.65  9.22
593.7  345706.90  31819.88  9.20
595.0  348606.60  32049.82  9.19
596.4  351906.63  32329.92  9.19
597.8  354562.60  32521.95  9.17
599.2  357637.80  32732.89  9.15
600.6  360812.10  32891.89  9.12
602.0  363728.40  32982.72  9.07
603.3  366600.00  32992.27  9.00
604.7  369588.93  32936.60  8.91
606.1  372582.68  32801.26  8.80
607.5  375887.13  32620.28  8.68
608.9  378917.00  32363.10  8.54
610.2  382075.65  32071.05  8.39
611.6  384972.50  31729.24  8.24
613.0  387761.85  31375.19  8.09
614.4  390531.13  31021.75  7.94
615.8  393737.20  30717.31  7.80
617.1  396448.35  30408.27  7.67
618.5  399655.50  30196.55  7.56
619.9  402360.60  30002.83  7.46
621.3  405268.18  29898.53  7.38
622.6  408183.75  29847.26  7.31
624.0  410869.13  29847.33  7.26
625.4  413922.23  29936.94  7.23
626.8  416854.75  30061.20  7.21
628.1  419621.65  30228.55  7.20
629.5  422322.78  30411.02  7.20
630.9  425151.60  30608.64  7.20
632.2  428165.80  30770.66  7.19
633.6  430565.53  30824.86  7.16
635.0  433456.38  30791.74  7.10
636.3  436417.13  30630.32  7.02
637.7  439090.20  30290.20  6.90
639.1  442021.25  29840.33  6.75
640.4  444744.88  29249.93  6.58
641.8  447507.00  28569.70  6.38
643.2  450082.85  27811.10  6.18
644.5  452935.00  27038.67  5.97
645.9  455520.10  26246.53  5.76
647.2  457809.28  25532.14  5.58
648.6  460439.60  24927.34  5.41
650.0  463183.20  24429.15  5.27
651.3  466037.80  24013.93  5.15
652.7  469935.00  23681.76  5.04
654.0  472659.15  23308.15  4.93
655.4  474880.35  22902.19  4.82
656.8  476579.78  22453.99  4.71
658.1  479150.70  21974.25  4.59
659.5  482284.80  21443.66  4.45
660.8  485130.45  20863.26  4.30
662.2  487842.63  20276.95  4.16
663.5  490645.13  19738.53  4.02
664.9  492536.03  19230.87  3.90
666.2  494764.08  18810.85  3.80
667.6  497310.75  18503.83  3.72
668.9  499910.40  18308.57  3.66
670.3  502838.00  18190.43  3.62
671.6  504984.00  18144.78  3.59
673.0  507273.60  18202.93  3.59
674.3  509639.90  18323.43  3.60
675.7  512083.80  18511.29  3.61
677.0  514384.95  18758.36  3.65
678.4  516528.00  19072.79  3.69
679.7  518903.03  19484.63  3.75
681.1  521401.68  20026.58  3.84
682.4  523543.13  20717.74  3.96
683.8  525873.75  21637.08  4.11
685.1  528035.55  22891.47  4.34
686.4  530271.63  24567.80  4.63
687.8  532669.35  26847.05  5.04
689.1  535116.40  29916.84  5.59
690.5  537124.75  33969.03  6.32
691.8  539730.68  39264.58  7.27
693.1  542227.50  45818.34  8.45
694.5  544545.70  53597.01  9.84
695.8  546905.50  62384.46  11.41
697.1  549134.20  72017.60  13.11
698.5  551463.63  82329.10  14.93
699.8  553807.20  93080.60  16.81
701.1  555711.98  103947.54  18.71
702.5  557759.13  114820.65  20.59
703.8  560148.93  125564.93  22.42
705.1  561942.45  135833.73  24.17
706.5  564153.28  145800.26  25.84
707.8  565993.88  155237.48  27.43
709.1  568274.20  164322.72  28.92
710.5  570468.48  173001.48  30.33
711.8  572330.00  181184.80  31.66
713.1  574222.00  189031.28  32.92
714.4  576276.85  196560.33  34.11
715.8  578540.33  203857.98  35.24
717.1  580755.85  210831.72  36.30
718.4  583000.80  217505.92  37.31
719.7  585151.88  223873.66  38.26
721.0  586891.10  229783.81  39.15
722.4  588707.55  235483.85  40.00
723.7  590615.65  240943.64  40.80
725.0  592299.28  246060.65  41.54
726.3  594578.40  251143.56  42.24
727.6  596224.50  255740.56  42.89
729.0  598074.75  260121.40  43.49
730.3  599985.25  264330.49  44.06
731.6  601525.30  268094.91  44.57
732.9  603447.65  271826.15  45.05
734.2  604984.88  275202.40  45.49
735.5  606734.15  278467.61  45.90
736.8  608726.65  281633.55  46.27
738.1  610488.75  284512.74  46.60
739.5  612228.00  287198.07  46.91
740.8  614098.10  289779.78  47.19
742.1  615628.33  292096.50  47.45
743.4  617368.50  294366.79  47.68
744.7  619213.00  296578.80  47.90
746.0  620656.48  298466.98  48.09
747.3  622293.70  300239.12  48.25
748.6  623866.00  301909.69  48.39
749.9  625582.88  303587.65  48.53
751.2  626941.53  304966.43  48.64
752.5  628368.83  306383.05  48.76
753.8  629624.70  307613.44  48.86
755.1  631120.45  308892.06  48.94
756.4  632221.30  309909.00  49.02
757.7  634156.88  311282.32  49.09
759.0  637691.68  313373.28  49.14
760.3  640302.55  314970.50  49.19
761.6  643091.13  316596.12  49.23
762.9  644451.50  317494.89  49.27
764.2  645208.90  318070.64  49.30
765.5  646049.75  318643.42  49.32
766.8  646516.60  319052.87  49.35
768.1  647633.70  319694.52  49.36
769.3  648870.25  320409.43  49.38
770.6  650171.05  321179.61  49.40
771.9  651316.95  321822.63  49.41
773.2  652672.80  322564.71  49.42
774.5  653551.95  323058.50  49.43
775.8  654586.43  323625.86  49.44
777.1  655730.48  324247.41  49.45
778.4  656982.63  324917.19  49.46
779.6  658242.00  325579.67  49.46
780.9  658894.50  325970.73  49.47
782.2  659766.50  326471.89  49.48
783.5  660655.75  326946.31  49.49
784.8  661408.13  327345.20  49.49
786.0  662182.28  327770.51  49.50
787.3  663006.25  328175.61  49.50
788.6  663857.13  328656.85  49.51
789.9  664569.20  329038.26  49.51
791.2  665827.80  329701.94  49.52
792.4  666930.00  330260.83  49.52
793.7  668486.05  331016.07  49.52
795.0  669471.50  331546.53  49.52
796.2  670761.35  332210.88  49.53
797.5  671916.88  332810.74  49.53
798.8  673277.50  333507.72  49.53
800.0  674310.00  334052.00  49.54
801.3  675509.63  334642.05  49.54
802.6  676584.00  335166.17  49.54
803.8  677572.88  335728.09  49.55
805.1  678541.88  336225.53  49.55
806.4  679485.83  336709.65  49.55
807.7  680552.88  337260.28  49.56
808.9  681684.70  337836.74  49.56
810.2  682594.50  338254.00  49.55
811.4  683590.00  338794.97  49.56
812.7  684873.45  339455.28  49.56
814.0  686093.10  340072.04  49.57
815.2  687496.95  340777.87  49.57
816.5  688607.50  341339.75  49.57
817.7  689417.75  341751.70  49.57
819.0  690117.40  342092.88  49.57
820.2  690928.65  342510.50  49.57
821.5  691951.80  343067.21  49.58
822.7  692914.43  343603.84  49.59
824.0  693797.65  344025.26  49.59
825.2  694523.70  344359.60  49.58
826.5  695269.60  344713.92  49.58
827.7  696271.15  345234.11  49.58
829.0  697278.83  345708.22  49.58
830.2  698163.20  346185.57  49.59
831.5  699030.68  346619.35  49.59
832.7  700041.60  347056.17  49.58
834.0  700632.45  347366.22  49.58
835.2  701654.80  347882.64  49.58
836.4  702420.40  348276.12  49.58
837.7  703237.50  348662.89  49.58
838.9  704486.60  349277.67  49.58
840.1  705419.55  349708.61  49.57
841.4  706254.70  350207.02  49.59
842.6  707191.80  350660.81  49.58
843.8  707968.30  351044.82  49.58
845.1  708757.50  351525.87  49.60
846.3  709882.95  351965.62  49.58
847.5  710677.50  352453.90  49.59
848.8  711551.50  352919.78  49.60
850.0  712716.60  353490.27  49.60
851.2  713742.90  353916.77  49.59
852.5  714937.50  354502.48  49.59
853.7  715662.68  354870.36  49.59
854.9  716745.90  355402.84  49.59
856.1  717734.05  355930.75  49.59
857.4  718641.30  356404.58  49.59
858.6  719604.20  356882.40  49.59
859.8  720825.00  357424.59  49.59
861.0  721845.25  357911.38  49.58
862.2  722775.90  358383.00  49.58
863.5  723783.03  358840.45  49.58
864.7  724787.50  359317.50  49.58
865.9  725712.00  359837.74  49.58
867.1  726443.75  360173.87  49.58
868.3  727682.45  360749.00  49.58
869.5  728757.00  361253.83  49.57
870.8  729739.80  361819.57  49.58
872.0  730815.20  362254.51  49.57
873.2  731710.78  362698.61  49.57
874.4  732654.00  363094.62  49.56
875.6  733847.55  363592.01  49.55
876.8  735269.70  364301.24  49.55
878.0  736193.15  364714.36  49.54
879.2  737240.70  365262.79  49.54
880.4  738368.00  365734.36  49.53
881.6  739095.80  366204.29  49.55
882.8  740567.75  366812.43  49.53
884.0  741340.60  367192.50  49.53
885.2  742827.75  367786.99  49.51
886.5  744087.05  368375.81  49.51
887.7  745222.63  368813.84  49.49
888.8  746485.30  369497.87  49.50
890.0  747495.00  369873.00  49.48
891.2  748438.28  370353.64  49.48
892.4  749843.33  371009.12  49.48
893.6  751370.28  371800.42  49.48
894.8  753007.20  372484.45  49.47
896.0  754558.35  373137.01  49.45
897.2  756392.18  373990.89  49.44
898.4  758375.10  374897.24  49.43
899.6  759736.80  375501.82  49.43
900.8  760228.95  375702.53  49.42
902.0  760588.50  375885.13  49.42
903.2  760888.10  375882.28  49.40
904.3  761889.38  376305.43  49.39
905.5  762918.75  376871.79  49.40
906.7  764188.05  377446.72  49.39
907.9  765236.35  377933.68  49.39
909.1  766323.25  378376.68  49.38
910.2  766867.50  378450.00  49.35
911.4  766795.05  378397.63  49.35
912.6  767270.00  378609.48  49.35
913.8  768168.10  379085.72  49.35
915.0  768401.40  379192.51  49.35
916.2  768538.05  379236.03  49.35
917.3  769254.98  379473.21  49.33
918.5  769711.95  379531.95  49.31
919.7  769857.50  379416.00  49.28
920.8  769950.18  379496.33  49.29
922.0  769983.50  379443.15  49.28
923.2  770316.60  379609.28  49.28
924.4  770953.88  379798.22  49.26
925.5  771650.00  380140.85  49.26
926.7  772607.95  380358.33  49.23
927.9  774142.85  380929.27  49.21
929.0  777246.30  382292.90  49.19
930.2  781120.40  384336.05  49.20
931.4  786058.30  386728.30  49.20
932.5  790824.65  388892.53  49.18
933.7  793764.30  389983.81  49.13
934.9  795130.00  390510.33  49.11
936.0  794425.50  389853.14  49.07
937.2  790899.35  388097.24  49.07
938.3  786997.25  386071.96  49.06
939.5  784461.60  384766.20  49.05
940.7  784597.28  384499.76  49.01
941.8  787696.00  385743.30  48.97
943.0  789495.98  386522.90  48.96
944.2  791292.00  387214.06  48.93
945.3  790339.20  386616.79  48.92
946.5  788996.25  385509.33  48.86
947.6  789996.00  385695.35  48.82
948.8  789044.10  384902.63  48.78
949.9  789277.83  384792.98  48.75
951.1  789036.23  384485.18  48.73
952.2  788407.10  383799.17  48.68
953.4  788112.60  383273.61  48.63
954.5  786927.75  382101.30  48.56
955.7  786625.50  381518.48  48.50
956.8  787209.35  381333.07  48.44
958.0  785513.25  380606.76  48.45
959.1  784728.00  380064.96  48.43
960.3  784400.00  379514.29  48.38
961.4  784962.60  379333.37  48.33
962.6  784864.80  378780.48  48.26
963.7  784789.60  378660.75  48.25
964.9  784922.33  378785.09  48.26
966.0  785322.65  378777.97  48.23
967.2  785698.20  378805.44  48.21
968.3  787218.55  379344.49  48.19
969.5  787469.75  379258.81  48.16
970.6  787881.10  379016.91  48.11
971.8  787529.05  378954.66  48.12
972.9  788074.00  379182.93  48.12
974.0  789199.33  379627.15  48.10
975.2  788045.63  378936.64  48.09
976.3  789395.90  379315.06  48.05
977.5  789272.70  378739.75  47.99
978.6  789204.53  378954.41  48.02
979.7  788233.60  378651.09  48.04
980.9  789257.18  378979.64  48.02
982.0  789543.55  378966.03  48.00
983.2  789511.80  378910.19  47.99
984.3  788827.55  377760.57  47.89
985.4  787212.30  377238.81  47.92
986.6  789396.78  377523.60  47.82
987.7  788151.88  377328.89  47.88
988.9  788893.45  377989.72  47.91
990.0  788653.45  378057.62  47.94
993.1  866166.60  413330.91  47.72
996.9  865797.50  413830.13  47.80
1000.7  865261.58  414267.95  47.88
1004.5  864315.60  414337.43  47.94
1008.4  865495.96  415477.97  48.00
1012.2  866929.54  416654.02  48.06
1016.0  867025.83  417139.21  48.11
1019.8  865879.92  416961.87  48.15
1023.7  864419.84  416601.55  48.19
1027.5  861957.80  415712.43  48.23
1031.3  860130.98  415084.68  48.26
1035.1  858745.43  414693.26  48.29
1038.9  858100.39  414625.54  48.32
1042.7  857684.43  414652.25  48.35
1046.5  856975.00  414408.63  48.36
1050.3  855437.39  413704.69  48.36
1054.2  853406.95  412848.11  48.38
1058.0  852537.60  412422.69  48.38
1061.8  851270.25  411896.57  48.39
1065.6  849367.88  410869.44  48.37
1069.4  846968.43  409612.06  48.36
1073.2  844938.25  408458.84  48.34
1077.0  843468.27  407604.69  48.32
1080.8  843236.17  407203.50  48.29
1084.6  843168.33  406893.41  48.26
1088.4  842600.55  406465.66  48.24
1092.2  841417.03  405576.67  48.20
1096.0  839958.90  404569.61  48.17
1099.8  838323.00  403464.31  48.13
1103.6  836403.92  402179.22  48.08
1107.4  834931.67  400998.63  48.03
1111.2  833481.43  399880.48  47.98
1114.9  832525.50  398932.93  47.92
1118.7  832199.33  398114.99  47.84
1122.5  832292.61  397349.88  47.74
1126.3  829999.80  395283.60  47.62
1130.1  829435.08  393763.83  47.47
1133.9  826030.71  390391.27  47.26
1137.7  823245.40  386995.77  47.01
1141.4  819302.85  382643.31  46.70
1145.2  818394.78  379349.61  46.35
1149.0  816422.40  375736.22  46.02
1152.8  812841.55  371736.80  45.73
1156.6  809155.66  368202.39  45.50
1160.3  805711.80  365327.53  45.34
1164.1  800998.47  362261.09  45.23
1167.9  797924.63  360225.21  45.15
1171.7  795411.43  358621.18  45.09
1175.4  792981.37  357174.44  45.04
1179.2  790975.50  355884.97  44.99
1183.0  791316.00  355605.79  44.94
1186.7  791583.33  355304.00  44.89
1190.5  790456.08  354427.43  44.84
1194.3  787635.80  352876.58  44.80
1198.0  784430.98  351280.05  44.78
1201.8  781858.00  350056.67  44.77
1205.6  780274.00  349486.81  44.79
1209.3  779126.25  349316.46  44.83
1213.1  777880.67  349133.44  44.88
1216.8  775918.67  348811.24  44.95
1220.6  773499.33  348292.81  45.03
1224.3  771008.33  347717.86  45.10
1228.1  768707.13  347220.59  45.17
1231.9  766175.15  346477.58  45.22
1235.6  763549.88  345671.39  45.27
1239.4  761115.50  344955.90  45.32
1243.1  758904.30  344164.88  45.35
1246.9  756940.53  343415.91  45.37
1250.6  754896.82  342562.38  45.38
1254.3  752841.60  341729.14  45.39
1258.1  750706.67  340769.24  45.39
1261.8  748196.17  339604.77  45.39
1265.6  746070.31  338468.42  45.37
1269.3  744081.20  337379.65  45.34
1273.1  744644.77  337396.93  45.31
1276.8  744517.53  337021.41  45.27
1280.6  743618.73  336255.31  45.22
1284.3  740911.77  334571.76  45.16
1288.0  739190.73  333253.45  45.08
1291.8  737893.80  331981.20  44.99
1295.5  736331.13  330540.16  44.89
1299.2  733886.40  328633.50  44.78
1302.9  730890.23  326266.89  44.64
1306.7  727651.58  323654.85  44.48
1310.4  724583.30  320821.03  44.28
1314.1  721976.25  318100.71  44.06
1317.9  719427.04  315123.25  43.80
1321.6  716575.71  311793.30  43.51
1325.3  713711.25  308242.51  43.19
1329.0  711120.67  304653.07  42.84
1332.8  707382.50  300383.04  42.46
1336.5  703920.33  296178.52  42.08
