/*** Spectra Vista SIG Data ***/
name= 47_20220926_ACRU_21_avg.sig
comm= Averaged Ref/Tar of files: HR.092722.0055_moc.sig,HR.092722.0056_moc.sig,HR.092722.0057_moc.sig
data=
337.3  3027.13  218.35  7.21
338.8  3126.50  218.05  6.97
340.3  3279.50  212.39  6.48
341.8  3520.83  207.29  5.89
343.2  3729.60  207.20  5.56
344.7  3881.15  204.72  5.27
346.2  4085.00  206.97  5.07
347.7  4247.10  204.49  4.81
349.2  4422.60  206.64  4.67
350.6  4700.80  210.56  4.48
352.1  4965.78  214.35  4.32
353.6  5274.40  222.08  4.21
355.1  5556.38  233.48  4.20
356.6  5833.95  244.72  4.19
358.0  6092.90  250.95  4.12
359.5  6365.40  251.32  3.95
361.0  6673.28  251.37  3.77
362.5  7026.00  273.23  3.89
364.0  7398.15  279.10  3.77
365.4  7755.60  292.24  3.77
366.9  8121.75  302.03  3.72
368.4  8482.53  312.75  3.69
369.9  8837.18  327.90  3.71
371.3  9238.20  345.32  3.74
372.8  9690.75  357.54  3.69
374.3  10131.88  369.08  3.64
375.8  10537.45  373.71  3.55
377.2  10948.30  380.19  3.47
378.7  11351.80  383.77  3.38
380.2  11755.30  401.71  3.42
381.7  12269.35  414.38  3.38
383.1  12720.40  427.61  3.36
384.6  13244.73  428.00  3.23
386.1  13701.68  432.40  3.16
387.6  14148.75  445.57  3.15
389.0  14632.80  460.96  3.15
390.5  15106.95  474.36  3.14
392.0  15658.40  500.79  3.20
393.4  16237.95  504.48  3.11
394.9  16782.30  515.04  3.07
396.4  17310.38  527.85  3.05
397.9  17860.63  543.25  3.04
399.3  18411.28  557.15  3.03
400.8  18943.00  578.26  3.05
402.2  19590.90  592.47  3.02
403.7  20198.93  613.11  3.04
405.2  20786.65  625.02  3.01
406.6  21367.20  643.41  3.01
408.1  21944.60  656.91  2.99
409.6  22542.65  681.91  3.02
411.0  23207.45  694.59  2.99
412.5  23886.28  713.60  2.99
414.0  24511.13  741.65  3.03
415.4  25221.38  771.15  3.06
416.9  25867.05  786.42  3.04
418.4  26555.85  809.25  3.05
419.8  27281.80  827.49  3.03
421.3  28003.08  855.60  3.06
422.7  28779.60  881.60  3.06
424.2  29531.25  911.25  3.09
425.7  30285.40  938.88  3.10
427.1  31048.65  962.16  3.10
428.6  31837.00  985.80  3.10
430.0  32595.90  1011.67  3.10
431.5  33461.85  1038.78  3.10
432.9  34324.95  1068.47  3.11
434.4  35210.85  1100.16  3.12
435.9  36050.00  1127.47  3.13
437.3  36891.25  1153.17  3.13
438.8  37738.50  1180.12  3.13
440.2  38619.35  1212.75  3.14
441.7  39583.60  1248.88  3.16
443.1  40478.75  1280.83  3.16
444.6  41435.30  1313.49  3.17
446.0  42376.35  1349.40  3.18
447.5  43337.53  1378.67  3.18
448.9  44272.80  1415.56  3.20
450.4  45286.15  1455.58  3.21
451.8  46163.00  1487.20  3.22
453.3  47083.08  1528.90  3.25
454.7  48088.75  1565.19  3.25
456.2  48958.95  1595.82  3.26
457.6  49914.00  1626.63  3.26
459.1  50888.18  1657.63  3.26
460.5  51828.13  1694.17  3.27
462.0  52909.80  1733.00  3.28
463.4  53950.60  1764.56  3.27
464.8  54917.25  1796.35  3.27
466.3  55889.63  1826.99  3.27
467.7  56834.85  1857.90  3.27
469.2  57904.55  1895.43  3.27
470.6  58911.65  1933.28  3.28
472.0  59959.50  1972.38  3.29
473.5  60977.63  2005.75  3.29
474.9  62001.75  2040.60  3.29
476.4  63129.60  2081.28  3.30
477.8  64191.50  2124.73  3.31
479.2  65192.00  2161.47  3.32
480.7  66295.50  2200.20  3.32
482.1  67423.70  2244.57  3.33
483.6  68594.15  2285.03  3.33
485.0  69682.65  2327.58  3.34
486.4  70873.05  2376.50  3.35
487.9  71940.38  2423.85  3.37
489.3  73094.90  2477.73  3.39
490.7  74140.38  2532.70  3.42
492.2  75337.50  2595.04  3.44
493.6  76443.70  2658.49  3.48
495.0  77556.38  2730.00  3.52
496.5  78731.38  2805.86  3.56
497.9  79832.00  2891.95  3.62
499.3  80991.33  2985.87  3.69
500.7  82245.10  3097.99  3.77
502.2  83409.80  3223.68  3.86
503.6  84665.40  3365.79  3.98
505.0  85746.45  3525.77  4.11
506.5  87039.53  3713.45  4.27
507.9  88193.93  3923.68  4.45
509.3  89525.20  4173.60  4.66
510.7  90748.13  4451.85  4.91
512.2  92133.38  4772.89  5.18
513.6  93590.70  5143.04  5.50
515.0  95023.00  5557.23  5.85
516.4  96418.35  6012.09  6.24
517.8  98041.63  6529.52  6.66
519.3  99383.58  7067.53  7.11
520.7  100949.25  7658.19  7.59
522.1  102227.13  8254.57  8.07
523.5  103555.00  8871.91  8.57
524.9  105029.55  9500.88  9.05
526.3  106477.00  10115.79  9.50
527.8  107959.50  10725.66  9.93
529.2  108948.80  11278.31  10.35
530.6  110484.70  11854.78  10.73
532.0  112182.00  12409.60  11.06
533.4  113473.43  12887.20  11.36
534.8  114343.35  13274.37  11.61
536.3  115919.40  13713.56  11.83
537.7  117910.80  14164.08  12.01
539.1  119367.63  14528.71  12.17
540.5  120536.15  14843.99  12.31
541.9  122283.38  15218.01  12.44
543.3  123551.55  15529.02  12.57
544.7  124864.20  15846.00  12.69
546.1  126652.08  16219.46  12.81
547.5  127892.80  16519.25  12.92
549.0  129514.00  16859.33  13.02
550.4  130995.63  17162.92  13.10
551.8  132572.90  17439.22  13.15
553.2  134048.58  17662.25  13.18
554.6  135376.80  17808.96  13.16
556.0  136878.75  17916.54  13.09
557.4  138499.55  17980.64  12.98
558.8  140128.65  17995.20  12.84
560.2  141587.63  17939.07  12.67
561.6  143239.50  17861.50  12.47
563.0  144816.88  17734.87  12.25
564.4  146402.35  17573.49  12.00
565.8  147900.00  17362.67  11.74
567.2  149640.00  17138.37  11.45
568.6  151108.13  16846.10  11.15
570.0  152519.58  16509.33  10.82
571.4  154224.85  16180.15  10.49
572.8  155994.75  15859.80  10.17
574.2  157595.20  15538.13  9.86
575.6  159142.50  15237.00  9.57
577.0  160652.10  14959.69  9.31
578.4  162355.38  14729.87  9.07
579.8  163863.00  14510.52  8.86
581.2  165568.80  14329.85  8.65
582.5  166982.40  14147.64  8.47
583.9  168492.20  13994.80  8.31
585.3  170265.15  13887.06  8.16
586.7  171753.08  13774.24  8.02
588.1  173205.63  13681.85  7.90
589.5  174856.50  13622.00  7.79
590.9  176464.40  13580.48  7.70
592.3  178247.65  13575.75  7.62
593.7  179706.15  13569.01  7.55
595.0  181307.03  13589.37  7.50
596.4  182750.40  13604.41  7.44
597.8  184213.68  13622.41  7.39
599.2  185737.20  13634.72  7.34
600.6  187482.75  13651.91  7.28
602.0  188782.35  13614.74  7.21
603.3  190553.65  13584.33  7.13
604.7  192202.13  13514.55  7.03
606.1  193683.00  13404.40  6.92
607.5  195312.05  13273.31  6.80
608.9  196995.05  13122.70  6.66
610.2  198364.95  12940.83  6.52
611.6  199948.35  12758.80  6.38
613.0  201505.25  12575.35  6.24
614.4  202856.10  12384.96  6.11
615.8  204296.63  12207.00  5.98
617.1  205829.40  12059.88  5.86
618.5  207451.60  11936.69  5.75
619.9  208950.00  11832.54  5.66
621.3  210552.53  11764.53  5.59
622.6  212142.75  11722.17  5.53
624.0  213596.25  11698.74  5.48
625.4  215045.33  11695.64  5.44
626.8  216611.85  11718.68  5.41
628.1  217885.53  11744.74  5.39
629.5  219617.25  11807.66  5.38
630.9  221060.95  11854.33  5.36
632.2  222304.60  11873.45  5.34
633.6  223806.63  11880.18  5.31
635.0  225216.80  11840.48  5.26
636.3  226716.50  11764.00  5.19
637.7  228064.25  11629.67  5.10
639.1  229687.50  11475.33  5.00
640.4  231153.65  11281.36  4.88
641.8  232348.88  11056.25  4.76
643.2  233892.40  10839.03  4.63
644.5  235242.50  10614.20  4.51
645.9  236787.30  10408.26  4.40
647.2  237827.10  10203.85  4.29
648.6  239355.00  10062.90  4.20
650.0  240688.80  9944.64  4.13
651.3  241648.28  9848.23  4.08
652.7  243776.80  9800.86  4.02
654.0  245854.40  9749.29  3.97
655.4  247177.08  9665.71  3.91
656.8  247271.10  9537.03  3.86
658.1  248655.80  9437.15  3.80
659.5  251034.00  9358.09  3.73
660.8  252517.50  9243.00  3.66
662.2  253523.20  9115.31  3.60
663.5  255057.25  9010.62  3.53
664.9  256050.60  8910.72  3.48
666.2  256831.80  8820.80  3.43
667.6  258523.50  8802.00  3.40
668.9  259465.48  8796.76  3.39
670.3  261295.25  8824.70  3.38
671.6  262314.00  8864.75  3.38
673.0  263508.75  8932.60  3.39
674.3  264780.10  9022.69  3.41
675.7  266069.98  9133.16  3.43
677.0  267119.20  9265.18  3.47
678.4  268396.65  9423.76  3.51
679.7  269453.85  9591.15  3.56
681.1  270705.73  9801.30  3.62
682.4  271785.80  10036.35  3.69
683.8  272935.00  10331.01  3.79
685.1  273907.50  10681.95  3.90
686.4  275191.20  11129.60  4.04
687.8  276367.25  11721.30  4.24
689.1  277435.25  12516.37  4.51
690.5  278771.55  13615.62  4.88
691.8  279544.05  15106.20  5.40
693.1  280860.00  17108.30  6.09
694.5  282009.00  19637.80  6.96
695.8  283214.75  22695.40  8.01
697.1  284375.00  26247.43  9.23
698.5  285429.80  30245.48  10.60
699.8  286475.95  34608.10  12.08
701.1  287609.70  39254.96  13.65
702.5  288391.95  43993.55  15.25
703.8  289305.00  48822.00  16.88
705.1  290448.60  53667.51  18.48
706.5  291456.75  58443.50  20.05
707.8  292405.05  63131.30  21.59
709.1  293216.55  67686.42  23.08
710.5  294310.48  72216.91  24.54
711.8  295118.20  76613.88  25.96
713.1  296099.40  80972.79  27.35
714.4  296991.40  85236.55  28.70
715.8  297794.20  89411.11  30.02
717.1  299087.70  93649.48  31.31
718.4  300003.20  97699.84  32.57
719.7  301097.58  101718.85  33.78
721.0  301590.00  105444.00  34.96
722.4  302327.85  109145.01  36.10
723.7  303260.85  112806.06  37.20
725.0  304265.03  116358.06  38.24
726.3  305215.90  119749.08  39.23
727.6  305718.05  122853.28  40.19
729.0  306598.95  125953.01  41.08
730.3  307360.73  128847.90  41.92
731.6  308219.10  131640.16  42.71
732.9  308975.63  134225.37  43.44
734.2  309765.50  136675.18  44.12
735.5  310765.25  139076.66  44.75
736.8  311512.80  141239.36  45.34
738.1  312349.10  143282.09  45.87
739.5  313308.00  145236.95  46.36
740.8  313989.78  146931.58  46.80
742.1  314667.28  148504.65  47.19
743.4  315250.00  149953.33  47.57
744.7  316097.30  151415.88  47.90
746.0  316925.70  152776.00  48.21
747.3  317505.48  153902.14  48.47
748.6  318192.75  154990.97  48.71
749.9  318812.00  155948.00  48.92
751.2  319369.95  156798.89  49.10
752.5  320102.15  157677.53  49.26
753.8  320592.13  158383.03  49.40
755.1  321230.00  159102.67  49.53
756.4  321752.33  159722.01  49.64
757.7  322730.28  160503.79  49.73
759.0  324481.93  161629.92  49.81
760.3  325617.60  162416.32  49.88
761.6  327126.80  163345.28  49.93
762.9  327580.50  163745.67  49.99
764.2  327937.90  164036.20  50.02
765.5  328137.55  164254.35  50.06
766.8  328494.40  164527.36  50.09
768.1  328937.00  164831.09  50.11
769.3  329505.05  165162.67  50.12
770.6  330089.50  165504.99  50.14
771.9  330718.15  165864.35  50.15
773.2  331030.40  166056.69  50.16
774.5  331588.40  166345.23  50.17
775.8  332178.90  166668.37  50.17
777.1  332688.95  166936.22  50.18
778.4  332943.88  167083.00  50.18
779.6  333603.68  167434.98  50.19
780.9  333990.00  167632.00  50.19
782.2  334383.50  167847.17  50.20
783.5  334615.50  167973.67  50.20
784.8  335098.58  168205.86  50.20
786.0  335360.90  168367.83  50.20
787.3  335649.40  168521.35  50.21
788.6  335976.53  168702.20  50.21
789.9  336361.20  168886.85  50.21
791.2  336955.80  169168.49  50.20
792.4  337532.10  169469.52  50.21
793.7  337907.80  169667.55  50.21
795.0  338452.95  169941.31  50.21
796.2  338998.63  170221.46  50.21
797.5  339610.50  170518.27  50.21
798.8  340203.05  170808.37  50.21
800.0  340767.60  171083.03  50.21
801.3  341145.00  171268.03  50.20
802.6  341627.63  171526.53  50.21
803.8  342158.70  171803.02  50.21
805.1  342575.63  171996.42  50.21
806.4  342976.20  172186.60  50.20
807.7  343427.85  172403.91  50.20
808.9  343928.50  172652.37  50.20
810.2  344361.85  172859.87  50.20
811.4  344739.70  173076.95  50.21
812.7  345312.50  173349.58  50.20
814.0  346071.50  173713.35  50.20
815.2  346692.00  174014.00  50.19
816.5  347035.48  174189.91  50.19
817.7  347470.65  174393.79  50.19
819.0  347904.15  174622.65  50.19
820.2  348040.00  174674.13  50.19
821.5  348671.85  175004.19  50.19
822.7  348979.70  175165.96  50.19
824.0  349253.10  175301.28  50.19
825.2  349685.10  175525.65  50.20
826.5  349976.83  175667.60  50.19
827.7  350486.45  175925.18  50.19
829.0  350868.73  176118.14  50.19
830.2  351193.90  176272.77  50.19
831.5  351651.80  176494.57  50.19
832.7  351942.68  176648.64  50.19
834.0  352298.98  176816.74  50.19
835.2  352652.85  176981.24  50.19
836.4  352910.25  177136.23  50.19
837.7  353329.80  177335.17  50.19
838.9  353746.73  177547.11  50.19
840.1  354078.00  177748.65  50.20
841.4  354543.90  177975.61  50.20
842.6  354949.80  178162.72  50.19
843.8  355291.80  178339.33  50.20
845.1  355743.90  178603.93  50.21
846.3  356212.70  178809.52  50.20
847.5  356630.40  179021.64  50.20
848.8  357018.60  179228.24  50.20
850.0  357418.25  179437.95  50.20
851.2  357921.45  179690.40  50.20
852.5  358343.90  179877.11  50.20
853.7  358809.75  180142.20  50.21
854.9  359385.70  180364.87  50.19
856.1  359856.25  180604.32  50.19
857.4  360082.93  180712.93  50.19
858.6  360618.45  180952.25  50.18
859.8  361027.50  181152.00  50.18
861.0  361459.80  181359.36  50.17
862.2  361913.90  181601.36  50.18
863.5  362357.13  181774.71  50.16
864.7  362854.80  182042.08  50.17
865.9  363330.00  182227.73  50.15
867.1  363631.60  182379.34  50.15
868.3  364070.40  182574.12  50.15
869.5  364557.35  182810.75  50.15
870.8  365058.00  183049.20  50.14
872.0  365592.60  183291.18  50.14
873.2  366132.75  183506.62  50.12
874.4  366522.98  183716.91  50.12
875.6  366965.00  183897.33  50.11
876.8  367441.40  184107.82  50.11
878.0  367914.90  184333.04  50.10
879.2  368453.70  184540.92  50.09
880.4  368953.50  184755.50  50.08
881.6  369423.60  184971.16  50.07
882.8  369877.60  185169.92  50.06
884.0  370367.85  185420.56  50.06
885.2  370883.30  185631.67  50.05
886.5  371481.85  185886.05  50.04
887.7  371983.30  186087.68  50.03
888.8  372584.55  186383.55  50.02
890.0  373128.20  186638.06  50.02
891.2  373675.60  186862.79  50.01
892.4  374208.45  187097.89  50.00
893.6  374801.50  187330.09  49.98
894.8  375653.25  187693.03  49.96
896.0  376554.50  188058.90  49.94
897.2  377308.75  188429.37  49.94
898.4  377998.50  188750.32  49.93
899.6  378312.75  188969.40  49.95
900.8  378686.60  189104.34  49.94
902.0  378923.85  189173.16  49.92
903.2  379294.88  189253.13  49.90
904.3  379514.70  189357.32  49.89
905.5  380035.00  189570.40  49.88
906.7  380565.50  189832.53  49.88
907.9  381031.35  190012.85  49.87
909.1  381270.38  190078.56  49.85
910.2  381446.93  190095.81  49.84
911.4  381721.28  190121.10  49.81
912.6  381667.00  190152.82  49.82
913.8  381874.28  190193.68  49.81
915.0  382222.05  190323.84  49.79
916.2  382278.00  190344.70  49.79
917.3  382213.13  190262.91  49.78
918.5  382363.90  190258.24  49.76
919.7  382547.40  190326.54  49.75
920.8  382579.90  190243.49  49.73
922.0  382555.25  190213.10  49.72
923.2  382609.50  190208.20  49.71
924.4  382883.63  190237.95  49.69
925.5  383019.00  190265.51  49.68
926.7  383415.88  190440.80  49.67
927.9  384202.20  190775.60  49.65
929.0  385533.00  191373.48  49.64
930.2  387708.30  192308.12  49.60
931.4  390110.85  193390.38  49.57
932.5  392627.40  194602.09  49.56
933.7  394010.73  195141.26  49.53
934.9  394489.38  195350.75  49.52
936.0  393900.00  195046.15  49.52
937.2  391620.15  193819.16  49.49
938.3  389960.95  192824.24  49.45
939.5  388314.00  191895.36  49.42
940.7  388494.00  191932.08  49.40
941.8  389969.78  192499.70  49.36
943.0  391123.50  193040.30  49.36
944.2  391784.25  193268.05  49.33
945.3  391248.00  192857.60  49.29
946.5  390312.00  192303.72  49.27
947.6  390362.90  192225.60  49.24
948.8  390184.28  192033.01  49.22
949.9  390259.80  191872.80  49.17
951.1  389620.08  191434.53  49.13
952.2  389436.00  191080.00  49.07
953.4  389008.25  190725.27  49.03
954.5  388767.60  190438.56  48.99
955.7  388773.00  190152.48  48.91
956.8  388515.70  189805.43  48.85
958.0  388068.00  189456.33  48.82
959.1  387569.83  189157.55  48.81
960.3  387047.93  188763.48  48.77
961.4  386538.40  188453.11  48.75
962.6  386716.75  188379.57  48.71
963.7  386386.88  188115.21  48.69
964.9  386327.48  187934.05  48.65
966.0  386019.68  187772.04  48.64
967.2  386187.30  187616.94  48.58
968.3  385588.35  187448.58  48.61
969.5  385254.35  187315.25  48.62
970.6  385159.15  187170.79  48.60
971.8  385060.55  187200.51  48.62
972.9  384973.43  187043.59  48.59
974.0  385213.80  187153.51  48.58
975.2  385130.13  186981.98  48.55
976.3  385055.85  186863.23  48.53
977.5  384603.98  186818.45  48.57
978.6  384096.00  186766.68  48.63
979.7  383951.40  186879.00  48.67
980.9  384188.10  186803.20  48.62
982.0  383480.05  186604.56  48.66
983.2  382682.83  186181.07  48.65
984.3  382291.40  185907.09  48.63
985.4  382438.08  185915.43  48.61
986.6  381371.63  185793.28  48.72
987.7  382203.85  186014.57  48.67
988.9  381927.60  185954.16  48.69
990.0  382770.20  186000.12  48.59
993.1  384251.41  184970.39  48.14
996.9  382881.98  184731.32  48.25
1000.7  382827.14  185040.18  48.34
1004.5  382814.00  185336.07  48.41
1008.4  382309.42  185424.44  48.50
1012.2  381944.67  185602.76  48.59
1016.0  381454.20  185680.71  48.68
1019.8  380682.23  185625.83  48.76
1023.7  379492.55  185263.74  48.82
1027.5  377743.85  184630.00  48.88
1031.3  376785.53  184246.79  48.90
1035.1  375795.29  183837.01  48.92
1038.9  375389.85  183670.20  48.93
1042.7  375060.83  183557.06  48.94
1046.5  374934.67  183501.64  48.94
1050.3  374886.15  183486.53  48.94
1054.2  374462.67  183335.83  48.96
1058.0  374060.63  183109.80  48.95
1061.8  373966.09  183060.56  48.95
1065.6  373464.50  182731.38  48.93
1069.4  372651.60  182296.61  48.92
1073.2  371351.99  181610.69  48.91
1077.0  370568.55  181179.43  48.89
1080.8  370626.04  181098.96  48.86
1084.6  370607.42  180950.35  48.83
1088.4  370806.13  180955.61  48.80
1092.2  370334.25  180556.07  48.75
1096.0  369697.77  180077.63  48.71
1099.8  369011.72  179565.13  48.66
1103.6  368110.98  178930.44  48.61
1107.4  366992.93  178180.74  48.55
1111.2  366664.90  177826.09  48.50
1114.9  366094.75  177319.25  48.44
1118.7  365795.10  176888.60  48.36
1122.5  365413.53  176352.80  48.26
1126.3  364526.05  175510.85  48.15
1130.1  364099.43  174773.16  48.00
1133.9  362470.50  173241.40  47.79
1137.7  360930.80  171595.23  47.54
1141.4  358860.78  169569.91  47.25
1145.2  357933.23  167955.27  46.92
1149.0  356628.13  166267.08  46.62
1152.8  354821.15  164446.42  46.35
1156.6  353021.90  162835.38  46.13
1160.3  351251.67  161427.33  45.96
1164.1  348960.00  159929.62  45.83
1167.9  347300.00  158877.98  45.75
1171.7  345964.50  158051.25  45.68
1175.4  344516.87  157210.88  45.63
1179.2  343082.55  156391.99  45.58
1183.0  342717.00  156020.81  45.52
1186.7  342635.77  155812.70  45.47
1190.5  342275.93  155461.22  45.42
1194.3  341354.00  154886.00  45.37
1198.0  339887.08  154117.66  45.34
1201.8  338167.83  153308.37  45.33
1205.6  337077.00  152852.52  45.35
1209.3  336502.73  152695.02  45.38
1213.1  336070.88  152582.71  45.40
1216.8  335467.83  152474.47  45.45
1220.6  334385.33  152146.13  45.50
1224.3  333182.50  151749.67  45.55
1228.1  331701.20  151272.89  45.61
1231.9  330140.83  150697.02  45.65
1235.6  328420.95  150032.56  45.68
1239.4  326850.13  149452.32  45.73
1243.1  325495.72  148906.81  45.75
1246.9  324211.88  148371.23  45.76
1250.6  323140.73  147911.57  45.77
1254.3  321952.95  147396.86  45.78
1258.1  320711.42  146832.40  45.78
1261.8  319255.73  146171.05  45.78
1265.6  318029.13  145572.29  45.77
1269.3  317191.43  145105.28  45.75
1273.1  317534.73  145125.99  45.70
1276.8  317323.60  144886.97  45.66
1280.6  316187.63  144244.11  45.62
1284.3  314174.80  143167.32  45.57
1288.0  312895.71  142372.13  45.50
1291.8  312392.22  141854.72  45.41
1295.5  311663.73  141194.32  45.30
1299.2  310546.58  140316.05  45.18
1302.9  308951.35  139161.67  45.04
1306.7  307198.97  137883.32  44.88
1310.4  305485.62  136533.24  44.69
1314.1  303937.70  135187.04  44.48
1317.9  302524.17  133826.82  44.24
1321.6  300977.30  132332.44  43.97
1325.3  299308.28  130695.75  43.67
1329.0  297994.43  129176.92  43.35
1332.8  296065.00  127289.80  42.99
1336.5  294448.20  125518.17  42.63
1340.2  294324.33  124392.67  42.26
1343.9  294311.67  123313.51  41.90
1347.6  294569.70  122326.48  41.53
