/*** Spectra Vista SIG Data ***/
name= 23_20221020_ACSA_19_avg.sig
comm= Averaged Ref/Tar of files: HR.102022.0065_moc.sig,HR.102022.0066_moc.sig,HR.102022.0067_moc.sig
data=
337.3  3176.00  245.76  7.74
338.8  3270.80  246.00  7.52
340.3  3466.90  235.14  6.78
341.8  3658.00  236.90  6.48
343.2  3774.00  240.18  6.36
344.7  3966.45  248.99  6.28
346.2  4125.85  233.04  5.65
347.7  4365.08  232.20  5.32
349.2  4536.00  231.84  5.11
350.6  4774.25  236.09  4.95
352.1  5072.95  238.85  4.71
353.6  5343.80  253.81  4.75
355.1  5590.05  256.25  4.58
356.6  5899.50  261.27  4.43
358.0  6188.60  257.33  4.16
359.5  6458.10  263.39  4.08
361.0  6763.05  274.74  4.06
362.5  7113.83  290.80  4.09
364.0  7484.18  299.86  4.01
365.4  7839.90  308.56  3.94
366.9  8204.63  309.66  3.77
368.4  8537.08  324.44  3.80
369.9  8891.23  339.23  3.82
371.3  9291.60  360.58  3.88
372.8  9717.30  375.24  3.86
374.3  10158.75  385.98  3.80
375.8  10537.45  392.19  3.72
377.2  10948.30  401.96  3.67
378.7  11378.70  408.88  3.59
380.2  11782.20  415.28  3.52
381.7  12269.35  423.39  3.45
383.1  12747.35  428.38  3.36
384.6  13244.73  443.93  3.35
386.1  13701.68  456.08  3.33
387.6  14121.80  473.55  3.35
389.0  14606.00  482.91  3.31
390.5  15053.85  489.78  3.25
392.0  15605.50  504.57  3.23
393.4  16159.13  514.99  3.19
394.9  16704.00  531.20  3.18
396.4  17232.75  537.46  3.12
397.9  17758.13  560.82  3.16
399.3  18309.98  577.65  3.15
400.8  18868.23  591.55  3.14
402.2  19468.15  602.76  3.10
403.7  20078.55  613.11  3.05
405.2  20691.95  626.82  3.03
406.6  21251.20  647.61  3.05
408.1  21831.60  661.21  3.03
409.6  22432.90  680.45  3.03
411.0  23079.35  696.82  3.02
412.5  23740.50  711.82  3.00
414.0  24388.88  733.11  3.01
415.4  25082.25  750.90  2.99
416.9  25732.13  778.71  3.03
418.4  26425.13  804.09  3.04
419.8  27136.20  827.32  3.05
421.3  27860.48  850.51  3.05
422.7  28605.60  871.82  3.05
424.2  29362.50  899.68  3.06
425.7  30122.40  928.32  3.08
427.1  30874.58  957.94  3.10
428.6  31682.00  992.15  3.13
430.0  32428.98  1017.16  3.14
431.5  33282.75  1047.88  3.15
432.9  34149.15  1081.87  3.17
434.4  35024.63  1113.26  3.18
435.9  35868.00  1146.40  3.20
437.3  36712.50  1183.68  3.22
438.8  37562.03  1217.61  3.24
440.2  38417.23  1249.33  3.25
441.7  39382.60  1284.61  3.26
443.1  40266.75  1316.29  3.27
444.6  41238.80  1355.54  3.29
446.0  42181.73  1394.51  3.31
447.5  43143.65  1434.06  3.32
448.9  44066.40  1470.23  3.34
450.4  45066.00  1508.61  3.35
451.8  45942.00  1540.93  3.35
453.3  46860.80  1579.84  3.37
454.7  47877.95  1617.89  3.38
456.2  48734.13  1653.50  3.39
457.6  49701.60  1690.60  3.40
459.1  50674.98  1729.33  3.41
460.5  51614.13  1763.08  3.42
462.0  52693.40  1800.63  3.42
463.4  53731.40  1839.19  3.42
464.8  54709.13  1874.45  3.43
466.3  55679.25  1913.54  3.44
467.7  56651.88  1954.55  3.45
469.2  57707.50  1991.55  3.45
470.6  58700.90  2026.68  3.45
472.0  59748.38  2062.59  3.45
473.5  60765.75  2099.11  3.45
474.9  61802.25  2136.82  3.46
476.4  62971.20  2179.20  3.46
477.8  64017.50  2223.89  3.47
479.2  65018.00  2262.83  3.48
480.7  66107.33  2310.21  3.49
482.1  67235.85  2350.26  3.50
483.6  68420.75  2397.60  3.50
485.0  69494.48  2439.24  3.51
486.4  70683.90  2488.19  3.52
487.9  71750.25  2535.98  3.53
489.3  72903.48  2592.44  3.56
490.7  73948.95  2650.36  3.58
492.2  75161.10  2718.66  3.62
493.6  76267.90  2775.69  3.64
495.0  77380.88  2845.19  3.68
496.5  78555.28  2919.91  3.72
497.9  79641.23  3007.96  3.78
499.3  80800.55  3102.71  3.84
500.7  82054.65  3214.21  3.92
502.2  83220.00  3331.02  4.00
503.6  84475.60  3468.82  4.11
505.0  85556.00  3617.99  4.23
506.5  86862.23  3795.06  4.37
507.9  88001.20  3991.88  4.54
509.3  89332.80  4220.40  4.72
510.7  90572.63  4479.57  4.95
512.2  91959.68  4775.51  5.19
513.6  93447.20  5105.59  5.46
515.0  94894.98  5474.46  5.77
516.4  96276.60  5878.17  6.11
517.8  97886.25  6331.23  6.47
519.3  99214.68  6802.52  6.86
520.7  100780.65  7313.63  7.26
522.1  102073.40  7828.93  7.67
523.5  103416.00  8360.52  8.08
524.9  104904.00  8906.48  8.49
526.3  106319.15  9444.90  8.88
527.8  107796.15  9987.54  9.27
529.2  108814.70  10495.28  9.65
530.6  110354.65  11042.97  10.01
532.0  112042.00  11586.80  10.34
533.4  113391.98  12067.14  10.64
534.8  114290.45  12479.24  10.92
536.3  115867.80  12942.75  11.17
537.7  117759.60  13432.08  11.41
539.1  119170.43  13853.53  11.62
540.5  120379.50  14238.05  11.83
541.9  122106.75  14678.49  12.02
543.3  123424.23  15063.27  12.20
544.7  124738.80  15443.96  12.38
546.1  126539.33  15877.89  12.55
547.5  127780.80  16233.49  12.70
549.0  129415.00  16628.75  12.85
550.4  130910.63  16985.94  12.98
551.8  132478.18  17327.16  13.08
553.2  133975.25  17622.64  13.15
554.6  135304.00  17849.47  13.19
556.0  136816.65  18052.96  13.20
557.4  138427.28  18231.59  13.17
558.8  140066.55  18381.50  13.12
560.2  141525.38  18468.69  13.05
561.6  143197.80  18540.61  12.95
563.0  144774.98  18565.69  12.82
564.4  146381.25  18560.97  12.68
565.8  147900.00  18521.30  12.52
567.2  149650.75  18477.00  12.35
568.6  151119.00  18369.53  12.16
570.0  152530.55  18204.81  11.94
571.4  154246.95  18040.02  11.70
572.8  156005.88  17871.62  11.46
574.2  157617.60  17685.65  11.22
575.6  159176.25  17507.68  11.00
577.0  160697.30  17345.18  10.79
578.4  162400.88  17229.44  10.61
579.8  163920.38  17104.31  10.43
581.2  165626.68  17014.59  10.27
582.5  167052.60  16915.97  10.13
583.9  168563.00  16841.41  9.99
585.3  170348.63  16805.85  9.87
586.7  171813.20  16757.70  9.75
588.1  173290.50  16726.73  9.65
589.5  174930.00  16724.63  9.56
590.9  176551.20  16736.34  9.48
592.3  178348.05  16785.45  9.41
593.7  179794.88  16821.42  9.36
595.0  181396.80  16878.80  9.30
596.4  182828.10  16923.68  9.26
597.8  184305.20  16979.20  9.21
599.2  185842.80  17023.85  9.16
600.6  187589.35  17070.34  9.10
602.0  188862.90  17052.44  9.03
603.3  190621.40  17054.03  8.95
604.7  192284.18  17009.23  8.85
606.1  193752.00  16919.59  8.73
607.5  195381.68  16812.25  8.60
608.9  197065.30  16681.36  8.46
610.2  198435.83  16497.95  8.31
611.6  200034.30  16329.14  8.16
613.0  201577.50  16148.08  8.01
614.4  202943.40  15955.39  7.86
615.8  204384.38  15775.78  7.72
617.1  205917.60  15622.88  7.59
618.5  207525.60  15501.94  7.47
619.9  209039.55  15398.90  7.37
621.3  210642.98  15331.71  7.28
622.6  212219.00  15298.07  7.21
624.0  213658.05  15290.94  7.16
625.4  215108.03  15313.58  7.12
626.8  216643.70  15372.33  7.10
628.1  217917.98  15430.90  7.08
629.5  219683.35  15534.60  7.07
630.9  221161.60  15614.49  7.06
632.2  222389.48  15648.69  7.04
633.6  223892.25  15667.25  7.00
635.0  225320.00  15620.71  6.93
636.3  226820.30  15515.63  6.84
637.7  228168.50  15322.27  6.72
639.1  229775.00  15082.67  6.56
640.4  231242.03  14763.00  6.38
641.8  232420.18  14392.07  6.19
643.2  233964.50  14026.88  6.00
644.5  235297.25  13651.35  5.80
645.9  236842.65  13295.25  5.61
647.2  237827.10  12954.11  5.45
648.6  239274.00  12694.05  5.31
650.0  240602.40  12471.22  5.18
651.3  241602.63  12284.63  5.08
652.7  243822.90  12187.74  5.00
654.0  245946.00  12082.04  4.91
655.4  247336.50  11937.79  4.83
656.8  247566.20  11717.31  4.73
658.1  248950.90  11534.41  4.63
659.5  251124.30  11352.65  4.52
660.8  252405.00  11116.71  4.40
662.2  253388.80  10855.68  4.28
663.5  254902.20  10636.64  4.17
664.9  255918.00  10420.47  4.07
666.2  256720.80  10230.18  3.98
667.6  258411.88  10113.65  3.91
668.9  259330.33  10013.97  3.86
670.3  261205.75  9975.20  3.82
671.6  262203.38  9940.87  3.79
673.0  263376.00  9953.51  3.78
674.3  264647.50  9995.30  3.78
675.7  265937.53  10070.62  3.79
677.0  267009.08  10160.24  3.81
678.4  268308.55  10282.74  3.83
679.7  269365.75  10436.29  3.87
681.1  270639.50  10651.71  3.94
682.4  271719.50  10926.24  4.02
683.8  272890.80  11298.36  4.14
685.1  273885.38  11802.53  4.31
686.4  275213.40  12511.50  4.55
687.8  276411.75  13497.49  4.88
689.1  277546.50  14835.88  5.35
690.5  278860.95  16661.61  5.97
691.8  279633.95  19027.34  6.80
693.1  280995.90  22055.49  7.85
694.5  282145.50  25689.95  9.11
695.8  283396.75  29859.48  10.54
697.1  284579.75  34467.98  12.11
698.5  285634.10  39417.14  13.80
699.8  286702.70  44599.78  15.56
701.1  287859.13  49915.23  17.34
702.5  288640.00  55160.09  19.11
703.8  289575.00  60331.71  20.83
705.1  290717.70  65379.34  22.49
706.5  291747.63  70209.56  24.07
707.8  292695.60  74812.47  25.56
709.1  293551.43  79165.51  26.97
710.5  294645.35  83398.55  28.30
711.8  295475.00  87359.29  29.57
713.1  296433.90  91197.66  30.76
714.4  297348.20  94842.11  31.90
715.8  298151.00  98310.29  32.97
717.1  299445.30  101791.05  33.99
718.4  300406.40  105015.47  34.96
719.7  301479.65  108141.78  35.87
721.0  301995.00  110938.93  36.74
722.4  302733.75  113667.89  37.55
723.7  303668.55  116343.77  38.31
725.0  304674.08  118905.21  39.03
726.3  305603.93  121307.49  39.69
727.6  306151.73  123427.60  40.32
729.0  307011.60  125557.39  40.90
730.3  307798.20  127513.77  41.43
731.6  308682.10  129400.78  41.92
732.9  309441.13  131120.93  42.37
734.2  310209.63  132755.31  42.80
735.5  311188.70  134379.95  43.18
736.8  311963.10  135815.22  43.54
738.1  312803.20  137196.24  43.86
739.5  313767.33  138524.36  44.15
740.8  314430.33  139658.55  44.42
742.1  315113.23  140729.55  44.66
743.4  315725.00  141714.52  44.89
744.7  316600.80  142743.93  45.09
746.0  317458.05  143712.53  45.27
747.3  317990.45  144489.73  45.44
748.6  318733.50  145284.44  45.58
749.9  319384.00  146005.10  45.71
751.2  319971.40  146655.18  45.83
752.5  320703.60  147351.27  45.95
753.8  321217.93  147903.11  46.04
755.1  321854.00  148481.05  46.13
756.4  322375.73  149000.02  46.22
757.7  323356.08  149683.91  46.29
759.0  325085.10  150701.34  46.36
760.3  326224.80  151405.01  46.41
761.6  327738.60  152269.55  46.46
762.9  328222.50  152640.85  46.51
764.2  328556.60  152932.39  46.55
765.5  328759.13  153144.24  46.58
766.8  329120.00  153414.74  46.61
768.1  329594.60  153735.40  46.64
769.3  330141.00  154076.86  46.67
770.6  330760.30  154451.17  46.70
771.9  331394.35  154829.14  46.72
773.2  331740.40  155052.64  46.74
774.5  332246.20  155359.83  46.76
775.8  332842.45  155696.58  46.78
777.1  333359.40  155988.31  46.79
778.4  333620.65  156166.60  46.81
779.6  334317.08  156545.72  46.83
780.9  334740.00  156782.29  46.84
782.2  335139.75  157024.58  46.85
783.5  335347.50  157190.61  46.87
784.8  335776.73  157429.44  46.89
786.0  336108.50  157615.74  46.89
787.3  336436.28  157800.36  46.90
788.6  336772.15  158009.00  46.92
789.9  337166.20  158219.76  46.93
791.2  337737.60  158527.94  46.94
792.4  338323.50  158834.61  46.95
793.7  338742.80  159060.66  46.96
795.0  339298.58  159350.22  46.96
796.2  339854.25  159651.48  46.98
797.5  340443.90  159945.01  46.98
798.8  341048.45  160257.31  46.99
800.0  341623.80  160560.60  47.00
801.3  342011.40  160759.49  47.00
802.6  342544.50  161036.78  47.01
803.8  343125.25  161337.02  47.02
805.1  343478.63  161543.48  47.03
806.4  343852.50  161747.93  47.04
807.7  344351.25  161991.48  47.04
808.9  344863.30  162249.38  47.05
810.2  345311.05  162477.05  47.05
811.4  345742.20  162709.00  47.06
812.7  346328.13  163013.42  47.07
814.0  347059.10  163385.10  47.08
815.2  347694.00  163688.23  47.08
816.5  348050.08  163886.49  47.09
817.7  348456.20  164097.95  47.09
819.0  348903.50  164337.00  47.10
820.2  349052.00  164417.94  47.10
821.5  349698.80  164743.19  47.11
822.7  350021.03  164929.49  47.12
824.0  350262.90  165080.01  47.13
825.2  350709.75  165303.99  47.13
826.5  351016.88  165457.10  47.14
827.7  351591.03  165710.49  47.13
829.0  351940.68  165900.27  47.14
830.2  352232.35  166060.16  47.15
831.5  352755.10  166304.56  47.14
832.7  353012.10  166453.46  47.15
834.0  353385.20  166636.27  47.15
835.2  353703.35  166805.90  47.16
836.4  354030.60  166950.95  47.16
837.7  354468.00  167164.16  47.16
838.9  354848.23  167392.33  47.17
840.1  355254.53  167584.65  47.17
841.4  355681.90  167789.97  47.17
842.6  356048.00  167995.42  47.18
843.8  356405.20  168184.23  47.19
845.1  356930.90  168451.13  47.19
846.3  357354.60  168670.36  47.20
847.5  357726.60  168861.20  47.20
848.8  358131.00  169103.63  47.22
850.0  358545.95  169285.07  47.21
851.2  359063.55  169572.24  47.23
852.5  359565.60  169765.47  47.21
853.7  360049.50  170027.21  47.22
854.9  360443.30  170259.12  47.24
856.1  360927.45  170494.87  47.24
857.4  361168.13  170588.27  47.23
858.6  361716.85  170856.12  47.23
859.8  362137.50  171061.57  47.24
861.0  362583.00  171293.35  47.24
862.2  363051.10  171506.01  47.24
863.5  363434.50  171702.79  47.24
864.7  364016.40  171974.88  47.24
865.9  364357.60  172151.66  47.25
867.1  364669.70  172323.19  47.25
868.3  365118.30  172507.15  47.25
869.5  365616.45  172751.46  47.25
870.8  366205.50  173013.86  47.25
872.0  366752.48  173272.81  47.25
873.2  367148.70  173478.86  47.25
874.4  367549.65  173676.56  47.25
875.6  367922.30  173866.95  47.26
876.8  368409.20  174097.23  47.26
878.0  368976.35  174296.31  47.24
879.2  369445.50  174544.99  47.25
880.4  369957.00  174766.69  47.24
881.6  370438.50  174991.31  47.24
882.8  370819.20  175166.95  47.24
884.0  371406.75  175422.39  47.23
885.2  371935.70  175623.01  47.22
886.5  372459.20  175866.31  47.22
887.7  372883.55  176090.61  47.22
888.8  373588.58  176380.68  47.21
890.0  374145.15  176608.56  47.20
891.2  374706.30  176854.73  47.20
892.4  375253.73  177091.31  47.19
893.6  375765.00  177339.97  47.19
894.8  376630.75  177717.88  47.19
896.0  377348.50  178092.31  47.20
897.2  378215.50  178441.68  47.18
898.4  378919.20  178748.30  47.17
899.6  379455.38  178948.93  47.16
900.8  379740.85  179099.00  47.16
902.0  379886.40  179165.70  47.16
903.2  380163.08  179246.09  47.15
904.3  380395.50  179352.90  47.15
905.5  380929.20  179588.36  47.14
906.7  381587.00  179829.40  47.13
907.9  381952.55  180012.35  47.13
909.1  382204.58  180121.55  47.13
910.2  382275.90  180150.37  47.13
911.4  382440.83  180210.73  47.12
912.6  382639.40  180257.49  47.11
913.8  382860.08  180305.17  47.09
915.0  383096.70  180461.12  47.11
916.2  383165.25  180455.79  47.10
917.3  382983.98  180371.56  47.10
918.5  383274.60  180400.38  47.07
919.7  383336.70  180444.00  47.07
920.8  383378.05  180456.65  47.07
922.0  383363.75  180454.63  47.07
923.2  383428.50  180480.30  47.07
924.4  383713.88  180487.13  47.04
925.5  383860.80  180546.06  47.03
926.7  384412.50  180709.13  47.01
927.9  385214.40  181019.92  46.99
929.0  386563.05  181606.92  46.98
930.2  388608.90  182530.18  46.97
931.4  391030.20  183582.52  46.95
932.5  393566.70  184763.29  46.95
933.7  394807.35  185275.25  46.93
934.9  395460.63  185470.21  46.90
936.0  394884.75  185148.63  46.89
937.2  392447.40  184045.00  46.90
938.3  390796.70  183057.90  46.84
939.5  389160.00  182257.41  46.83
940.7  389181.60  182189.44  46.81
941.8  390671.48  182756.09  46.78
943.0  391840.50  183237.89  46.76
944.2  392697.50  183467.58  46.72
945.3  392174.25  183132.86  46.70
946.5  391437.90  182601.32  46.65
947.6  391316.40  182492.64  46.64
948.8  391154.40  182252.30  46.59
949.9  391246.80  182089.28  46.54
951.1  390422.18  181664.19  46.53
952.2  390252.00  181354.06  46.47
953.4  390044.50  181035.84  46.41
954.5  389610.00  180750.96  46.39
955.7  389415.60  180433.92  46.33
956.8  389169.40  180087.09  46.27
958.0  388732.50  179670.25  46.22
959.1  388247.00  179395.48  46.21
960.3  387737.85  179010.35  46.17
961.4  387711.15  178765.07  46.11
962.6  387675.75  178616.03  46.07
963.7  387368.18  178353.61  46.04
964.9  387080.55  178167.98  46.03
966.0  386791.20  177987.15  46.02
967.2  386715.60  177886.16  46.00
968.3  386402.40  177690.32  45.99
969.5  386372.65  177484.86  45.94
970.6  386314.05  177376.14  45.92
971.8  386258.25  177362.26  45.92
972.9  385910.10  177317.04  45.95
974.0  386191.50  177249.25  45.90
975.2  385812.38  177040.63  45.89
976.3  385772.90  176923.55  45.86
977.5  385738.50  176849.04  45.85
978.6  385696.40  176828.96  45.85
979.7  385650.30  176766.50  45.84
980.9  385540.88  176492.05  45.78
982.0  384919.90  176301.63  45.80
983.2  384726.53  176103.68  45.77
984.3  383922.80  175771.70  45.78
985.4  384173.80  175727.00  45.74
986.6  383828.13  175528.62  45.73
987.7  384812.75  175790.17  45.68
988.9  383995.80  175521.24  45.71
990.0  384953.30  175659.85  45.63
993.1  392435.34  178146.69  45.40
996.9  390715.70  177709.69  45.48
1000.7  390457.20  177905.58  45.56
1004.5  390415.00  178154.61  45.63
1008.4  389999.25  178239.35  45.70
1012.2  389727.83  178334.86  45.76
1016.0  389206.80  178303.54  45.81
1019.8  388322.55  178112.55  45.87
1023.7  386853.23  177626.62  45.92
1027.5  384920.52  176945.84  45.97
1031.3  383684.85  176518.77  46.01
1035.1  382493.30  176110.02  46.04
1038.9  381920.37  175991.10  46.08
1042.7  381641.42  175971.56  46.11
1046.5  381528.83  175997.62  46.13
1050.3  381534.41  176037.06  46.14
1054.2  381171.58  175924.67  46.15
1058.0  380777.19  175746.33  46.15
1061.8  380774.20  175776.87  46.16
1065.6  380101.87  175454.73  46.16
1069.4  379148.93  175014.54  46.16
1073.2  377728.53  174302.02  46.14
1077.0  376963.88  173861.91  46.12
1080.8  377241.67  173844.64  46.08
1084.6  377466.60  173832.17  46.05
1088.4  377860.56  173939.61  46.03
1092.2  377442.00  173623.82  46.00
1096.0  376776.23  173180.78  45.96
1099.8  376050.78  172688.26  45.92
1103.6  375087.13  172086.37  45.88
1107.4  373876.99  171364.09  45.83
1111.2  373589.90  171043.54  45.78
1114.9  373086.00  170590.42  45.72
1118.7  372873.60  170210.70  45.65
1122.5  372560.07  169720.57  45.56
1126.3  371670.48  168891.97  45.44
1130.1  371277.97  168111.15  45.28
1133.9  369567.10  166507.40  45.05
1137.7  367998.30  164759.03  44.77
1141.4  365903.20  162610.42  44.44
1145.2  364924.51  160831.54  44.07
1149.0  363594.58  159006.67  43.73
1152.8  361768.80  157102.46  43.43
1156.6  359898.00  155443.75  43.19
1160.3  358089.33  154043.91  43.02
1164.1  355745.33  152614.61  42.90
1167.9  354104.17  151632.29  42.82
1171.7  352792.13  150862.50  42.76
1175.4  351289.10  150050.33  42.71
1179.2  349828.95  149233.98  42.66
1183.0  349485.67  148880.24  42.60
1186.7  349540.80  148722.50  42.55
1190.5  349302.47  148461.28  42.50
1194.3  348402.20  147943.10  42.46
1198.0  346848.70  147204.95  42.44
1201.8  345105.53  146460.77  42.44
1205.6  344045.00  146095.10  42.46
1209.3  343570.08  146077.44  42.52
1213.1  343201.95  146123.56  42.58
1216.8  342625.98  146173.97  42.66
1220.6  341530.93  145959.73  42.74
1224.3  340271.92  145673.02  42.81
1228.1  338704.60  145264.43  42.89
1231.9  337084.95  144758.51  42.94
1235.6  335292.08  144159.16  43.00
1239.4  333685.50  143649.30  43.05
1243.1  332245.46  143152.85  43.09
1246.9  330960.99  142669.45  43.11
1250.6  329901.60  142254.89  43.12
1254.3  328711.17  141793.65  43.14
1258.1  327423.37  141250.43  43.14
1261.8  325910.53  140609.16  43.14
1265.6  324765.00  140068.71  43.13
1269.3  324096.83  139706.20  43.11
1273.1  324510.23  139773.36  43.07
1276.8  324195.20  139493.71  43.03
1280.6  322848.87  138772.96  42.98
1284.3  320751.20  137663.94  42.92
1288.0  319506.07  136873.17  42.84
1291.8  319148.75  136404.48  42.74
1295.5  318536.53  135787.35  42.63
1299.2  317371.25  134900.40  42.51
1302.9  315725.37  133723.28  42.35
1306.7  313902.17  132412.58  42.18
1310.4  312157.43  131006.05  41.97
1314.1  310526.52  129598.18  41.73
1317.9  309094.17  128134.55  41.45
1321.6  307524.91  126535.73  41.15
1325.3  305809.35  124779.75  40.80
1329.0  304489.85  123135.63  40.44
1332.8  302563.80  121145.20  40.04
1336.5  300921.27  119269.74  39.63
1340.2  300846.00  118031.33  39.23
1343.9  300927.29  116845.62  38.83
