/*** Spectra Vista SIG Data ***/
name= 11_20220926_CECA_30_avg.sig
comm= Averaged Ref/Tar of files: HR.092622.0029_moc.sig,HR.092622.0030_moc.sig,HR.092622.0031_moc.sig
data=
337.3  6317.33  494.69  7.83
338.8  6445.40  487.41  7.56
340.3  6805.80  491.53  7.22
341.8  7076.55  471.77  6.67
343.2  7550.13  473.73  6.27
344.7  7814.63  469.45  6.01
346.2  8225.00  460.60  5.60
347.7  8627.35  464.35  5.38
349.2  8920.80  463.68  5.20
350.6  9277.35  477.26  5.14
352.1  9834.25  471.67  4.80
353.6  10320.00  458.67  4.44
355.1  10843.58  470.11  4.34
356.6  11518.28  485.89  4.22
358.0  12031.75  498.16  4.14
359.5  12499.88  504.06  4.03
361.0  13164.60  521.84  3.96
362.5  13784.33  530.61  3.85
364.0  14483.20  550.66  3.80
365.4  15159.05  553.25  3.65
366.9  15819.10  570.64  3.61
368.4  16462.60  605.77  3.68
369.9  17225.00  621.87  3.61
371.3  18121.13  644.31  3.56
372.8  18857.85  664.96  3.53
374.3  19619.80  687.31  3.50
375.8  20496.10  697.29  3.40
377.2  21270.60  709.02  3.33
378.7  22176.18  730.43  3.29
380.2  22988.10  745.18  3.24
381.7  23895.75  766.63  3.21
383.1  24886.20  787.36  3.16
384.6  25814.33  785.12  3.04
386.1  26784.30  808.45  3.02
387.6  27707.03  827.18  2.99
389.0  28728.90  852.78  2.97
390.5  29758.30  887.89  2.98
392.0  30894.75  903.90  2.93
393.4  32006.63  924.75  2.89
394.9  32983.20  936.56  2.84
396.4  34155.00  971.52  2.84
397.9  35220.30  1002.00  2.84
399.3  36253.88  1025.96  2.83
400.8  37431.08  1051.38  2.81
402.2  38662.80  1071.84  2.77
403.7  39860.55  1101.76  2.76
405.2  41075.10  1124.84  2.74
406.6  42310.20  1171.76  2.77
408.1  43364.63  1179.87  2.72
409.6  44614.33  1203.40  2.70
411.0  45843.60  1251.29  2.73
412.5  47240.75  1286.79  2.72
414.0  48583.68  1334.76  2.75
415.4  49923.00  1367.40  2.74
416.9  51221.63  1410.94  2.75
418.4  52598.60  1457.84  2.77
419.8  53944.10  1508.27  2.80
421.3  55440.00  1561.56  2.82
422.7  56919.20  1608.88  2.83
424.2  58405.05  1669.34  2.86
425.7  59866.13  1720.40  2.87
427.1  61400.00  1784.69  2.91
428.6  62872.35  1841.53  2.93
430.0  64440.75  1898.89  2.95
431.5  66122.55  1966.90  2.97
432.9  67759.50  2027.87  2.99
434.4  69478.85  2081.22  3.00
435.9  71137.50  2142.71  3.01
437.3  72846.00  2208.10  3.03
438.8  74489.63  2270.16  3.05
440.2  76191.15  2329.37  3.06
441.7  78086.10  2392.01  3.06
443.1  79899.75  2458.98  3.08
444.6  81723.78  2525.75  3.09
446.0  83549.90  2591.08  3.10
447.5  85500.00  2653.33  3.10
448.9  87262.43  2718.49  3.12
450.4  89175.00  2790.00  3.13
451.8  90977.63  2854.20  3.14
453.3  92835.08  2921.79  3.15
454.7  94682.70  2993.37  3.16
456.2  96476.80  3052.37  3.16
457.6  98419.05  3112.20  3.16
459.1  100250.33  3162.46  3.15
460.5  102112.05  3226.40  3.16
462.0  104165.10  3292.08  3.16
463.4  106175.65  3361.26  3.17
464.8  108171.00  3420.06  3.16
466.3  110114.03  3476.43  3.16
467.7  112145.60  3536.00  3.15
469.2  114030.00  3594.66  3.15
470.6  116095.00  3663.68  3.16
472.0  118129.73  3721.16  3.15
473.5  120173.65  3789.41  3.15
474.9  122349.55  3849.65  3.15
476.4  124432.80  3921.65  3.15
477.8  126560.00  3994.67  3.16
479.2  128662.78  4061.76  3.16
480.7  130811.10  4129.11  3.16
482.1  133034.70  4203.64  3.16
483.6  135287.10  4278.00  3.16
485.0  137553.08  4349.18  3.16
486.4  139701.20  4432.11  3.17
487.9  141956.25  4520.00  3.18
489.3  144143.18  4593.48  3.19
490.7  146346.80  4688.56  3.20
492.2  148628.25  4782.13  3.22
493.6  150895.60  4875.15  3.23
495.0  153222.23  4987.71  3.26
496.5  155443.05  5095.44  3.28
497.9  157765.00  5217.22  3.31
499.3  160063.38  5345.85  3.34
500.7  162357.10  5482.65  3.38
502.2  164749.33  5633.71  3.42
503.6  167085.00  5797.92  3.47
505.0  169383.50  5982.24  3.53
506.5  171899.55  6197.25  3.61
507.9  174372.68  6434.67  3.69
509.3  176679.23  6686.55  3.78
510.7  179320.05  6982.04  3.89
512.2  182005.35  7321.99  4.02
513.6  184870.30  7718.64  4.18
515.0  187681.73  8161.91  4.35
516.4  190539.60  8654.75  4.54
517.8  193338.75  9203.23  4.76
519.3  196302.40  9810.13  5.00
520.7  198968.20  10453.37  5.25
522.1  201638.13  11149.67  5.53
523.5  204272.38  11878.11  5.81
524.9  207160.95  12633.21  6.10
526.3  209804.18  13368.87  6.37
527.8  212626.50  14110.22  6.64
529.2  215280.00  14841.60  6.89
530.6  218094.30  15564.48  7.14
532.0  221087.10  16253.34  7.35
533.4  223556.35  16854.55  7.54
534.8  226057.43  17394.41  7.69
536.3  229085.68  17946.00  7.83
537.7  232169.50  18442.93  7.94
539.1  235114.75  18910.41  8.04
540.5  237987.00  19340.90  8.13
541.9  240967.23  19769.58  8.20
543.3  243538.30  20162.17  8.28
544.7  246532.00  20583.20  8.35
546.1  249333.00  20988.24  8.42
547.5  252266.40  21398.40  8.48
549.0  255460.00  21813.39  8.54
550.4  258333.08  22178.52  8.59
551.8  261263.65  22505.25  8.61
553.2  264191.63  22768.16  8.62
554.6  267066.00  22958.59  8.60
556.0  270023.25  23075.50  8.55
557.4  273147.40  23126.45  8.47
558.8  276040.95  23091.75  8.37
560.2  279240.00  23018.67  8.24
561.6  282214.35  22861.41  8.10
563.0  285041.90  22640.54  7.94
564.4  288219.40  22405.79  7.77
565.8  291248.90  22110.54  7.59
567.2  294432.68  21780.42  7.40
568.6  297490.73  21390.93  7.19
570.0  300418.63  20961.63  6.98
571.4  303892.10  20563.00  6.77
572.8  307025.80  20150.24  6.56
574.2  309916.95  19759.95  6.38
575.6  312978.63  19407.72  6.20
577.0  316033.58  19094.83  6.04
578.4  319506.25  18844.58  5.90
579.8  322581.98  18616.58  5.77
581.2  325695.50  18423.00  5.66
582.5  328590.00  18252.00  5.55
583.9  331669.70  18108.55  5.46
585.3  334591.90  17987.19  5.38
586.7  337606.50  17885.56  5.30
588.1  340622.70  17807.41  5.23
589.5  343994.85  17769.26  5.17
590.9  346963.48  17744.86  5.11
592.3  349954.20  17738.46  5.07
593.7  352907.10  17760.49  5.03
595.0  355863.60  17794.00  5.00
596.4  359195.00  17850.30  4.97
597.8  361891.80  17877.89  4.94
599.2  365040.00  17920.76  4.91
600.6  368254.43  17946.83  4.87
602.0  371236.20  17953.36  4.84
603.3  374114.00  17919.20  4.79
604.7  377167.95  17878.46  4.74
606.1  380207.48  17794.73  4.68
607.5  383583.93  17706.20  4.62
608.9  386678.60  17582.18  4.55
610.2  389862.00  17456.67  4.48
611.6  392782.50  17310.33  4.41
613.0  395608.03  17156.23  4.34
614.4  398405.98  17019.36  4.27
615.8  401717.60  16912.45  4.21
617.1  404464.25  16795.76  4.15
618.5  407728.20  16729.06  4.10
619.9  410439.90  16659.02  4.06
621.3  413425.03  16626.09  4.02
622.6  416373.75  16621.80  3.99
624.0  419134.50  16633.45  3.97
625.4  422253.00  16677.59  3.95
626.8  425256.00  16741.40  3.94
628.1  428094.45  16808.54  3.93
629.5  430843.35  16889.11  3.92
630.9  433735.65  16953.77  3.91
632.2  436830.75  17025.87  3.90
633.6  439296.98  17051.49  3.88
635.0  442293.68  17054.67  3.86
636.3  445341.20  17029.83  3.82
637.7  448087.95  16951.32  3.78
639.1  451113.30  16855.52  3.74
640.4  453823.38  16711.67  3.68
641.8  456672.60  16566.48  3.63
643.2  459307.70  16404.34  3.57
644.5  462210.00  16258.67  3.52
645.9  464923.20  16133.74  3.47
647.2  467903.98  16039.36  3.43
648.6  470799.20  15949.39  3.39
650.0  473616.00  15903.12  3.36
651.3  476035.60  15862.01  3.33
652.7  479360.25  15865.10  3.31
654.0  482262.30  15850.31  3.29
655.4  484597.58  15820.63  3.26
656.8  486253.43  15768.34  3.24
658.1  488824.35  15733.48  3.22
659.5  492134.40  15696.00  3.19
660.8  495376.35  15670.20  3.16
662.2  498058.78  15590.36  3.13
663.5  500869.55  15533.21  3.10
664.9  502947.98  15485.31  3.08
666.2  505067.23  15457.56  3.06
667.6  507656.25  15481.20  3.05
668.9  510451.20  15557.76  3.05
670.3  513213.75  15635.08  3.05
671.6  515626.40  15733.23  3.05
673.0  517958.40  15880.21  3.07
674.3  520396.80  16047.83  3.08
675.7  522954.90  16237.56  3.10
677.0  525321.23  16462.12  3.13
678.4  527584.40  16711.20  3.17
679.7  530008.20  17019.49  3.21
681.1  532617.80  17358.89  3.26
682.4  534814.88  17724.05  3.31
683.8  537230.25  18119.55  3.37
685.1  539497.05  18581.78  3.44
686.4  541681.73  19096.31  3.53
687.8  544234.28  19738.61  3.63
689.1  546645.40  20541.55  3.76
690.5  548651.40  21539.27  3.93
691.8  551344.75  22934.56  4.16
693.1  553798.50  24777.60  4.47
694.5  556169.90  27210.53  4.89
695.8  558660.80  30321.97  5.43
697.1  560933.20  34185.05  6.09
698.5  563286.00  38843.70  6.90
699.8  565710.00  44326.67  7.84
701.1  567564.38  50517.95  8.90
702.5  569687.25  57388.02  10.07
703.8  572193.28  64860.41  11.34
705.1  574110.75  72716.38  12.67
706.5  576429.65  81026.95  14.06
707.8  578342.05  89583.79  15.49
709.1  580622.38  98446.94  16.96
710.5  582859.68  107510.87  18.45
711.8  584843.00  116702.00  19.95
713.1  586821.00  126047.33  21.48
714.4  588926.20  135540.22  23.01
715.8  591247.45  145157.01  24.55
717.1  593528.25  154804.94  26.08
718.4  595810.20  164439.23  27.60
719.7  598049.10  174006.87  29.10
721.0  599818.03  183344.71  30.57
722.4  601715.25  192583.80  32.01
723.7  603726.80  201651.53  33.40
725.0  605491.78  210411.58  34.75
726.3  607838.40  219072.88  36.04
727.6  609588.00  227256.20  37.28
729.0  611454.20  235146.43  38.46
730.3  613477.10  242734.17  39.57
731.6  615040.20  249751.76  40.61
732.9  617045.33  256606.05  41.59
734.2  618733.50  262963.25  42.50
735.5  620566.10  269006.32  43.35
736.8  622626.20  274793.80  44.13
738.1  624509.10  280128.45  44.86
739.5  626313.00  285099.18  45.52
740.8  628275.45  289826.90  46.13
742.1  629888.13  294098.74  46.69
743.4  631671.60  298159.63  47.20
744.7  633619.00  302029.47  47.67
746.0  635108.70  305407.25  48.09
747.3  636706.70  308564.11  48.46
748.6  638259.05  311498.37  48.80
749.9  640126.60  314320.13  49.10
751.2  641469.40  316717.87  49.37
752.5  643100.60  319055.92  49.61
753.8  644472.90  321134.70  49.83
755.1  646185.78  323185.88  50.01
756.4  647373.13  324833.51  50.18
757.7  649419.38  326807.43  50.32
759.0  653095.35  329471.47  50.45
760.3  655870.65  331590.22  50.56
761.6  658772.48  333683.90  50.65
762.9  660283.25  334978.23  50.73
764.2  661079.00  335864.57  50.81
765.5  662055.73  336727.68  50.86
766.8  662621.05  337382.03  50.92
768.1  663805.80  338257.50  50.96
769.3  665085.25  339181.77  51.00
770.6  666566.05  340134.31  51.03
771.9  667784.38  340965.65  51.06
773.2  669289.73  341889.99  51.08
774.5  670281.00  342540.82  51.10
775.8  671401.08  343267.13  51.13
777.1  672666.90  344020.42  51.14
778.4  673982.00  344820.32  51.16
779.6  675411.00  345607.12  51.17
780.9  676100.93  346070.34  51.19
782.2  677237.88  346679.46  51.19
783.5  678162.50  347267.00  51.21
784.8  679037.63  347784.15  51.22
786.0  679879.53  348298.15  51.23
787.3  680830.33  348809.13  51.23
788.6  681821.13  349366.53  51.24
789.9  682552.70  349809.57  51.25
791.2  683961.20  350596.09  51.26
792.4  685154.25  351267.03  51.27
793.7  686767.53  352148.82  51.28
795.0  687916.80  352760.83  51.28
796.2  689361.90  353513.41  51.28
797.5  690651.25  354204.58  51.29
798.8  692148.63  355016.78  51.29
800.0  693350.00  355665.33  51.30
801.3  694575.00  356350.05  51.30
802.6  695664.00  356928.00  51.31
803.8  696911.25  357558.04  51.31
805.1  697971.00  358165.70  51.32
806.4  699015.15  358731.00  51.32
807.7  700202.38  359394.39  51.33
808.9  701504.68  360034.82  51.32
810.2  702408.00  360559.08  51.33
811.4  703526.40  361114.13  51.33
812.7  704915.80  361880.20  51.34
814.0  706224.75  362585.30  51.34
815.2  707681.25  363393.98  51.35
816.5  708890.00  364043.17  51.35
817.7  709722.00  364499.20  51.36
819.0  710442.60  364885.73  51.36
820.2  711354.45  365367.94  51.36
821.5  712497.00  365997.23  51.37
822.7  713490.75  366561.44  51.38
824.0  714487.80  367086.03  51.38
825.2  715236.60  367455.40  51.38
826.5  716019.75  367907.29  51.38
827.7  717161.18  368471.05  51.38
829.0  718094.55  368991.50  51.38
830.2  719104.20  369470.67  51.38
831.5  719970.98  369984.81  51.39
832.7  720914.40  370492.20  51.39
834.0  721527.08  370857.51  51.40
835.2  722468.35  371440.75  51.41
836.4  723250.00  371846.93  51.41
837.7  724078.13  372252.75  51.41
838.9  725238.75  372901.29  51.42
840.1  726202.95  373393.68  51.42
841.4  727142.50  373988.95  51.43
842.6  727958.00  374491.41  51.44
843.8  728794.30  374945.13  51.45
845.1  729610.20  375379.84  51.45
846.3  730528.05  375867.38  51.45
847.5  731480.75  376350.43  51.45
848.8  732422.05  376874.13  51.46
850.0  733515.00  377490.96  51.46
851.2  734551.00  377988.75  51.46
852.5  735781.90  378656.32  51.46
853.7  736290.68  379005.12  51.47
854.9  737388.60  379616.64  51.48
856.1  738513.00  380144.49  51.47
857.4  739438.43  380591.86  51.47
858.6  740517.40  381127.23  51.47
859.8  741557.30  381730.61  51.48
861.0  742548.80  382242.19  51.48
862.2  743599.50  382760.28  51.47
863.5  744690.10  383248.97  51.46
864.7  745487.50  383774.17  51.48
865.9  746500.63  384274.58  51.48
867.1  747300.00  384616.67  51.47
868.3  748447.95  385229.69  51.47
869.5  749750.00  385831.35  51.46
870.8  750819.15  386363.76  51.46
872.0  751813.88  386866.10  51.46
873.2  752625.65  387333.16  51.46
874.4  753475.15  387701.29  51.46
875.6  754733.25  388305.25  51.45
876.8  756076.20  389049.54  51.46
878.0  757097.60  389546.59  51.45
879.2  758239.10  390045.28  51.44
880.4  759284.00  390609.07  51.44
881.6  760419.10  391005.52  51.42
882.8  761653.95  391704.51  51.43
884.0  762487.38  392126.54  51.43
885.2  764086.25  392829.20  51.41
886.5  765452.63  393526.82  51.41
887.7  766335.78  393968.99  51.41
888.8  767896.40  394617.46  51.39
890.0  768810.00  395038.00  51.38
891.2  770040.38  395541.90  51.37
892.4  771380.78  396238.70  51.37
893.6  773226.93  397100.82  51.36
894.8  774788.40  397973.64  51.37
896.0  776275.10  398693.21  51.36
897.2  778444.43  399533.31  51.32
898.4  780374.70  400501.36  51.32
899.6  781668.20  401082.55  51.31
900.8  782063.75  401312.43  51.31
902.0  782745.70  401613.45  51.31
903.2  783146.40  401686.68  51.29
904.3  784265.63  402187.50  51.28
905.5  785639.25  402821.10  51.27
906.7  786810.55  403434.58  51.27
907.9  787959.33  403902.79  51.26
909.1  789149.90  404388.86  51.24
910.2  789547.50  404554.50  51.24
911.4  789995.03  404652.21  51.22
912.6  790550.00  404910.33  51.22
913.8  791542.85  405359.17  51.21
915.0  792094.40  405557.65  51.20
916.2  792570.68  405535.79  51.17
917.3  793125.75  405854.51  51.17
918.5  793627.35  406076.56  51.17
919.7  793767.75  406036.33  51.15
920.8  793869.93  406175.07  51.16
922.0  794213.75  406063.09  51.13
923.2  794866.35  406216.53  51.11
924.4  795573.50  406491.22  51.09
925.5  796623.40  406795.17  51.06
926.7  797374.68  407161.16  51.06
927.9  798714.23  407827.01  51.06
929.0  801967.50  409351.68  51.04
930.2  806337.20  411474.13  51.03
931.4  811810.60  413876.25  50.98
932.5  816486.55  416098.32  50.96
933.7  819246.30  417310.22  50.94
934.9  821030.00  417896.50  50.90
936.0  820030.95  417346.95  50.89
937.2  817085.88  415625.45  50.87
938.3  813442.50  413438.57  50.83
939.5  811266.30  412181.64  50.81
940.7  811129.55  411973.87  50.79
941.8  814069.75  413259.08  50.76
943.0  816422.85  414123.37  50.72
944.2  818376.00  414800.00  50.69
945.3  818194.20  414284.32  50.63
946.5  816462.50  413172.67  50.61
947.6  817554.00  413370.00  50.56
948.8  816668.43  412523.25  50.51
949.9  816999.58  412394.03  50.48
951.1  817230.48  412173.08  50.44
952.2  816681.58  411468.74  50.38
953.4  816854.55  410829.38  50.29
954.5  815243.63  409608.15  50.24
955.7  814995.60  408987.95  50.18
956.8  815667.98  408870.17  50.13
958.0  814886.55  407962.50  50.06
959.1  814212.00  407332.80  50.03
960.3  814000.00  407000.00  50.00
961.4  814717.50  407122.60  49.97
962.6  814773.60  406566.72  49.90
963.7  814935.80  406495.97  49.88
964.9  815286.83  406411.96  49.85
966.0  815946.60  406589.17  49.83
967.2  816102.00  406593.04  49.82
968.3  817432.80  407251.47  49.82
969.5  818062.10  407142.63  49.77
970.6  818319.30  407247.51  49.77
971.8  817865.30  407152.92  49.78
972.9  818482.00  407382.73  49.77
974.0  818967.95  407764.01  49.79
975.2  818488.13  407191.50  49.75
976.3  819253.13  407417.61  49.73
977.5  818448.15  407125.49  49.74
978.6  818464.43  407254.46  49.76
979.7  817555.20  406707.84  49.75
980.9  818590.78  407125.92  49.73
982.0  817846.10  407036.21  49.77
983.2  817597.20  407064.93  49.79
984.3  816486.30  406251.72  49.76
985.4  815453.10  405883.05  49.77
986.6  815668.30  406166.12  49.80
987.7  814644.38  405688.48  49.80
988.9  816967.95  406331.60  49.74
990.0  816766.80  406213.25  49.73
993.1  845773.80  417700.80  49.39
996.9  846229.70  418969.82  49.51
1000.7  846202.95  419863.41  49.62
1004.5  845263.07  420138.60  49.71
1008.4  845939.36  421355.67  49.81
1012.2  846899.71  422662.63  49.91
1016.0  846651.85  423339.99  50.00
1019.8  845527.65  423522.42  50.09
1023.7  844694.37  423687.70  50.16
1027.5  842954.13  423406.31  50.23
1031.3  842176.12  423329.96  50.27
1035.1  841727.03  423353.20  50.30
1038.9  841574.23  423479.72  50.32
1042.7  841208.80  423535.73  50.35
1046.5  840489.13  423283.86  50.36
1050.3  838892.45  422578.48  50.37
1054.2  836917.68  421704.02  50.39
1058.0  835916.40  421244.11  50.39
1061.8  834685.75  420690.70  50.40
1065.6  833110.42  419799.64  50.39
1069.4  831325.57  418803.35  50.38
1073.2  829814.38  417966.12  50.37
1077.0  828355.73  417109.99  50.35
1080.8  827295.33  416356.69  50.33
1084.6  826074.33  415464.09  50.29
1088.4  824707.10  414511.91  50.26
1092.2  823255.07  413407.20  50.22
1096.0  821889.00  412399.18  50.18
1099.8  820571.63  411275.03  50.12
1103.6  819003.70  410005.38  50.06
1107.4  817609.95  408858.38  50.01
1111.2  816213.00  407636.19  49.94
1114.9  814998.00  406461.31  49.87
1118.7  814179.75  405301.49  49.78
1122.5  813888.40  404293.00  49.67
1126.3  811386.45  401941.20  49.54
1130.1  810763.45  400096.84  49.35
1133.9  807467.57  396385.01  49.09
1137.7  804922.80  392595.95  48.77
1141.4  801402.98  387902.78  48.40
1145.2  800543.41  384200.72  47.99
1149.0  798630.30  380158.94  47.60
1152.8  795430.25  375866.50  47.25
1156.6  792127.18  372122.96  46.98
1160.3  788976.60  369089.28  46.78
1164.1  784373.87  365868.35  46.64
1167.9  781257.08  363693.84  46.55
1171.7  778752.20  362008.63  46.49
1175.4  776598.33  360585.46  46.43
1179.2  774734.25  359352.13  46.38
1183.0  774884.13  358977.68  46.33
1186.7  774571.00  358408.15  46.27
1190.5  772820.96  357187.99  46.22
1194.3  769877.85  355498.24  46.18
1198.0  766984.18  353960.36  46.15
1201.8  764558.67  352829.48  46.15
1205.6  762897.21  352266.87  46.17
1209.3  761589.00  352085.80  46.23
1213.1  760075.67  351845.01  46.29
1216.8  758112.27  351509.25  46.37
1220.6  755983.67  351105.78  46.44
1224.3  753729.17  350643.92  46.52
1228.1  751724.28  350328.02  46.60
1231.9  749626.15  349863.42  46.67
1235.6  747359.25  349179.53  46.72
1239.4  745157.32  348582.30  46.78
1243.1  742999.50  347898.70  46.82
1246.9  740979.80  347190.82  46.86
1250.6  738989.90  346404.18  46.88
1254.3  737133.60  345614.86  46.89
1258.1  735212.67  344764.90  46.89
1261.8  732776.10  343631.18  46.89
1265.6  730213.38  342365.00  46.89
1269.3  727449.53  340918.42  46.86
1273.1  727790.83  340805.26  46.83
1276.8  728320.00  340691.31  46.78
1280.6  728100.58  340214.49  46.73
1284.3  725741.33  338639.36  46.66
1288.0  723613.69  337058.89  46.58
1291.8  721564.20  335328.60  46.47
1295.5  719542.55  333498.92  46.35
1299.2  717213.90  331411.66  46.21
1302.9  714477.59  328939.65  46.04
1306.7  711531.45  326204.40  45.85
1310.4  708663.93  323213.57  45.61
1314.1  706336.88  320308.33  45.35
1317.9  703958.56  317099.95  45.05
1321.6  701214.15  313514.85  44.71
1325.3  698363.78  309591.74  44.33
1329.0  695633.40  305593.61  43.93
1332.8  691795.00  300858.89  43.49
1336.5  688170.58  296159.68  43.04
1340.2  686226.85  292147.22  42.57
