/*** Spectra Vista SIG Data ***/
name= 28_20220721_TITO_18_avg.sig
comm= Averaged Ref/Tar of files: HR.072122.0006_moc.sig,HR.072122.0007_moc.sig,HR.072122.0008_moc.sig
data=
337.3  3374.50  310.98  9.22
338.8  3511.30  307.84  8.77
340.3  3701.15  306.09  8.27
341.8  3886.63  298.74  7.69
343.2  4129.20  307.84  7.46
344.7  4265.00  301.39  7.07
346.2  4452.65  294.12  6.61
347.7  4679.68  288.38  6.16
349.2  4914.00  277.20  5.64
350.6  5141.50  279.11  5.43
352.1  5430.20  276.27  5.09
353.6  5690.80  282.23  4.96
355.1  5960.48  291.85  4.90
356.6  6292.80  305.90  4.86
358.0  6571.40  314.75  4.79
359.5  6859.80  317.24  4.62
361.0  7182.00  311.22  4.33
362.5  7552.95  327.88  4.34
364.0  7914.30  340.28  4.30
365.4  8289.50  340.95  4.11
366.9  8646.63  346.23  4.00
368.4  8973.48  360.03  4.01
369.9  9350.65  378.35  4.05
371.3  9745.50  388.04  3.98
372.8  10142.10  403.56  3.98
374.3  10561.88  412.08  3.90
375.8  10995.60  420.42  3.82
377.2  11405.60  430.40  3.77
378.7  11782.20  441.16  3.74
380.2  12158.80  444.75  3.66
381.7  12701.75  457.62  3.60
383.1  13178.55  463.54  3.52
384.6  13676.33  478.36  3.50
386.1  14107.05  493.66  3.50
387.6  14579.95  499.47  3.43
389.0  15034.80  510.99  3.40
390.5  15505.20  520.38  3.36
392.0  16055.15  536.05  3.34
393.4  16605.80  546.52  3.29
394.9  17173.80  567.24  3.30
396.4  17698.50  576.15  3.26
397.9  18245.00  597.92  3.28
399.3  18765.83  597.67  3.18
400.8  19341.80  614.82  3.18
402.2  19959.15  635.03  3.18
403.7  20560.05  648.42  3.15
405.2  21141.78  666.06  3.15
406.6  21715.20  683.63  3.15
408.1  22328.80  693.07  3.10
409.6  22937.75  702.40  3.06
411.0  23570.40  725.90  3.08
412.5  24219.48  744.15  3.07
414.0  24857.50  760.67  3.06
415.4  25559.25  784.40  3.07
416.9  26233.28  804.41  3.07
418.4  26910.68  819.21  3.04
419.8  27627.60  842.05  3.05
421.3  28323.93  865.11  3.05
422.7  29110.20  888.56  3.05
424.2  29885.63  906.75  3.03
425.7  30644.00  932.36  3.04
427.1  31365.15  953.72  3.04
428.6  32147.00  981.67  3.05
430.0  32884.23  1001.55  3.05
431.5  33730.50  1030.82  3.06
432.9  34603.30  1056.75  3.05
434.4  35483.03  1081.06  3.05
435.9  36288.00  1110.67  3.06
437.3  37125.00  1133.00  3.05
438.8  37942.13  1160.21  3.06
440.2  38781.05  1189.39  3.07
441.7  39731.00  1218.51  3.07
443.1  40637.75  1245.50  3.06
444.6  41579.40  1283.80  3.09
446.0  42493.13  1309.61  3.08
447.5  43440.93  1342.48  3.09
448.9  44350.20  1374.28  3.10
450.4  45325.00  1408.96  3.11
451.8  46176.00  1440.40  3.12
453.3  47070.00  1473.12  3.13
454.7  48062.40  1503.71  3.13
456.2  48919.28  1530.57  3.13
457.6  49887.45  1559.37  3.13
459.1  50834.88  1595.45  3.14
460.5  51747.88  1628.18  3.15
462.0  52774.55  1666.28  3.16
463.4  53786.20  1696.97  3.16
464.8  54764.63  1726.05  3.15
466.3  55749.38  1757.80  3.15
467.7  56722.25  1788.46  3.15
469.2  57763.80  1822.24  3.15
470.6  58714.95  1858.35  3.17
472.0  59734.30  1891.68  3.17
473.5  60709.25  1924.77  3.17
474.9  61716.75  1955.10  3.17
476.4  62856.00  1991.04  3.17
477.8  63916.00  2028.07  3.17
479.2  64916.50  2064.80  3.18
480.7  66006.00  2105.63  3.19
482.1  67105.80  2144.38  3.20
483.6  68261.80  2182.91  3.20
485.0  69349.73  2213.71  3.19
486.4  70509.30  2262.04  3.21
487.9  71574.75  2301.00  3.21
489.3  72726.78  2346.18  3.23
490.7  73786.98  2393.30  3.24
492.2  74999.40  2442.16  3.26
493.6  76077.45  2486.59  3.27
495.0  77176.13  2538.90  3.29
496.5  78335.15  2596.50  3.31
497.9  79421.10  2651.28  3.34
499.3  80551.08  2713.90  3.37
500.7  81790.95  2791.31  3.41
502.2  82913.40  2865.49  3.46
503.6  84110.60  2945.31  3.50
505.0  85145.80  3035.48  3.57
506.5  86433.75  3146.09  3.64
507.9  87630.58  3265.45  3.73
509.3  88992.40  3407.95  3.83
510.7  90236.25  3564.60  3.95
512.2  91612.28  3744.20  4.09
513.6  93045.40  3954.86  4.25
515.0  94439.78  4191.63  4.44
516.4  95766.30  4460.40  4.66
517.8  97335.38  4766.72  4.90
519.3  98609.45  5098.90  5.17
520.7  100120.30  5462.64  5.46
522.1  101388.63  5841.55  5.76
523.5  102734.90  6240.17  6.07
524.9  104164.65  6653.22  6.39
526.3  105544.25  7054.46  6.68
527.8  106979.40  7458.66  6.97
529.2  108084.60  7839.39  7.25
530.6  109545.45  8244.21  7.53
532.0  111174.00  8622.13  7.76
533.4  112509.60  8937.78  7.94
534.8  113470.50  9201.07  8.11
536.3  115132.50  9490.96  8.24
537.7  117041.40  9787.68  8.36
539.1  118418.60  10019.40  8.46
540.5  119596.25  10220.01  8.55
541.9  121282.50  10464.05  8.63
543.3  122532.95  10665.98  8.70
544.7  123792.60  10863.44  8.78
546.1  125513.30  11100.61  8.84
547.5  126705.60  11285.12  8.91
549.0  128414.00  11506.00  8.96
550.4  129880.00  11690.33  9.00
551.8  131362.53  11842.73  9.02
553.2  132854.43  11970.83  9.01
554.6  134160.00  12039.04  8.97
556.0  135647.10  12083.28  8.91
557.4  137198.60  12095.39  8.82
558.8  138793.50  12073.62  8.70
560.2  140197.38  12000.42  8.56
561.6  141811.28  11913.69  8.40
563.0  143339.90  11789.26  8.22
564.4  144862.05  11631.73  8.03
565.8  146327.50  11445.25  7.82
567.2  148006.00  11248.80  7.60
568.6  149476.88  11017.10  7.37
570.0  150862.35  10765.74  7.14
571.4  152534.20  10537.28  6.91
572.8  154214.75  10321.03  6.69
574.2  155792.00  10112.85  6.49
575.6  157286.25  9918.00  6.31
577.0  158753.70  9749.64  6.14
578.4  160444.38  9617.18  5.99
579.8  161889.30  9486.00  5.86
581.2  163566.33  9388.10  5.74
582.5  164923.20  9288.24  5.63
583.9  166391.80  9211.87  5.54
585.3  168142.50  9158.40  5.45
586.7  169552.50  9103.73  5.37
588.1  171011.00  9063.03  5.30
589.5  172590.25  9048.67  5.24
590.9  174170.40  9045.39  5.19
592.3  175925.90  9056.08  5.15
593.7  177310.58  9070.23  5.12
595.0  178895.93  9090.36  5.08
596.4  180289.90  9102.99  5.05
597.8  181716.35  9121.12  5.02
599.2  183216.00  9134.40  4.99
600.6  184897.70  9146.28  4.95
602.0  186164.48  9127.21  4.90
603.3  187897.85  9116.44  4.85
604.7  189508.15  9089.32  4.80
606.1  190950.60  9038.08  4.73
607.5  192540.98  8982.55  4.67
608.9  194171.00  8918.94  4.59
610.2  195515.78  8837.64  4.52
611.6  197040.38  8770.72  4.45
613.0  198557.45  8700.83  4.38
614.4  199902.45  8633.00  4.32
615.8  201298.50  8570.25  4.26
617.1  202771.80  8524.04  4.20
618.5  204358.40  8489.28  4.15
619.9  205800.83  8463.47  4.11
621.3  207371.70  8456.07  4.08
622.6  208894.50  8460.70  4.05
624.0  210274.50  8472.78  4.03
625.4  211675.20  8493.76  4.01
626.8  213187.98  8529.43  4.00
628.1  214462.05  8562.47  3.99
629.5  216262.68  8628.25  3.99
630.9  217823.38  8676.03  3.98
632.2  219164.23  8711.57  3.97
633.6  220741.25  8742.88  3.96
635.0  222224.00  8755.95  3.94
636.3  223689.00  8749.19  3.91
637.7  225006.25  8722.25  3.88
639.1  226590.00  8694.00  3.84
640.4  228025.18  8651.32  3.79
641.8  229176.03  8586.90  3.75
643.2  230701.98  8536.64  3.70
644.5  232012.25  8470.43  3.65
645.9  233669.25  8427.96  3.61
647.2  235519.03  8410.80  3.57
648.6  237370.50  8397.00  3.54
650.0  238831.20  8386.56  3.51
651.3  239183.18  8356.99  3.49
652.7  240088.80  8337.95  3.47
654.0  241938.50  8366.13  3.46
655.4  243464.75  8366.02  3.44
656.8  243866.10  8323.33  3.41
658.1  245205.40  8314.25  3.39
659.5  247467.15  8331.68  3.37
660.8  249120.00  8346.00  3.35
662.2  249984.00  8332.80  3.33
663.5  251513.25  8349.07  3.32
664.9  252824.00  8368.53  3.31
666.2  253546.20  8376.80  3.30
667.6  255219.40  8444.80  3.31
668.9  256311.98  8505.44  3.32
670.3  257446.75  8577.08  3.33
671.6  258951.00  8673.00  3.35
673.0  260057.25  8785.10  3.38
674.3  261266.20  8913.67  3.41
675.7  262537.98  9044.86  3.45
677.0  263639.25  9180.02  3.48
678.4  264982.78  9338.60  3.52
679.7  266039.98  9505.99  3.57
681.1  267284.10  9695.34  3.63
682.4  268404.50  9889.01  3.68
683.8  269642.10  10098.23  3.75
685.1  270588.75  10319.10  3.81
686.4  271905.60  10579.04  3.89
687.8  273185.50  10878.77  3.98
689.1  274186.75  11240.70  4.10
690.5  275486.10  11735.24  4.26
691.8  276262.70  12376.23  4.48
693.1  277530.45  13281.96  4.79
694.5  278687.50  14475.07  5.19
695.8  279893.25  16006.90  5.72
697.1  281076.25  17933.07  6.38
698.5  282115.60  20272.61  7.19
699.8  283165.40  23058.96  8.14
701.1  284253.80  26278.81  9.24
702.5  285009.45  29859.21  10.48
703.8  285952.50  33807.00  11.82
705.1  287107.28  38092.60  13.27
706.5  288122.88  42613.93  14.79
707.8  289074.90  47358.16  16.38
709.1  289934.78  52255.38  18.02
710.5  291051.03  57348.46  19.70
711.8  291907.00  62511.36  21.41
713.1  292888.20  67806.87  23.15
714.4  293780.20  73158.87  24.90
715.8  294605.30  78543.57  26.66
717.1  295869.30  84083.68  28.42
718.4  296777.60  89522.35  30.16
719.7  297883.65  94982.35  31.89
721.0  298395.00  100212.00  33.58
722.4  299148.30  105440.79  35.25
723.7  300089.85  110628.64  36.87
725.0  301128.98  115733.88  38.43
726.3  302043.23  120655.99  39.95
727.6  302591.03  125263.60  41.40
729.0  303481.15  129850.26  42.79
730.3  304229.33  134165.14  44.10
731.6  305140.15  138347.49  45.34
732.9  305903.33  142278.52  46.51
734.2  306703.38  146028.30  47.61
735.5  307707.00  149669.19  48.64
736.8  308455.50  152997.72  49.60
738.1  309289.90  156153.04  50.49
739.5  310237.78  159168.20  51.31
740.8  310881.45  161874.39  52.07
742.1  311644.73  164476.27  52.78
743.4  312400.00  166910.00  53.43
744.7  313378.40  169306.91  54.03
746.0  314213.25  171470.78  54.57
747.3  314748.78  173311.35  55.06
748.6  315437.50  175103.43  55.51
749.9  316186.00  176786.13  55.91
751.2  316938.00  178346.49  56.27
752.5  317853.25  179898.05  56.60
753.8  318506.13  181183.01  56.89
755.1  319202.00  182402.13  57.14
756.4  319804.20  183459.69  57.37
757.7  320722.50  184638.81  57.57
759.0  322488.83  186214.98  57.74
760.3  323637.60  187390.72  57.90
761.6  325185.00  188725.23  58.04
762.9  325734.75  189425.67  58.15
764.2  326135.60  189989.32  58.25
765.5  326434.98  190461.39  58.35
766.8  326862.40  190976.64  58.43
768.1  327375.20  191515.04  58.50
769.3  327984.30  192056.90  58.56
770.6  328608.15  192620.22  58.62
771.9  329365.75  193212.88  58.66
773.2  329752.40  193581.97  58.71
774.5  330387.20  194060.53  58.74
775.8  331082.60  194579.79  58.77
777.1  331668.70  195025.16  58.80
778.4  332002.28  195315.30  58.83
779.6  332801.10  195852.08  58.85
780.9  333270.00  196208.00  58.87
782.2  333718.00  196568.53  58.90
783.5  334066.50  196834.80  58.92
784.8  334605.38  197218.35  58.94
786.0  335018.25  197520.07  58.96
787.3  335397.60  197809.88  58.98
788.6  335849.23  198121.23  58.99
789.9  336329.00  198446.45  59.00
791.2  336988.38  198889.92  59.02
792.4  337664.00  199349.26  59.04
793.7  338141.60  199674.11  59.05
795.0  338757.38  200090.66  59.07
796.2  339443.55  200517.43  59.07
797.5  340200.83  200983.67  59.08
798.8  340872.33  201430.64  59.09
800.0  341552.45  201872.93  59.10
801.3  342047.50  202188.88  59.11
802.6  342691.20  202587.81  59.12
803.8  343311.13  203010.20  59.13
805.1  343817.25  203345.57  59.14
806.4  344309.70  203647.04  59.15
807.7  344812.95  204025.23  59.17
808.9  345408.60  204409.60  59.18
810.2  345943.85  204747.71  59.19
811.4  346464.00  205082.09  59.19
812.7  347059.38  205475.83  59.20
814.0  347923.25  206007.87  59.21
815.2  348570.75  206417.57  59.22
816.5  349022.40  206719.11  59.23
817.7  349484.60  207034.06  59.24
819.0  349989.75  207389.75  59.26
820.2  350152.00  207527.47  59.27
821.5  350859.70  207985.65  59.28
822.7  351198.18  208234.82  59.29
824.0  351548.10  208477.80  59.30
825.2  352013.85  208811.25  59.32
826.5  352340.58  209031.14  59.33
827.7  352887.70  209376.19  59.33
829.0  353256.25  209640.94  59.35
830.2  353567.50  209859.21  59.35
831.5  354059.00  210188.68  59.37
832.7  354387.08  210415.31  59.37
834.0  354730.05  210651.79  59.38
835.2  355121.53  210905.38  59.39
836.4  355364.35  211130.85  59.41
837.7  355714.60  211423.36  59.44
838.9  356170.03  211715.64  59.44
840.1  356543.10  212013.54  59.46
841.4  356990.60  212320.45  59.48
842.6  357319.60  212588.40  59.50
843.8  357753.00  212850.83  59.50
845.1  358177.25  213185.20  59.52
846.3  358556.60  213475.20  59.54
847.5  359005.50  213759.00  59.54
848.8  359428.80  214050.48  59.55
850.0  359798.95  214288.06  59.56
851.2  360332.55  214655.58  59.57
852.5  360658.70  214959.19  59.60
853.7  361093.50  215290.20  59.62
854.9  361567.00  215574.13  59.62
856.1  362065.60  215900.36  59.63
857.4  362321.15  216045.23  59.63
858.6  362815.25  216348.19  59.63
859.8  363178.13  216644.25  59.65
861.0  363565.80  216974.16  59.68
862.2  364046.15  217281.01  59.69
863.5  364511.88  217533.98  59.68
864.7  365032.80  217867.76  59.68
865.9  365458.60  218125.23  59.69
867.1  365781.95  218337.15  59.69
868.3  366241.05  218621.88  59.69
869.5  366675.55  218961.36  59.72
870.8  367200.00  219310.20  59.73
872.0  367757.70  219633.93  59.72
873.2  368242.80  219924.52  59.72
874.4  368734.28  220192.83  59.72
875.6  369118.93  220413.01  59.71
876.8  369538.30  220733.67  59.73
878.0  369956.15  221053.77  59.75
879.2  370519.95  221380.78  59.75
880.4  371044.13  221717.75  59.76
881.6  371537.98  222003.74  59.75
882.8  372017.60  222240.43  59.74
884.0  372618.80  222636.27  59.75
885.2  373163.50  222933.40  59.74
886.5  373703.10  223321.51  59.76
887.7  374233.93  223634.10  59.76
888.8  374957.70  224025.36  59.75
890.0  375531.90  224333.01  59.74
891.2  376111.80  224705.09  59.74
892.4  376679.10  225069.88  59.75
893.6  377306.60  225420.46  59.74
894.8  378292.50  225971.93  59.73
896.0  379234.25  226501.73  59.73
897.2  379928.25  226996.47  59.75
898.4  380658.30  227419.72  59.74
899.6  381221.25  227777.10  59.75
900.8  381743.93  228027.25  59.73
902.0  382025.40  228174.26  59.73
903.2  382333.58  228380.01  59.73
904.3  382707.60  228626.32  59.74
905.5  383276.48  228974.81  59.74
906.7  383970.50  229330.53  59.73
907.9  384601.00  229670.51  59.72
909.1  384890.40  229875.48  59.72
910.2  385118.10  230012.93  59.73
911.4  385438.95  230192.04  59.72
912.6  385799.70  230296.73  59.69
913.8  386063.93  230447.18  59.69
915.0  386470.35  230707.68  59.70
916.2  386714.25  230837.10  59.69
917.3  386838.23  230895.27  59.69
918.5  387047.50  231057.60  59.70
919.7  387414.75  231194.74  59.68
920.8  387501.83  231232.92  59.67
922.0  387675.75  231302.87  59.66
923.2  387933.00  231358.40  59.64
924.4  388280.25  231529.05  59.63
925.5  388490.70  231663.36  59.63
926.7  389253.25  231957.35  59.59
927.9  389986.20  232381.84  59.59
929.0  391566.15  233144.46  59.54
930.2  393712.30  234356.13  59.52
931.4  396086.63  235680.48  59.50
932.5  398732.85  237204.56  59.49
933.7  400065.08  237946.58  59.48
934.9  400640.63  238301.58  59.48
936.0  400465.00  237959.37  59.42
937.2  398569.05  236681.74  59.38
938.3  396981.25  235636.93  59.36
939.5  395589.60  234759.36  59.34
940.7  395885.70  234769.56  59.30
941.8  397513.05  235607.47  59.27
943.0  398831.25  236227.60  59.23
944.2  399820.85  236616.99  59.18
945.3  399399.00  236230.80  59.15
946.5  398756.25  235613.34  59.09
947.6  398944.40  235628.92  59.06
948.8  399109.43  235417.00  58.99
949.9  399142.80  235300.80  58.95
951.1  399044.75  234881.62  58.86
952.2  398820.00  234464.00  58.79
953.4  398541.75  234026.70  58.72
954.5  398665.80  233794.08  58.64
955.7  398626.20  233449.44  58.56
956.8  398539.10  233153.00  58.50
958.0  398257.00  232722.67  58.44
959.1  398178.90  232376.36  58.36
960.3  397856.75  232060.11  58.33
961.4  397796.80  231891.77  58.29
962.6  397985.00  231886.20  58.27
963.7  397917.15  231717.64  58.23
964.9  397874.63  231578.93  58.20
966.0  397849.73  231491.79  58.19
967.2  397809.90  231501.06  58.19
968.3  397527.75  231371.10  58.20
969.5  397555.65  231264.44  58.17
970.6  397574.33  231287.97  58.17
971.8  397636.40  231475.49  58.21
972.9  397774.65  231421.17  58.18
974.0  397598.00  231562.81  58.24
975.2  397751.75  231419.20  58.18
976.3  397604.23  231272.53  58.17
977.5  397083.75  231291.83  58.25
978.6  396899.20  231364.49  58.29
979.7  397117.88  231560.07  58.31
980.9  396814.00  231474.83  58.33
982.0  396918.65  231463.89  58.32
983.2  396477.80  231346.84  58.35
984.3  396430.20  231223.76  58.33
985.4  396323.88  231507.14  58.41
986.6  396110.63  231484.18  58.44
987.7  397205.03  232279.06  58.48
988.9  397094.40  232281.84  58.50
990.0  398051.90  232669.95  58.45
993.1  348368.01  202692.25  58.18
996.9  348635.43  203569.01  58.39
1000.7  349469.28  204673.34  58.57
1004.5  349876.33  205470.13  58.73
1008.4  349523.71  205858.92  58.90
1012.2  349388.25  206359.38  59.06
1016.0  349305.00  206862.53  59.22
1019.8  349231.58  207353.30  59.37
1023.7  349025.39  207684.25  59.50
1027.5  348534.82  207804.37  59.62
1031.3  348673.35  208169.68  59.70
1035.1  348498.38  208322.65  59.78
1038.9  348447.37  208480.64  59.83
1042.7  348284.67  208554.43  59.88
1046.5  348107.67  208647.30  59.94
1050.3  348135.58  208788.22  59.97
1054.2  347781.58  208735.59  60.02
1058.0  347315.97  208554.37  60.05
1061.8  347213.53  208568.72  60.07
1065.6  346945.07  208458.03  60.08
1069.4  346809.93  208459.39  60.11
1073.2  346350.02  208194.91  60.11
1077.0  345827.95  207886.43  60.11
1080.8  345341.67  207558.10  60.10
1084.6  344379.35  206917.02  60.08
1088.4  343813.95  206484.99  60.06
1092.2  343073.25  205907.00  60.02
1096.0  342539.60  205464.69  59.98
1099.8  342047.55  205015.97  59.94
1103.6  341411.10  204453.18  59.88
1107.4  340511.48  203709.15  59.82
1111.2  340211.40  203330.31  59.77
1114.9  339528.00  202670.09  59.69
1118.7  338842.35  201955.05  59.60
1122.5  338143.87  201141.77  59.48
1126.3  337094.63  199961.20  59.32
1130.1  336599.32  198875.87  59.08
1133.9  335146.00  196897.55  58.75
1137.7  333868.70  194674.64  58.31
1141.4  332256.06  191982.51  57.78
1145.2  331521.75  189730.57  57.23
1149.0  330472.92  187358.89  56.69
1152.8  328945.45  185030.62  56.25
1156.6  327443.78  183091.74  55.92
1160.3  325872.00  181494.22  55.69
1164.1  323684.63  179827.49  55.56
1167.9  322047.92  178675.93  55.48
1171.7  320851.13  177896.25  55.45
1175.4  319700.97  177213.28  55.43
1179.2  318697.13  176577.65  55.41
1183.0  318411.33  176311.41  55.37
1186.7  317890.77  175933.02  55.34
1190.5  316938.53  175306.58  55.31
1194.3  315856.10  174654.09  55.30
1198.0  314688.28  174048.24  55.31
1201.8  313277.70  173362.41  55.34
1205.6  312130.67  172899.70  55.39
1209.3  311293.65  172679.16  55.47
1213.1  310451.03  172499.28  55.56
1216.8  309606.09  172346.25  55.67
1220.6  308636.53  172142.34  55.78
1224.3  307516.00  171846.39  55.88
1228.1  306364.80  171590.84  56.01
1231.9  305180.03  171263.05  56.12
1235.6  303816.68  170792.95  56.22
1239.4  302544.50  170348.39  56.31
1243.1  301384.24  169902.22  56.37
1246.9  300253.46  169441.23  56.43
1250.6  299307.33  169043.58  56.48
1254.3  298316.88  168589.79  56.51
1258.1  297351.72  168125.63  56.54
1261.8  296129.87  167489.81  56.56
1265.6  294762.90  166724.16  56.56
1269.3  293428.73  165902.61  56.54
1273.1  293419.43  165777.00  56.50
1276.8  293609.20  165738.40  56.45
1280.6  293356.13  165408.81  56.38
1284.3  291985.60  164419.11  56.31
1288.0  290563.42  163351.47  56.22
1291.8  289394.02  162297.56  56.08
1295.5  288157.47  161143.32  55.92
1299.2  286986.33  159938.85  55.73
1302.9  285601.28  158535.58  55.51
1306.7  284156.72  156980.39  55.24
1310.4  282773.73  155316.00  54.93
1314.1  281477.90  153610.56  54.57
1317.9  280320.00  151846.76  54.17
1321.6  278964.58  149853.98  53.72
1325.3  277414.73  147614.83  53.21
1329.0  276154.55  145432.81  52.66
1332.8  274197.00  142775.11  52.07
1336.5  272479.47  140198.89  51.45
1340.2  272059.67  138293.04  50.83
1343.9  271438.33  136290.32  50.21
1347.6  270421.35  134123.17  49.60
1351.4  270056.50  132314.89  49.00
1355.1  269688.83  130533.98  48.40
1358.8  269312.00  128686.22  47.78
