/*** Spectra Vista SIG Data ***/
name= 27_20220721_TITO_8_avg.sig
comm= Averaged Ref/Tar of files: HR.072122.0003_moc.sig,HR.072122.0004_moc.sig,HR.072122.0005_moc.sig
data=
337.3  3374.50  259.94  7.70
338.8  3463.20  247.37  7.14
340.3  3654.30  232.02  6.35
341.8  3795.18  239.51  6.31
343.2  3996.00  236.80  5.93
344.7  4222.35  231.53  5.48
346.2  4411.80  233.43  5.29
347.7  4601.03  228.46  4.97
349.2  4800.60  230.40  4.80
350.6  5068.05  227.34  4.49
352.1  5323.03  234.76  4.41
353.6  5621.40  237.94  4.23
355.1  5893.13  246.95  4.19
356.6  6227.25  243.47  3.91
358.0  6475.70  243.05  3.75
359.5  6767.10  250.14  3.70
361.0  7092.23  262.20  3.70
362.5  7465.13  267.66  3.59
364.0  7799.60  278.56  3.57
365.4  8149.00  289.03  3.55
366.9  8536.13  292.04  3.42
368.4  8837.10  298.72  3.38
369.9  9215.53  314.01  3.41
371.3  9612.00  322.94  3.36
372.8  10035.90  338.83  3.38
374.3  10454.38  340.42  3.26
375.8  10860.85  343.93  3.17
377.2  11244.20  353.54  3.14
378.7  11674.60  358.67  3.07
380.2  12051.20  368.91  3.06
381.7  12539.60  378.35  3.02
383.1  12989.90  390.13  3.00
384.6  13487.50  395.64  2.93
386.1  13944.90  409.23  2.93
387.6  14391.30  418.37  2.91
389.0  14847.20  426.25  2.87
390.5  15292.80  432.39  2.83
392.0  15817.10  440.83  2.79
393.4  16369.33  450.43  2.75
394.9  16912.80  472.28  2.79
396.4  17439.75  480.54  2.76
397.9  17988.75  492.98  2.74
399.3  18487.25  504.09  2.73
400.8  19042.70  517.49  2.72
402.2  19664.55  528.41  2.69
403.7  20247.08  541.11  2.67
405.2  20857.68  556.93  2.67
406.6  21413.60  567.85  2.65
408.1  22012.40  581.14  2.64
409.6  22586.55  591.61  2.62
411.0  23228.80  614.07  2.64
412.5  23865.45  630.70  2.64
414.0  24511.13  644.24  2.63
415.4  25201.50  662.50  2.63
416.9  25867.05  675.54  2.61
418.4  26537.18  698.98  2.63
419.8  27227.20  719.33  2.64
421.3  27931.78  741.86  2.66
422.7  28692.60  767.26  2.67
424.2  29480.63  785.90  2.67
425.7  30220.20  808.79  2.68
427.1  30953.70  830.43  2.68
428.6  31713.00  856.19  2.70
430.0  32428.98  878.70  2.71
431.5  33282.75  905.45  2.72
432.9  34134.50  930.62  2.73
434.4  34995.98  959.09  2.74
435.9  35826.00  984.00  2.75
437.3  36630.00  1008.34  2.75
438.8  37453.43  1032.99  2.76
440.2  38282.48  1058.75  2.77
441.7  39221.80  1088.59  2.78
443.1  40107.75  1115.53  2.78
444.6  41042.30  1146.56  2.79
446.0  41948.18  1176.40  2.80
447.5  42872.23  1203.87  2.81
448.9  43782.60  1235.94  2.82
450.4  44755.20  1267.87  2.83
451.8  45591.00  1296.28  2.84
453.3  46494.70  1324.93  2.85
454.7  47482.70  1358.91  2.86
456.2  48310.93  1386.74  2.87
457.6  49263.53  1414.74  2.87
459.1  50208.60  1442.91  2.87
460.5  51119.25  1472.52  2.88
462.0  52138.88  1503.21  2.88
463.4  53142.30  1535.71  2.89
464.8  54098.63  1564.57  2.89
466.3  55062.15  1594.85  2.90
467.7  56018.50  1624.66  2.90
469.2  57031.90  1655.49  2.90
470.6  57984.35  1684.66  2.91
472.0  59002.40  1715.81  2.91
473.5  59974.75  1744.78  2.91
474.9  60961.50  1773.79  2.91
476.4  62078.40  1810.28  2.92
477.8  63118.50  1847.71  2.93
479.2  64090.00  1879.48  2.93
480.7  65166.45  1913.46  2.94
482.1  66253.25  1944.56  2.94
483.6  67409.25  1983.09  2.94
485.0  68466.75  2016.85  2.95
486.4  69592.65  2056.40  2.95
487.9  70653.38  2096.25  2.97
489.3  71769.65  2140.03  2.98
490.7  72815.13  2179.30  2.99
492.2  74014.50  2226.00  3.01
493.6  75081.25  2268.65  3.02
495.0  76137.75  2314.93  3.04
496.5  77263.88  2371.76  3.07
497.9  78320.48  2427.66  3.10
499.3  79450.45  2487.76  3.13
500.7  80662.90  2554.68  3.17
502.2  81774.60  2621.05  3.21
503.6  82971.80  2700.30  3.25
505.0  84003.10  2786.29  3.32
506.5  85251.75  2883.23  3.38
507.9  86400.10  2989.00  3.46
509.3  87734.40  3117.87  3.55
510.7  88963.88  3253.71  3.66
512.2  90309.53  3407.83  3.77
513.6  91725.20  3587.50  3.91
515.0  93074.18  3787.91  4.07
516.4  94391.33  4008.15  4.25
517.8  95937.00  4260.37  4.44
519.3  97216.03  4524.11  4.65
520.7  98701.25  4817.14  4.88
522.1  99963.18  5116.18  5.12
523.5  101275.40  5434.24  5.37
524.9  102685.95  5756.70  5.61
526.3  104037.50  6073.47  5.84
527.8  105464.70  6391.16  6.06
529.2  106505.20  6687.97  6.28
530.6  107984.85  6997.93  6.48
532.0  109592.00  7297.33  6.66
533.4  110894.18  7548.99  6.81
534.8  111830.60  7756.15  6.94
536.3  113442.60  7990.63  7.04
537.7  115340.40  8235.60  7.14
539.1  116705.43  8427.95  7.22
540.5  117836.95  8589.93  7.29
541.9  119504.48  8792.00  7.36
543.3  120761.98  8961.26  7.42
544.7  121991.40  9127.60  7.48
546.1  123698.03  9328.18  7.54
547.5  124880.00  9481.60  7.59
549.0  126566.00  9661.15  7.63
550.4  128010.00  9809.40  7.66
551.8  129468.03  9940.61  7.68
553.2  130947.98  10045.03  7.67
554.6  132236.00  10106.82  7.64
556.0  133690.95  10152.86  7.59
557.4  135226.53  10169.63  7.52
558.8  136806.30  10165.67  7.43
560.2  138195.00  10118.09  7.32
561.6  139799.25  10060.62  7.20
563.0  141307.75  9971.20  7.06
564.4  142815.35  9861.74  6.91
565.8  144276.88  9726.43  6.74
567.2  145931.25  9587.98  6.57
568.6  147388.88  9422.93  6.39
570.0  148744.18  9243.04  6.21
571.4  150412.60  9078.89  6.04
572.8  152089.88  8924.37  5.87
574.2  153630.40  8772.27  5.71
575.6  155115.00  8632.50  5.57
577.0  156561.50  8511.59  5.44
578.4  158226.25  8417.50  5.32
579.8  159663.15  8328.66  5.22
581.2  161332.35  8263.45  5.12
582.5  162676.80  8196.69  5.04
583.9  164126.20  8148.74  4.96
585.3  165852.90  8121.49  4.90
586.7  167255.73  8092.25  4.84
588.1  168683.00  8071.79  4.79
589.5  170250.50  8068.67  4.74
590.9  171802.00  8075.35  4.70
592.3  173541.40  8097.74  4.67
593.7  174915.00  8110.79  4.64
595.0  176484.83  8140.82  4.61
596.4  177855.30  8157.27  4.59
597.8  179258.25  8176.24  4.56
599.2  180747.60  8192.80  4.53
600.6  182405.93  8204.39  4.50
602.0  183654.00  8186.69  4.46
603.3  185364.00  8180.33  4.41
604.7  186950.93  8156.81  4.36
606.1  188370.00  8117.03  4.31
607.5  189937.00  8075.17  4.25
608.9  191543.65  8029.91  4.19
610.2  192865.05  7966.35  4.13
611.6  194390.25  7908.76  4.07
613.0  195869.75  7855.29  4.01
614.4  197181.60  7801.57  3.96
615.8  198563.63  7754.04  3.91
617.1  200022.90  7722.40  3.86
618.5  201576.00  7704.46  3.82
619.9  202994.93  7689.93  3.79
621.3  204552.68  7692.56  3.76
622.6  206058.00  7700.52  3.74
624.0  207431.70  7717.64  3.72
625.4  208806.68  7743.45  3.71
626.8  210289.63  7777.47  3.70
628.1  211541.55  7814.27  3.69
629.5  213288.18  7870.62  3.69
630.9  214803.88  7917.80  3.69
632.2  216091.75  7950.77  3.68
633.6  217624.50  7991.67  3.67
635.0  219059.20  8013.56  3.66
636.3  220488.50  8023.91  3.64
637.7  221791.88  8017.32  3.61
639.1  223352.50  8000.00  3.58
640.4  224755.30  7965.53  3.54
641.8  225896.23  7917.69  3.51
643.2  227385.38  7877.78  3.46
644.5  228672.50  7831.85  3.42
645.9  230292.90  7792.93  3.38
647.2  231952.00  7760.80  3.35
648.6  233705.25  7741.29  3.31
650.0  235051.20  7710.17  3.28
651.3  235462.70  7667.02  3.26
652.7  236562.15  7656.99  3.24
654.0  238457.70  7659.51  3.21
655.4  239980.18  7648.06  3.19
656.8  240324.90  7588.28  3.16
658.1  241618.80  7558.02  3.13
659.5  243855.15  7563.70  3.10
660.8  245385.00  7553.57  3.08
662.2  246265.60  7513.60  3.05
663.5  247769.90  7505.69  3.03
664.9  249000.70  7505.58  3.01
666.2  249683.40  7503.60  3.01
667.6  251290.20  7533.09  3.00
668.9  252302.53  7570.55  3.00
670.3  253575.88  7616.03  3.00
671.6  254946.38  7684.75  3.01
673.0  256052.63  7764.82  3.03
674.3  257221.90  7850.76  3.05
675.7  258476.18  7955.41  3.08
677.0  259520.58  8059.05  3.11
678.4  260776.00  8184.91  3.14
679.7  261833.20  8319.16  3.18
681.1  263067.78  8472.59  3.22
682.4  264139.20  8637.94  3.27
683.8  265310.50  8825.27  3.33
685.1  266274.38  9033.32  3.39
686.4  267532.20  9288.06  3.47
687.8  268757.75  9586.57  3.57
689.1  269759.00  9951.05  3.69
690.5  271060.80  10423.61  3.85
691.8  271767.70  11017.03  4.05
693.1  273023.10  11831.93  4.33
694.5  274114.75  12857.00  4.69
695.8  275275.00  14150.50  5.14
697.1  276412.50  15758.17  5.70
698.5  277394.00  17699.51  6.38
699.8  278449.00  19990.71  7.18
701.1  279514.73  22644.76  8.10
702.5  280251.40  25588.88  9.13
703.8  281137.50  28830.00  10.25
705.1  282263.48  32341.12  11.46
706.5  283222.75  36053.58  12.73
707.8  284180.25  39932.00  14.05
709.1  285000.95  43931.35  15.41
710.5  286094.88  48077.42  16.80
711.8  286889.50  52245.71  18.21
713.1  287848.40  56501.83  19.63
714.4  288695.80  60770.68  21.05
715.8  289476.30  65031.05  22.47
717.1  290751.15  69393.56  23.87
718.4  291625.60  73640.53  25.25
719.7  292669.45  77879.09  26.61
721.0  293152.50  81915.00  27.94
722.4  293871.60  85917.65  29.24
723.7  294789.75  89875.20  30.49
725.0  295788.60  93748.20  31.69
726.3  296679.35  97458.40  32.85
727.6  297204.33  100906.06  33.95
729.0  298070.85  104317.48  35.00
730.3  298795.43  107520.17  35.98
731.6  299653.60  110612.90  36.91
732.9  300410.43  113511.07  37.79
734.2  301186.88  116258.35  38.60
735.5  302155.10  118933.44  39.36
736.8  302909.70  121371.09  40.07
738.1  303697.30  123683.64  40.73
739.5  304580.83  125898.79  41.34
740.8  305252.20  127878.38  41.89
742.1  305946.48  129766.73  42.41
743.4  306650.00  131533.33  42.89
744.7  307562.98  133286.04  43.34
746.0  308382.75  134893.39  43.74
747.3  308929.08  136240.30  44.10
748.6  309618.00  137563.86  44.43
749.9  310310.00  138792.95  44.73
751.2  311001.95  139949.82  45.00
752.5  311812.60  141092.94  45.25
753.8  312404.58  142039.22  45.47
755.1  313092.00  142950.48  45.66
756.4  313648.13  143740.70  45.83
757.7  314568.80  144629.33  45.98
759.0  316273.50  145833.48  46.11
760.3  317354.40  146723.66  46.23
761.6  318827.60  147751.60  46.34
762.9  319368.25  148279.07  46.43
764.2  319733.40  148705.76  46.51
765.5  320003.03  149049.31  46.58
766.8  320388.80  149444.57  46.64
768.1  320854.00  149849.30  46.70
769.3  321431.25  150268.53  46.75
770.6  322039.90  150693.09  46.79
771.9  322716.45  151144.12  46.83
773.2  323106.80  151428.80  46.87
774.5  323694.80  151797.90  46.90
775.8  324360.55  152193.37  46.92
777.1  324876.75  152529.46  46.95
778.4  325175.68  152749.38  46.97
779.6  325904.90  153160.18  47.00
780.9  326340.00  153428.57  47.01
782.2  326760.50  153698.81  47.04
783.5  327051.50  153903.00  47.06
784.8  327546.45  154192.52  47.08
786.0  327947.20  154415.00  47.09
787.3  328284.25  154620.19  47.10
788.6  328688.60  154854.39  47.11
789.9  329116.20  155096.67  47.13
791.2  329756.73  155423.08  47.13
792.4  330376.53  155764.48  47.15
793.7  330827.00  156016.17  47.16
795.0  331417.35  156326.27  47.17
796.2  332085.18  156649.46  47.17
797.5  332700.23  156993.38  47.19
798.8  333369.40  157311.49  47.19
800.0  333989.35  157649.52  47.20
801.3  334430.40  157884.21  47.21
802.6  335026.13  158177.53  47.21
803.8  335653.08  158492.96  47.22
805.1  336066.50  158734.50  47.23
806.4  336461.10  158956.83  47.24
807.7  337002.53  159227.87  47.25
808.9  337540.70  159494.68  47.25
810.2  338073.40  159755.63  47.25
811.4  338564.30  160002.82  47.26
812.7  339137.50  160306.25  47.27
814.0  339940.15  160700.55  47.27
815.2  340513.00  161007.88  47.28
816.5  340905.60  161220.74  47.29
817.7  341343.10  161450.64  47.30
819.0  341821.15  161700.21  47.31
820.2  341968.00  161798.48  47.31
821.5  342644.10  162143.29  47.32
822.7  343003.40  162325.97  47.32
824.0  343286.10  162490.37  47.33
825.2  343723.50  162733.05  47.34
826.5  344067.45  162891.64  47.34
827.7  344579.38  163170.65  47.35
829.0  344973.00  163363.33  47.36
830.2  345259.90  163528.80  47.36
831.5  345734.10  163761.24  47.37
832.7  346035.38  163910.60  47.37
834.0  346350.60  164076.63  47.37
835.2  346717.53  164278.19  47.38
836.4  346988.40  164445.03  47.39
837.7  347422.00  164649.27  47.39
838.9  347853.70  164873.57  47.40
840.1  348195.38  165070.99  47.41
841.4  348626.30  165302.63  47.42
842.6  348938.60  165489.66  47.43
843.8  349314.60  165692.90  47.43
845.1  349808.90  165931.30  47.43
846.3  350142.60  166156.46  47.45
847.5  350601.30  166355.60  47.45
848.8  351024.00  166565.72  47.45
850.0  351403.85  166750.43  47.45
851.2  351830.25  167018.53  47.47
852.5  352299.70  167216.74  47.46
853.7  352741.50  167443.93  47.47
854.9  353172.30  167692.55  47.48
856.1  353629.90  167923.35  47.49
857.4  353843.03  168012.21  47.48
858.6  354302.65  168251.34  47.49
859.8  354714.38  168449.11  47.49
861.0  355212.00  168667.20  47.48
862.2  355588.23  168894.51  47.50
863.5  356036.53  169076.05  47.49
864.7  356538.60  169330.86  47.49
865.9  356944.20  169519.05  47.49
867.1  357254.70  169669.32  47.49
868.3  357708.15  169888.12  47.49
869.5  358202.75  170111.63  47.49
870.8  358632.00  170369.14  47.51
872.0  359251.95  170601.04  47.49
873.2  359646.30  170806.13  47.49
874.4  360126.00  170999.68  47.48
875.6  360503.23  171166.76  47.48
876.8  360908.75  171392.77  47.49
878.0  361464.55  171628.30  47.48
879.2  361924.35  171841.16  47.48
880.4  362514.38  172100.25  47.47
881.6  362995.90  172307.47  47.47
882.8  363457.60  172496.23  47.46
884.0  363961.30  172762.48  47.47
885.2  364481.20  172977.81  47.46
886.5  365084.65  173265.96  47.46
887.7  365591.53  173491.03  47.45
888.8  366286.58  173778.91  47.44
890.0  366934.05  174034.93  47.43
891.2  367397.70  174299.85  47.44
892.4  367936.80  174547.35  47.44
893.6  368442.40  174778.90  47.44
894.8  369397.25  175177.31  47.42
896.0  370202.50  175568.52  47.42
897.2  371163.00  175967.07  47.41
898.4  371860.50  176306.74  47.41
899.6  372495.75  176538.04  47.39
900.8  372782.80  176712.38  47.40
902.0  372934.65  176793.44  47.41
903.2  373326.00  176937.09  47.39
904.3  373679.40  177093.23  47.39
905.5  374334.48  177349.66  47.38
906.7  374890.50  177654.52  47.39
907.9  375389.00  177901.27  47.39
909.1  375665.18  178020.71  47.39
910.2  375880.95  178088.64  47.38
911.4  376204.73  178174.28  47.36
912.6  376440.35  178273.33  47.36
913.8  376698.83  178371.12  47.35
915.0  377099.10  178583.30  47.36
916.2  377208.00  178657.14  47.36
917.3  377202.60  178665.90  47.37
918.5  377680.30  178720.23  47.32
919.7  377811.60  178807.77  47.33
920.8  377924.03  178848.95  47.32
922.0  377973.75  178883.83  47.33
923.2  378241.50  178958.00  47.31
924.4  378455.63  179017.71  47.30
925.5  378810.00  179102.97  47.28
926.7  379429.38  179351.82  47.27
927.9  380153.40  179703.37  47.27
929.0  381559.95  180293.79  47.25
930.2  383505.50  181206.44  47.25
931.4  385973.78  182221.01  47.21
932.5  388557.10  183372.24  47.19
933.7  389868.28  183936.92  47.18
934.9  390604.38  184167.50  47.15
936.0  390125.13  183898.15  47.14
937.2  388311.15  182924.67  47.11
938.3  386617.95  182145.74  47.11
939.5  385268.40  181446.86  47.10
940.7  385399.80  181428.17  47.08
941.8  386987.55  182007.61  47.03
943.0  388255.50  182544.78  47.02
944.2  389044.50  182806.56  46.99
945.3  388654.50  182497.71  46.96
946.5  387872.55  182074.11  46.94
947.6  388074.50  182054.93  46.91
948.8  388244.03  181940.01  46.86
949.9  388285.80  181814.80  46.82
951.1  387815.35  181522.87  46.81
952.2  387804.00  181210.29  46.73
953.4  387557.50  180958.86  46.69
954.5  387504.00  180754.97  46.65
955.7  387702.00  180540.00  46.57
956.8  387426.20  180296.69  46.54
958.0  387182.00  179921.28  46.47
959.1  386892.65  179741.59  46.46
960.3  386358.00  179424.31  46.44
961.4  386538.40  179330.23  46.39
962.6  386716.75  179378.67  46.39
963.7  386632.20  179180.71  46.34
964.9  386327.48  179088.41  46.36
966.0  386276.85  179018.29  46.34
967.2  386187.30  178967.91  46.34
968.3  385588.35  178858.41  46.39
969.5  385813.50  178714.99  46.32
970.6  386025.33  178734.52  46.30
971.8  386258.25  178828.02  46.30
972.9  386222.33  178771.11  46.29
974.0  386191.50  178934.62  46.33
975.2  385812.38  178781.99  46.34
976.3  385772.90  178750.32  46.34
977.5  386116.68  178786.73  46.30
978.6  386096.50  178711.33  46.29
979.7  386075.03  178708.10  46.29
980.9  385991.80  178609.25  46.27
982.0  385399.85  178678.53  46.36
983.2  384726.53  178629.11  46.43
984.3  385010.40  178573.56  46.38
985.4  385330.95  178752.12  46.39
986.6  385670.50  178564.16  46.30
987.7  386769.43  178958.12  46.27
988.9  386064.00  178784.40  46.31
990.0  386408.70  179222.11  46.38
993.1  347030.25  159350.63  45.92
996.9  347179.60  159823.83  46.03
1000.7  347892.83  160546.52  46.15
1004.5  348321.58  161044.13  46.23
1008.4  347964.96  161234.13  46.34
1012.2  347964.50  161521.05  46.42
1016.0  347947.20  161790.94  46.50
1019.8  347897.55  162034.95  46.58
1023.7  347583.61  162135.58  46.65
1027.5  346991.83  162095.27  46.71
1031.3  346922.78  162219.95  46.76
1035.1  346647.18  162218.74  46.80
1038.9  346511.18  162254.98  46.83
1042.7  346274.83  162254.68  46.86
1046.5  346113.33  162248.67  46.88
1050.3  346119.04  162303.93  46.89
1054.2  345772.00  162210.92  46.91
1058.0  345310.12  162013.64  46.92
1061.8  345174.09  162002.13  46.93
1065.6  344812.70  161828.18  46.93
1069.4  344654.00  161766.72  46.94
1073.2  344066.33  161476.91  46.93
1077.0  343516.03  161187.07  46.92
1080.8  343166.67  160915.47  46.89
1084.6  342385.05  160446.18  46.86
1088.4  341930.78  160159.55  46.84
1092.2  341201.25  159721.72  46.81
1096.0  340632.75  159349.92  46.78
1099.8  340145.87  158983.16  46.74
1103.6  339449.93  158518.30  46.70
1107.4  338512.88  157921.12  46.65
1111.2  338189.30  157624.87  46.61
1114.9  337499.17  157113.17  46.55
1118.7  336882.15  156586.53  46.48
1122.5  336209.47  155976.35  46.39
1126.3  335175.23  155128.65  46.28
1130.1  334672.73  154368.63  46.13
1133.9  333229.40  152917.30  45.89
1137.7  331915.50  151350.97  45.60
1141.4  330261.97  149470.33  45.26
1145.2  329517.08  147890.70  44.88
1149.0  328440.00  146274.38  44.54
1152.8  326907.80  144610.02  44.24
1156.6  325371.20  143203.32  44.01
1160.3  323803.67  142019.76  43.86
1164.1  321600.57  140750.66  43.77
1167.9  319963.54  139865.33  43.71
1171.7  318795.75  139235.63  43.68
1175.4  317662.27  138685.16  43.66
1179.2  316635.73  138153.96  43.63
1183.0  316352.33  137922.57  43.60
1186.7  315934.73  137619.23  43.56
1190.5  315030.67  137150.35  43.54
1194.3  313990.40  136656.77  43.52
1198.0  312839.45  136167.43  43.53
1201.8  311408.13  135590.84  43.54
1205.6  310277.00  135196.43  43.57
1209.3  309466.27  135006.20  43.63
1213.1  308673.68  134824.69  43.68
1216.8  307779.82  134670.54  43.76
1220.6  306768.00  134431.73  43.82
1224.3  305608.08  134127.98  43.89
1228.1  304424.80  133835.06  43.96
1231.9  303201.43  133482.12  44.02
1235.6  301802.40  133028.21  44.08
1239.4  300495.75  132639.27  44.14
1243.1  299305.98  132225.57  44.18
1246.9  298143.23  131801.23  44.21
1250.6  297227.07  131430.84  44.22
1254.3  296229.27  131024.48  44.23
1258.1  295255.33  130620.03  44.24
1261.8  294033.87  130079.26  44.24
1265.6  292735.27  129471.51  44.23
1269.3  291516.20  128850.03  44.20
1273.1  291542.68  128752.55  44.16
1276.8  291674.00  128688.46  44.12
1280.6  291326.67  128405.85  44.08
1284.3  289902.80  127620.11  44.02
1288.0  288565.69  126817.25  43.95
1291.8  287526.23  126070.14  43.85
1295.5  286398.93  125254.59  43.73
1299.2  285220.51  124384.99  43.61
1302.9  283837.54  123345.97  43.46
1306.7  282341.27  122204.83  43.28
1310.4  280909.33  120990.64  43.07
1314.1  279575.82  119766.04  42.84
1317.9  278403.75  118494.64  42.56
1321.6  277050.43  117071.33  42.26
1325.3  275511.60  115468.58  41.91
1329.0  274274.70  113932.88  41.54
1332.8  272364.40  112026.20  41.13
1336.5  270678.00  110199.16  40.71
1340.2  270285.17  108903.17  40.29
1343.9  269735.00  107516.40  39.86
1347.6  268830.00  105987.00  39.43
1351.4  268630.50  104762.28  39.00
1355.1  268427.50  103559.97  38.58
1358.8  268272.00  102317.71  38.14
1362.5  267647.73  100807.22  37.66
