/*** Spectra Vista SIG Data ***/
name= 26_20220824_QURU_56_avg.sig
comm= Averaged Ref/Tar of files: HR.082422.0076_moc.sig,HR.082422.0077_moc.sig,HR.082422.0078_moc.sig
data=
337.3  3473.75  284.52  8.19
338.8  3607.50  282.19  7.82
340.3  3794.85  281.10  7.41
341.8  3932.35  268.25  6.82
343.2  4129.20  266.40  6.45
344.7  4307.65  250.21  5.81
346.2  4493.50  239.65  5.33
347.7  4719.00  241.19  5.11
349.2  4876.20  257.04  5.27
350.6  5141.50  244.83  4.76
352.1  5430.20  242.93  4.47
353.6  5725.50  235.96  4.12
355.1  6027.83  233.48  3.87
356.6  6325.58  249.09  3.94
358.0  6635.20  246.69  3.72
359.5  6921.60  251.32  3.63
361.0  7241.85  247.38  3.42
362.5  7611.50  253.72  3.33
364.0  8000.33  263.81  3.30
365.4  8373.80  266.01  3.18
366.9  8757.13  272.57  3.11
368.4  9109.85  280.02  3.07
369.9  9485.78  291.87  3.08
371.3  9932.40  306.16  3.08
372.8  10354.50  318.60  3.08
374.3  10803.75  322.50  2.99
375.8  11211.20  326.99  2.92
377.2  11647.70  329.97  2.83
378.7  12078.10  333.56  2.76
380.2  12508.50  337.15  2.70
381.7  13053.08  342.32  2.62
383.1  13555.85  348.55  2.57
384.6  14107.93  359.67  2.55
386.1  14593.50  363.94  2.49
387.6  15065.05  370.11  2.46
389.0  15570.80  378.77  2.43
390.5  16089.30  385.86  2.40
392.0  16663.50  398.51  2.39
393.4  17262.68  409.89  2.37
394.9  17826.30  424.56  2.38
396.4  18371.25  431.25  2.35
397.9  18962.50  437.33  2.31
399.3  19550.90  452.47  2.31
400.8  20114.48  461.94  2.30
402.2  20769.30  481.18  2.32
403.7  21402.68  494.34  2.31
405.2  22041.43  508.22  2.31
406.6  22620.00  519.68  2.30
408.1  23255.40  527.33  2.27
409.6  23881.60  532.65  2.23
411.0  24573.85  552.25  2.25
412.5  25260.73  569.22  2.25
414.0  25937.38  584.08  2.25
415.4  26652.38  596.25  2.24
416.9  27370.50  611.66  2.23
418.4  28087.20  622.50  2.22
419.8  28847.00  647.92  2.25
421.3  29607.33  665.47  2.25
422.7  30432.60  686.72  2.26
424.2  31235.63  708.75  2.27
425.7  32013.20  730.24  2.28
427.1  32805.23  746.94  2.28
428.6  33619.50  779.13  2.32
430.0  34416.90  805.29  2.34
431.5  35312.55  837.79  2.37
432.9  36229.45  871.19  2.40
434.4  37144.73  905.34  2.44
435.9  37996.00  933.33  2.46
437.3  38885.00  969.83  2.49
438.8  39761.18  1009.98  2.54
440.2  40667.55  1047.46  2.58
441.7  41674.00  1089.87  2.62
443.1  42612.00  1128.90  2.65
444.6  43609.90  1170.27  2.68
446.0  44582.10  1212.73  2.72
447.5  45586.48  1254.59  2.75
448.9  46569.00  1298.60  2.79
450.4  47617.15  1346.80  2.83
451.8  48529.00  1384.93  2.85
453.3  49488.88  1426.05  2.88
454.7  50552.48  1466.82  2.90
456.2  51471.70  1502.36  2.92
457.6  52476.08  1545.21  2.94
459.1  53499.88  1583.01  2.96
460.5  54463.00  1619.27  2.97
462.0  55574.23  1662.67  2.99
463.4  56663.20  1700.63  3.00
464.8  57706.13  1739.00  3.01
466.3  58722.68  1772.76  3.02
467.7  59762.45  1812.86  3.03
469.2  60860.30  1850.39  3.04
470.6  61890.25  1880.83  3.04
472.0  62971.55  1923.58  3.05
473.5  64028.63  1960.55  3.06
474.9  65108.25  2002.60  3.08
476.4  66297.60  2046.72  3.09
477.8  67410.50  2089.93  3.10
479.2  68483.50  2124.73  3.10
480.7  69653.70  2165.46  3.11
482.1  70848.35  2209.89  3.12
483.6  72105.50  2252.27  3.12
485.0  73257.98  2300.56  3.14
486.4  74525.10  2349.34  3.15
487.9  75684.38  2396.55  3.17
489.3  76908.68  2444.35  3.18
490.7  78027.78  2495.40  3.20
492.2  79321.20  2551.92  3.22
493.6  80487.10  2615.51  3.25
495.0  81666.00  2679.30  3.28
496.5  82899.08  2743.25  3.31
497.9  84073.08  2819.56  3.35
499.3  85305.78  2893.91  3.39
500.7  86640.10  2978.83  3.44
502.2  87833.60  3071.84  3.50
503.6  89162.20  3176.96  3.56
505.0  90302.60  3289.41  3.64
506.5  91664.10  3423.86  3.74
507.9  92937.93  3561.95  3.83
509.3  94379.60  3721.71  3.94
510.7  95706.00  3894.15  4.07
512.2  97170.68  4093.53  4.21
513.6  98713.65  4326.05  4.38
515.0  100200.90  4572.86  4.56
516.4  101634.75  4855.41  4.78
517.8  103324.38  5169.75  5.00
519.3  104689.85  5494.88  5.25
520.7  106330.40  5857.91  5.51
522.1  107691.35  6229.12  5.78
523.5  109101.10  6618.25  6.07
524.9  110567.70  7019.64  6.35
526.3  112001.75  7410.34  6.62
527.8  113572.80  7811.10  6.88
529.2  114834.30  8189.04  7.13
530.6  116510.35  8587.15  7.37
532.0  118300.00  8976.80  7.59
533.4  119677.20  9299.78  7.77
534.8  120664.90  9562.56  7.92
536.3  122459.70  9867.64  8.06
537.7  124576.20  10192.56  8.18
539.1  126097.08  10454.89  8.29
540.5  127344.40  10682.73  8.39
541.9  129171.75  10955.46  8.48
543.3  130519.70  11186.08  8.57
544.7  131886.60  11412.16  8.65
546.1  133755.33  11680.90  8.73
547.5  135072.00  11901.87  8.81
549.0  136939.00  12149.87  8.87
550.4  138528.75  12350.50  8.92
551.8  140140.38  12534.57  8.94
553.2  141737.23  12684.53  8.95
554.6  143145.60  12782.29  8.93
556.0  144755.10  12861.60  8.89
557.4  146439.48  12913.13  8.82
558.8  148149.90  12933.36  8.73
560.2  149669.75  12912.03  8.63
561.6  151423.13  12876.96  8.50
563.0  153081.65  12807.43  8.37
564.4  154736.85  12720.49  8.22
565.8  156325.63  12605.50  8.06
567.2  158143.25  12481.47  7.89
568.6  159721.13  12317.75  7.71
570.0  161233.73  12132.50  7.52
571.4  163042.75  11957.57  7.33
572.8  164883.63  11786.57  7.15
574.2  166577.60  11619.63  6.98
575.6  168187.50  11463.00  6.82
577.0  169771.20  11324.11  6.67
578.4  171591.88  11220.30  6.54
579.8  173169.23  11121.57  6.42
581.2  174967.70  11050.27  6.32
582.5  176447.70  10974.60  6.22
583.9  178038.40  10922.08  6.13
585.3  179912.48  10899.45  6.06
586.7  181469.28  10867.39  5.99
588.1  183026.88  10849.45  5.93
589.5  184742.25  10855.13  5.88
590.9  186446.40  10878.93  5.83
592.3  188325.30  10920.17  5.80
593.7  189833.48  10954.58  5.77
595.0  191541.38  11003.85  5.74
596.4  193045.65  11042.03  5.72
597.8  194595.23  11077.14  5.69
599.2  196231.20  11116.16  5.66
600.6  198049.48  11148.58  5.63
602.0  199401.53  11146.33  5.59
603.3  201258.15  11147.13  5.54
604.7  203005.38  11127.80  5.48
606.1  204571.20  11078.64  5.42
607.5  206271.03  11024.89  5.34
608.9  208038.35  10957.13  5.27
610.2  209478.15  10867.50  5.19
611.6  211136.18  10791.50  5.11
613.0  212761.80  10716.12  5.04
614.4  214205.10  10638.96  4.97
615.8  215718.75  10567.05  4.90
617.1  217339.50  10519.32  4.84
618.5  219040.00  10484.32  4.79
619.9  220636.28  10463.42  4.74
621.3  222356.25  10464.06  4.71
622.6  224037.75  10479.80  4.68
624.0  225585.45  10499.82  4.65
625.4  227146.43  10527.33  4.63
626.8  228858.18  10576.32  4.62
628.1  230265.20  10630.62  4.62
629.5  232242.35  10717.01  4.61
630.9  233944.15  10789.68  4.61
632.2  235409.30  10841.37  4.61
633.6  237095.63  10898.35  4.60
635.0  238736.00  10932.32  4.58
636.3  240366.20  10954.36  4.56
637.7  241842.63  10950.88  4.53
639.1  243600.00  10931.67  4.49
640.4  245169.93  10887.80  4.44
641.8  246466.28  10809.08  4.39
643.2  248150.18  10745.30  4.33
644.5  249568.75  10660.43  4.27
645.9  251418.15  10597.68  4.22
647.2  253754.73  10552.29  4.16
648.6  255879.00  10527.30  4.11
650.0  257472.00  10474.56  4.07
651.3  257694.25  10396.03  4.03
652.7  258229.15  10314.11  3.99
654.0  260441.70  10292.79  3.95
655.4  262094.70  10251.79  3.91
656.8  262502.80  10124.20  3.86
658.1  263705.90  10024.32  3.80
659.5  266181.83  9978.15  3.75
660.8  268200.00  9921.00  3.70
662.2  269091.20  9808.21  3.64
663.5  270783.75  9740.09  3.60
664.9  272338.30  9697.48  3.56
666.2  273171.00  9646.64  3.53
667.6  274977.03  9632.49  3.50
668.9  276314.18  9637.70  3.49
670.3  277092.00  9642.13  3.48
671.6  279040.50  9702.55  3.48
673.0  280323.75  9770.40  3.49
674.3  281642.40  9856.60  3.50
675.7  283067.73  9969.07  3.52
677.0  284320.73  10102.13  3.55
678.4  285818.43  10254.84  3.59
679.7  287029.80  10419.29  3.63
681.1  288431.95  10616.60  3.68
682.4  289664.70  10849.63  3.75
683.8  291079.10  11129.56  3.82
685.1  292204.88  11440.10  3.92
686.4  293572.80  11831.12  4.03
687.8  294946.00  12290.90  4.17
689.1  296125.25  12848.63  4.34
690.5  297590.25  13547.08  4.55
691.8  298490.48  14401.98  4.82
693.1  299886.00  15522.80  5.18
694.5  301141.75  16926.00  5.62
695.8  302461.25  18651.97  6.17
697.1  303712.50  20720.70  6.82
698.5  304883.70  23172.16  7.60
699.8  306112.50  26009.74  8.50
701.1  307336.95  29226.56  9.51
702.5  308213.40  32748.61  10.63
703.8  309285.00  36573.00  11.83
705.1  310563.83  40655.03  13.09
706.5  311706.13  44911.10  14.41
707.8  312788.25  49307.08  15.76
709.1  313800.20  53794.32  17.14
710.5  315050.40  58399.22  18.54
711.8  316035.60  63001.96  19.94
713.1  317172.90  67667.12  21.33
714.4  318176.40  72311.47  22.73
715.8  319113.00  76908.24  24.10
717.1  320566.05  81601.34  25.46
718.4  321619.20  86141.44  26.78
719.7  322875.85  90658.16  28.08
721.0  323482.50  94917.00  29.34
722.4  324381.75  99144.83  30.56
723.7  325435.20  103302.12  31.74
725.0  326626.43  107365.02  32.87
726.3  327698.53  111236.88  33.94
727.6  328337.63  114821.92  34.97
729.0  329386.40  118372.47  35.94
730.3  330270.60  121707.08  36.85
731.6  331299.65  124923.57  37.71
732.9  332227.35  127941.12  38.51
734.2  333163.88  130818.97  39.27
735.5  334313.78  133615.73  39.97
736.8  335236.50  136158.08  40.62
738.1  336201.30  138572.20  41.22
739.5  337313.78  140914.46  41.78
740.8  338097.65  142973.16  42.29
742.1  338922.00  144943.66  42.77
743.4  339750.00  146790.00  43.21
744.7  340894.68  148649.98  43.61
746.0  341920.80  150335.64  43.97
747.3  342622.08  151768.25  44.30
748.6  343479.25  153181.60  44.60
749.9  344344.00  154492.00  44.87
751.2  345153.85  155697.10  45.11
752.5  346173.70  156910.46  45.33
753.8  346875.73  157934.54  45.53
755.1  347724.00  158936.27  45.71
756.4  348480.60  159818.98  45.86
757.7  349613.60  160837.55  46.00
759.0  351624.80  162192.88  46.13
760.3  352994.40  163197.76  46.23
761.6  354790.80  164352.53  46.32
762.9  355454.00  164972.60  46.41
764.2  355967.70  165460.11  46.48
765.5  356378.68  165890.26  46.55
766.8  356972.80  166366.08  46.60
768.1  357652.20  166862.35  46.65
769.3  358371.65  167348.86  46.70
770.6  359157.50  167863.97  46.74
771.9  360048.33  168403.85  46.77
773.2  360594.80  168752.80  46.80
774.5  361361.00  169205.23  46.82
775.8  362211.75  169703.39  46.85
777.1  362975.80  170119.40  46.87
778.4  363428.18  170413.91  46.89
779.6  364369.05  170922.71  46.91
780.9  364980.00  171272.00  46.93
782.2  365571.25  171606.23  46.94
783.5  366061.00  171881.73  46.95
784.8  366755.85  172258.32  46.97
786.0  367320.80  172562.69  46.98
787.3  367879.80  172860.70  46.99
788.6  368469.85  173178.92  47.00
789.9  369076.40  173506.48  47.01
791.2  369856.55  173920.10  47.02
792.4  370770.90  174358.61  47.03
793.7  371408.00  174690.91  47.03
795.0  372210.30  175091.73  47.04
796.2  373052.50  175519.49  47.05
797.5  373988.25  175981.67  47.06
798.8  374794.00  176392.71  47.06
800.0  375622.08  176805.30  47.07
801.3  376270.30  177135.48  47.08
802.6  377019.00  177516.78  47.08
803.8  377809.53  177929.46  47.10
805.1  378507.50  178262.23  47.10
806.4  379095.00  178546.76  47.10
807.7  379786.73  178903.62  47.11
808.9  380502.55  179263.48  47.11
810.2  381182.90  179609.73  47.12
811.4  381832.20  179952.76  47.13
812.7  382606.25  180326.25  47.13
814.0  383600.30  180829.56  47.14
815.2  384392.25  181200.57  47.14
816.5  384913.88  181466.85  47.14
817.7  385478.60  181786.84  47.16
819.0  386096.70  182096.05  47.16
820.2  386364.00  182248.00  47.17
821.5  387204.80  182660.17  47.17
822.7  387644.55  182911.00  47.19
824.0  388084.50  183122.64  47.19
825.2  388714.95  183443.40  47.19
826.5  389120.53  183647.62  47.20
827.7  389722.88  183980.57  47.21
829.0  390189.80  184219.48  47.21
830.2  390556.10  184395.75  47.21
831.5  391119.85  184685.73  47.22
832.7  391562.33  184884.91  47.22
834.0  391920.33  185092.74  47.23
835.2  392361.75  185308.20  47.23
836.4  392656.00  185508.62  47.24
837.7  393058.40  185739.79  47.26
838.9  393565.95  186006.63  47.26
840.1  393967.80  186234.57  47.27
841.4  394544.60  186510.61  47.27
842.6  394831.80  186732.53  47.29
843.8  395198.40  186949.63  47.31
845.1  395686.45  187221.55  47.32
846.3  396179.20  187455.91  47.32
847.5  396641.70  187701.92  47.32
848.8  397003.20  187937.92  47.34
850.0  397388.95  188117.07  47.34
851.2  397894.95  188429.58  47.36
852.5  398338.50  188681.92  47.37
853.7  398808.00  188929.20  47.37
854.9  399310.10  189178.20  47.38
856.1  399825.40  189441.72  47.38
857.4  400031.85  189548.27  47.38
858.6  400504.10  189794.37  47.39
859.8  400848.75  190004.25  47.40
861.0  401333.40  190270.08  47.41
862.2  401786.98  190518.91  47.42
863.5  402148.18  190700.16  47.42
864.7  402712.20  190986.40  47.43
865.9  403186.20  191221.68  47.43
867.1  403524.30  191386.09  47.43
868.3  403965.45  191616.00  47.43
869.5  404424.90  191878.66  47.44
870.8  405067.50  192168.00  47.44
872.0  405569.63  192425.84  47.45
873.2  406067.40  192665.80  47.45
874.4  406563.30  192888.54  47.44
875.6  406932.28  193098.05  47.45
876.8  407443.80  193334.18  47.45
878.0  408005.05  193619.37  47.46
879.2  408621.60  193874.86  47.45
880.4  409177.13  194154.95  47.45
881.6  409681.30  194387.18  47.45
882.8  410195.20  194608.75  47.44
884.0  410798.38  194909.18  47.45
885.2  411400.70  195196.81  47.45
886.5  412086.30  195529.23  47.45
887.7  412674.60  195774.37  47.44
888.8  413384.48  196143.89  47.45
890.0  413991.10  196413.11  47.44
891.2  414716.20  196707.53  47.43
892.4  415449.30  197018.50  47.42
893.6  416135.65  197311.95  47.42
894.8  417197.00  197819.93  47.42
896.0  418239.50  198288.27  47.41
897.2  419019.25  198692.43  47.42
898.4  419941.50  199116.72  47.42
899.6  420589.88  199398.45  47.41
900.8  421172.88  199632.78  47.40
902.0  421489.95  199768.34  47.40
903.2  421945.20  199975.40  47.39
904.3  422343.60  200147.12  47.39
905.5  423068.38  200479.64  47.39
906.7  423809.00  200819.33  47.38
907.9  424442.90  201128.67  47.39
909.1  424944.23  201273.39  47.36
910.2  425264.18  201417.24  47.36
911.4  425733.75  201569.94  47.35
912.6  426032.75  201708.17  47.35
913.8  426358.50  201891.84  47.35
915.0  426954.15  202102.46  47.34
916.2  427274.25  202242.30  47.33
917.3  427436.33  202288.17  47.33
918.5  427768.80  202452.95  47.33
919.7  428326.80  202587.00  47.30
920.8  428473.53  202641.42  47.29
922.0  428909.25  202717.90  47.26
923.2  429156.00  202857.20  47.27
924.4  429377.63  202986.90  47.27
925.5  429738.90  203135.69  47.27
926.7  430684.38  203482.35  47.25
927.9  431775.60  203866.72  47.22
929.0  433503.90  204558.12  47.19
930.2  436040.50  205637.00  47.16
931.4  438836.40  206812.89  47.13
932.5  441784.10  208211.50  47.13
933.7  443401.48  208885.70  47.11
934.9  444346.88  209207.25  47.08
936.0  443958.13  208963.95  47.07
937.2  442247.85  207849.32  47.00
938.3  440440.25  207020.85  47.00
939.5  439074.00  206266.08  46.98
940.7  439548.30  206371.68  46.95
941.8  441369.30  207095.06  46.92
943.0  442926.75  207762.70  46.91
944.2  444022.15  208099.23  46.87
945.3  443859.00  207776.40  46.81
946.5  443229.30  207265.68  46.76
947.6  443568.20  207252.76  46.72
948.8  443735.18  207089.35  46.67
949.9  443952.60  207006.80  46.63
951.1  443761.83  206701.17  46.58
952.2  443700.00  206420.80  46.52
953.4  443515.00  206034.13  46.45
954.5  443734.20  205798.32  46.38
955.7  444036.60  205546.32  46.29
956.8  443862.30  205232.75  46.24
958.0  443886.00  204961.33  46.17
959.1  444001.08  204777.72  46.12
960.3  443851.75  204463.11  46.07
961.4  443534.05  204339.96  46.07
962.6  444256.75  204362.90  46.00
963.7  444038.25  204208.53  45.99
964.9  444314.25  204200.47  45.96
966.0  444398.40  204162.66  45.94
967.2  444564.45  204276.00  45.95
968.3  444742.65  204236.10  45.92
969.5  444524.25  204127.03  45.92
970.6  445213.95  204186.32  45.86
971.8  445544.40  204287.70  45.85
972.9  445857.30  204361.67  45.84
974.0  446157.10  204578.29  45.85
975.2  446532.63  204629.52  45.83
976.3  446363.63  204693.87  45.86
977.5  446624.68  204769.16  45.85
978.6  446511.60  204691.16  45.84
979.7  447235.43  204887.34  45.81
980.9  447768.53  204960.44  45.77
982.0  448273.30  205290.61  45.80
983.2  448081.23  205119.36  45.78
984.3  447547.40  205121.36  45.83
985.4  447817.05  205046.98  45.79
986.6  448311.25  205199.63  45.77
987.7  449383.03  205755.25  45.79
988.9  449488.80  205716.96  45.77
990.0  450446.30  206472.75  45.84
993.1  362925.97  165668.44  45.65
996.9  364857.48  167023.73  45.78
1000.7  366621.15  168311.70  45.91
1004.5  367612.00  169179.83  46.02
1008.4  367605.21  169592.00  46.13
1012.2  367897.00  170104.23  46.24
1016.0  368401.80  170694.86  46.33
1019.8  369080.25  171367.35  46.43
1023.7  369855.37  172022.10  46.51
1027.5  370459.53  172609.08  46.59
1031.3  371499.48  173336.35  46.66
1035.1  372025.56  173782.79  46.71
1038.9  372337.90  174115.86  46.76
1042.7  372305.42  174272.00  46.81
1046.5  372232.67  174357.12  46.84
1050.3  372365.48  174533.66  46.87
1054.2  372174.83  174555.50  46.90
1058.0  371690.08  174387.39  46.92
1061.8  371566.76  174401.54  46.94
1065.6  371452.27  174386.41  46.95
1069.4  372031.40  174672.79  46.95
1073.2  372241.74  174780.80  46.95
1077.0  372099.83  174681.16  46.94
1080.8  371351.04  174241.66  46.92
1084.6  369700.92  173353.02  46.89
1088.4  368474.58  172705.51  46.87
1092.2  367438.50  172094.47  46.84
1096.0  366895.28  171723.81  46.80
1099.8  366570.75  171423.17  46.76
1103.6  366121.80  171041.75  46.72
1107.4  365355.18  170495.65  46.67
1111.2  365224.50  170228.37  46.61
1114.9  364559.42  169693.50  46.55
1118.7  363834.90  169063.36  46.47
1122.5  363022.40  168277.45  46.35
1126.3  361780.24  167223.92  46.22
1130.1  361275.53  166278.81  46.03
1133.9  359725.10  164564.90  45.75
1137.7  358386.50  162717.71  45.40
1141.4  356790.96  160500.94  44.98
1145.2  356204.21  158587.03  44.52
1149.0  355165.42  156548.75  44.08
1152.8  353642.75  154465.09  43.68
1156.6  352070.95  152695.40  43.37
1160.3  350424.33  151224.72  43.15
1164.1  347942.20  149675.45  43.02
1167.9  346054.17  148572.47  42.93
1171.7  344759.63  147838.50  42.88
1175.4  343790.43  147288.55  42.84
1179.2  343012.28  146811.17  42.80
1183.0  342835.33  146557.52  42.75
1186.7  342070.17  146059.47  42.70
1190.5  340577.47  145283.71  42.66
1194.3  339188.87  144606.56  42.63
1198.0  338152.38  144149.66  42.63
1201.8  336816.33  143619.40  42.64
1205.6  335558.33  143169.43  42.67
1209.3  334455.18  142875.58  42.72
1213.1  333253.13  142556.48  42.78
1216.8  332046.18  142341.49  42.87
1220.6  330935.73  142202.13  42.97
1224.3  329688.00  141983.43  43.07
1228.1  328577.80  141874.97  43.18
1231.9  327515.38  141722.66  43.27
1235.6  326218.43  141429.53  43.35
1239.4  325006.25  141177.50  43.44
1243.1  323877.25  140872.28  43.50
1246.9  322720.17  140533.22  43.55
1250.6  321813.67  140251.48  43.58
1254.3  320820.68  139913.28  43.61
1258.1  319953.90  139596.98  43.63
1261.8  318784.13  139126.99  43.64
1265.6  317290.25  138455.93  43.64
1269.3  315498.93  137612.34  43.62
1273.1  315209.56  137381.76  43.58
1276.8  315700.00  137474.17  43.55
1280.6  316171.27  137552.48  43.51
1284.3  315273.60  136975.14  43.45
1288.0  313789.00  136091.25  43.37
1291.8  312034.90  134986.81  43.26
1295.5  310211.73  133809.87  43.14
1299.2  308812.57  132773.22  42.99
1302.9  307452.95  131660.75  42.82
1306.7  306004.18  130437.53  42.63
1310.4  304638.16  129115.23  42.38
1314.1  303374.68  127765.65  42.11
1317.9  302296.04  126333.45  41.79
1321.6  300992.49  124712.73  41.43
1325.3  299399.63  122839.65  41.03
1329.0  298040.28  120993.78  40.60
1332.8  295864.80  118690.00  40.12
1336.5  293959.67  116471.58  39.62
1340.2  293505.33  114822.50  39.12
1343.9  292942.92  113134.79  38.62
1347.6  292097.70  111359.18  38.12
1351.4  291911.50  109897.21  37.65
