/*** Spectra Vista SIG Data ***/
name= 19_20220926_QUPH_06_avg.sig
comm= Averaged Ref/Tar of files: HR.092622.0054_moc.sig,HR.092622.0055_moc.sig
data=
337.3  3076.75  236.78  7.70
338.8  3238.73  246.00  7.60
340.3  3373.20  239.61  7.10
341.8  3536.07  256.06  7.24
343.2  3759.20  254.99  6.78
344.7  3895.37  247.37  6.35
346.2  4085.00  228.76  5.60
347.7  4247.10  220.22  5.19
349.2  4435.20  226.80  5.11
350.6  4676.32  230.85  4.94
352.1  4930.05  229.66  4.66
353.6  5205.00  244.89  4.70
355.1  5455.35  239.58  4.39
356.6  5768.40  242.54  4.20
358.0  6039.73  251.56  4.17
359.5  6303.60  263.09  4.17
361.0  6623.40  250.52  3.78
362.5  6967.45  255.11  3.66
364.0  7321.68  263.81  3.60
365.4  7680.67  285.82  3.72
366.9  8048.08  290.46  3.61
368.4  8382.52  300.03  3.58
369.9  8738.08  306.54  3.51
371.3  9167.00  321.17  3.50
372.8  9593.40  341.36  3.56
374.3  10015.42  341.70  3.41
375.8  10438.63  350.35  3.36
377.2  10867.60  361.23  3.32
378.7  11280.07  366.61  3.25
380.2  11692.53  375.83  3.21
381.7  12197.28  381.44  3.13
383.1  12684.47  381.92  3.01
384.6  13181.78  395.38  3.00
386.1  13656.63  403.83  2.96
387.6  14139.77  421.19  2.98
389.0  14650.67  435.69  2.97
390.5  15133.50  453.63  3.00
392.0  15693.67  460.99  2.94
393.4  16272.98  470.70  2.89
394.9  16825.80  481.73  2.86
396.4  17388.00  502.72  2.89
397.9  17937.50  513.97  2.87
399.3  18504.13  530.38  2.87
400.8  19075.93  546.22  2.86
402.2  19721.83  566.76  2.87
403.7  20319.30  574.36  2.83
405.2  20928.70  589.17  2.82
406.6  21529.60  604.53  2.81
408.1  22117.87  621.83  2.81
409.6  22725.57  640.32  2.82
411.0  23413.83  661.24  2.82
412.5  24073.70  682.47  2.83
414.0  24748.83  701.48  2.83
415.4  25453.25  724.02  2.84
416.9  26136.90  743.47  2.84
418.4  26854.65  766.74  2.86
419.8  27579.07  787.28  2.85
421.3  28306.10  815.37  2.88
422.7  29081.20  841.67  2.89
424.2  29857.50  868.82  2.91
425.7  30633.13  892.31  2.91
427.1  31407.35  913.33  2.91
428.6  32229.67  941.52  2.92
430.0  32980.33  964.70  2.93
431.5  33859.85  994.01  2.94
432.9  34730.27  1021.32  2.94
434.4  35640.60  1053.09  2.95
435.9  36493.33  1077.60  2.95
437.3  37354.17  1103.93  2.96
438.8  38236.25  1127.50  2.95
440.2  39104.45  1160.01  2.97
441.7  40066.00  1191.45  2.97
443.1  40986.67  1222.03  2.98
444.6  41972.40  1255.36  2.99
446.0  42921.30  1286.38  3.00
447.5  43910.53  1319.83  3.01
448.9  44857.60  1356.35  3.02
450.4  45877.53  1394.53  3.04
451.8  46756.67  1430.37  3.06
453.3  47697.60  1459.55  3.06
454.7  48721.15  1496.31  3.07
456.2  49602.57  1525.79  3.08
457.6  50595.45  1555.45  3.07
459.1  51585.52  1590.63  3.08
460.5  52537.00  1623.35  3.09
462.0  53622.12  1659.33  3.09
463.4  54672.13  1692.15  3.10
464.8  55675.75  1729.22  3.11
466.3  56661.00  1757.54  3.10
467.7  57651.20  1791.95  3.11
469.2  58730.28  1819.30  3.10
470.6  59740.60  1851.79  3.10
472.0  60804.00  1889.27  3.11
473.5  61820.42  1924.23  3.11
474.9  62880.50  1959.17  3.12
476.4  64051.20  1996.67  3.12
477.8  65124.33  2034.56  3.12
479.2  66139.33  2066.46  3.12
480.7  67260.50  2105.91  3.13
482.1  68425.57  2147.27  3.14
483.6  69629.73  2195.16  3.15
485.0  70744.15  2237.84  3.16
486.4  71944.90  2278.53  3.17
487.9  73047.00  2323.71  3.18
489.3  74214.00  2371.15  3.20
490.7  75293.83  2419.11  3.21
492.2  76528.20  2475.90  3.24
493.6  77654.77  2532.36  3.26
495.0  78789.75  2590.72  3.29
496.5  79988.53  2660.37  3.33
497.9  81113.62  2725.36  3.36
499.3  82297.40  2802.51  3.41
500.7  83563.60  2891.91  3.46
502.2  84738.40  2990.08  3.53
503.6  86013.47  3102.29  3.61
505.0  87118.67  3213.38  3.69
506.5  88453.00  3352.24  3.79
507.9  89631.95  3507.17  3.91
509.3  90980.53  3688.59  4.05
510.7  92225.25  3889.00  4.22
512.2  93643.60  4120.41  4.40
513.6  95150.07  4382.90  4.61
515.0  96606.72  4679.21  4.84
516.4  98005.95  5004.18  5.11
517.8  99637.75  5377.19  5.40
519.3  100983.43  5762.31  5.71
520.7  102574.37  6188.43  6.03
522.1  103880.83  6616.57  6.37
523.5  105241.53  7062.00  6.71
524.9  106726.80  7515.86  7.04
526.3  108179.87  7958.92  7.36
527.8  109682.10  8392.37  7.65
529.2  110726.87  8787.60  7.94
530.6  112315.03  9205.07  8.20
532.0  114072.00  9599.20  8.42
533.4  115378.45  9930.31  8.61
534.8  116238.93  10187.79  8.76
536.3  117914.60  10483.65  8.89
537.7  119977.20  10797.84  9.00
539.1  121508.07  11050.25  9.09
540.5  122741.30  11262.97  9.18
541.9  124508.85  11517.63  9.25
543.3  125820.25  11727.46  9.32
544.7  127148.00  11944.60  9.39
546.1  128955.93  12205.35  9.46
547.5  130263.47  12411.84  9.53
549.0  132014.67  12650.00  9.58
550.4  133520.83  12853.22  9.63
551.8  135098.90  13038.07  9.65
553.2  136628.92  13179.95  9.65
554.6  137980.27  13271.29  9.62
556.0  139531.80  13332.28  9.56
557.4  141163.40  13365.86  9.47
558.8  142823.10  13358.30  9.35
560.2  144288.58  13298.08  9.22
561.6  145970.85  13221.88  9.06
563.0  147578.78  13107.22  8.88
564.4  149184.03  12967.16  8.69
565.8  150705.00  12790.68  8.49
567.2  152470.83  12611.90  8.27
568.6  153982.75  12387.87  8.04
570.0  155435.27  12140.55  7.81
571.4  157167.83  11910.01  7.58
572.8  158946.58  11680.62  7.35
574.2  160578.13  11461.76  7.14
575.6  162142.50  11260.61  6.94
577.0  163684.27  11079.81  6.77
578.4  165422.83  10933.65  6.61
579.8  166953.60  10796.99  6.47
581.2  168678.62  10688.36  6.34
582.5  170125.80  10579.48  6.22
583.9  171650.67  10494.25  6.11
585.3  173469.00  10443.58  6.02
586.7  174963.75  10385.48  5.94
588.1  176459.17  10342.63  5.86
589.5  178123.17  10322.20  5.79
590.9  179775.20  10313.97  5.74
592.3  181590.13  10329.37  5.69
593.7  183052.35  10342.08  5.65
595.0  184688.55  10372.13  5.62
596.4  186143.30  10401.44  5.59
597.8  187643.68  10426.75  5.56
599.2  189208.80  10443.47  5.52
600.6  190973.90  10462.03  5.48
602.0  192281.80  10441.20  5.43
603.3  194081.17  10433.12  5.38
604.7  195762.18  10402.38  5.31
606.1  197266.40  10343.30  5.24
607.5  198923.27  10274.66  5.17
608.9  200634.00  10193.48  5.08
610.2  202031.55  10087.74  4.99
611.6  203644.20  9989.85  4.91
613.0  205228.53  9896.60  4.82
614.4  206610.00  9800.47  4.74
615.8  208084.50  9716.02  4.67
617.1  209631.80  9649.50  4.60
618.5  211265.07  9602.24  4.55
619.9  212800.65  9562.24  4.49
621.3  214436.85  9544.63  4.45
622.6  216041.67  9541.27  4.42
624.0  217515.40  9547.66  4.39
625.4  219011.10  9568.47  4.37
626.8  220614.33  9611.88  4.36
628.1  221925.55  9649.24  4.35
629.5  223726.47  9712.45  4.34
630.9  225243.52  9763.05  4.33
632.2  226548.35  9803.31  4.33
633.6  228116.42  9839.05  4.31
635.0  229608.53  9856.09  4.29
636.3  231139.53  9842.71  4.26
637.7  232523.83  9801.49  4.22
639.1  234196.67  9751.00  4.16
640.4  235690.23  9673.78  4.10
641.8  236918.02  9569.48  4.04
643.2  238506.80  9477.03  3.97
644.5  239890.17  9374.25  3.91
645.9  241473.60  9284.04  3.84
647.2  242812.03  9206.14  3.79
648.6  244431.00  9151.27  3.74
650.0  245779.20  9109.65  3.71
651.3  246525.22  9060.88  3.68
652.7  248371.43  9036.92  3.64
654.0  250571.80  9044.19  3.61
655.4  251982.60  9013.05  3.58
656.8  252060.80  8926.29  3.54
658.1  253377.40  8877.00  3.50
659.5  255865.05  8871.33  3.47
660.8  257610.00  8847.65  3.43
662.2  258645.33  8790.40  3.40
663.5  260232.97  8753.05  3.36
664.9  261354.60  8728.24  3.34
666.2  262108.00  8701.77  3.32
667.6  263821.97  8739.92  3.31
668.9  264939.05  8785.40  3.32
670.3  266531.00  8838.13  3.32
671.6  267786.25  8916.38  3.33
673.0  269010.50  9009.30  3.35
674.3  270312.47  9119.73  3.37
675.7  271669.67  9255.73  3.41
677.0  272801.65  9395.87  3.44
678.4  274123.15  9560.11  3.49
679.7  275209.72  9730.02  3.54
681.1  276526.17  9930.60  3.59
682.4  277664.40  10150.85  3.66
683.8  278916.73  10398.37  3.73
685.1  279940.25  10685.11  3.82
686.4  281200.00  11027.69  3.92
687.8  282500.83  11439.05  4.05
689.1  283568.83  11936.17  4.21
690.5  284873.10  12611.79  4.43
691.8  285762.13  13494.63  4.72
693.1  287096.30  14698.56  5.12
694.5  288272.83  16242.85  5.63
695.8  289531.67  18162.30  6.27
697.1  290714.67  20478.90  7.04
698.5  291816.07  23207.83  7.95
699.8  292930.77  26339.93  8.99
701.1  294109.87  29858.44  10.15
702.5  294923.93  33659.42  11.41
703.8  295905.00  37750.50  12.76
705.1  297071.45  42060.97  14.16
706.5  298154.33  46507.40  15.60
707.8  299147.30  51069.11  17.07
709.1  300018.23  55680.47  18.56
710.5  301179.13  60415.28  20.06
711.8  302031.20  65146.59  21.57
713.1  303057.00  69944.27  23.08
714.4  303963.87  74750.88  24.59
715.8  304811.27  79539.64  26.09
717.1  306165.20  84449.80  27.58
718.4  307118.93  89236.48  29.06
719.7  308282.08  94039.90  30.50
721.0  308805.00  98604.65  31.93
722.4  309596.47  103173.98  33.33
723.7  310561.70  107709.17  34.68
725.0  311635.50  112162.81  35.99
726.3  312626.42  116455.11  37.25
727.6  313174.22  120461.87  38.46
729.0  314118.35  124445.42  39.62
730.3  314920.60  128234.78  40.72
731.6  315843.17  131898.12  41.76
732.9  316648.62  135342.80  42.74
734.2  317448.08  138647.15  43.68
735.5  318512.82  141867.85  44.54
736.8  319349.60  144814.45  45.35
738.1  320228.13  147613.91  46.10
739.5  321221.28  150318.77  46.80
740.8  321927.83  152737.99  47.44
742.1  322653.08  155018.59  48.04
743.4  323333.33  157131.43  48.60
744.7  324270.78  159228.28  49.10
746.0  325156.00  161148.50  49.56
747.3  325750.05  162794.08  49.98
748.6  326458.50  164390.21  50.36
749.9  327132.00  165848.80  50.70
751.2  327781.53  167176.95  51.00
752.5  328618.33  168515.83  51.28
753.8  329222.95  169626.82  51.52
755.1  329922.67  170716.75  51.74
756.4  330523.22  171681.39  51.94
757.7  331569.70  172786.36  52.11
759.0  333407.17  174253.89  52.26
760.3  334628.80  175327.68  52.39
761.6  336206.27  176548.00  52.51
762.9  336746.83  177182.07  52.62
764.2  337146.67  177674.50  52.70
765.5  337434.15  178080.85  52.77
766.8  337842.13  178537.69  52.85
768.1  338353.47  179023.77  52.91
769.3  338933.70  179510.12  52.96
770.6  339611.13  180012.38  53.01
771.9  340335.22  180542.99  53.05
773.2  340724.27  180865.00  53.08
774.5  341312.40  181295.40  53.12
775.8  341987.90  181740.99  53.14
777.1  342531.93  182133.37  53.17
778.4  342860.10  182398.85  53.20
779.6  343640.82  182880.94  53.22
780.9  344080.00  183203.15  53.24
782.2  344547.50  183522.43  53.26
783.5  344833.00  183747.69  53.29
784.8  345342.75  184081.62  53.30
786.0  345723.47  184335.91  53.32
787.3  346078.12  184604.47  53.34
788.6  346489.38  184872.34  53.36
789.9  346944.27  185171.16  53.37
791.2  347575.25  185572.33  53.39
792.4  348237.98  185956.39  53.40
793.7  348696.00  186260.35  53.42
795.0  349276.95  186626.06  53.43
796.2  349916.40  187012.25  53.44
797.5  350583.60  187410.83  53.46
798.8  351240.22  187797.56  53.47
800.0  351874.42  188192.76  53.48
801.3  352336.00  188477.07  53.49
802.6  352911.30  188816.52  53.50
803.8  353534.25  189187.83  53.51
805.1  354001.08  189483.80  53.53
806.4  354431.60  189778.28  53.54
807.7  354970.35  190096.18  53.55
808.9  355535.60  190422.10  53.56
810.2  356029.10  190724.79  53.57
811.4  356569.20  191016.93  53.57
812.7  357202.08  191387.86  53.58
814.0  358005.00  191870.70  53.59
815.2  358632.50  192239.67  53.60
816.5  359027.48  192496.20  53.62
817.7  359511.50  192784.60  53.62
819.0  360026.70  193089.32  53.63
820.2  360213.33  193216.57  53.64
821.5  360891.07  193621.54  53.65
822.7  361264.32  193857.20  53.66
824.0  361569.60  194059.96  53.67
825.2  362043.00  194362.80  53.69
826.5  362410.15  194540.68  53.68
827.7  362972.95  194889.57  53.69
829.0  363391.05  195121.35  53.69
830.2  363688.27  195321.85  53.71
831.5  364189.30  195626.56  53.72
832.7  364487.20  195828.45  53.73
834.0  364833.67  196046.62  53.74
835.2  365188.82  196273.92  53.75
836.4  365518.63  196481.96  53.75
837.7  365958.40  196728.97  53.76
838.9  366395.62  197039.47  53.78
840.1  366739.65  197280.03  53.79
841.4  367194.67  197574.69  53.81
842.6  367569.47  197821.33  53.82
843.8  367929.87  198066.33  53.83
845.1  368405.23  198391.79  53.85
846.3  368813.67  198676.87  53.87
847.5  369216.40  198948.12  53.88
848.8  369687.60  199244.97  53.90
850.0  370010.90  199466.86  53.91
851.2  370590.30  199818.56  53.92
852.5  371011.00  200088.74  53.93
853.7  371490.00  200403.26  53.95
854.9  371966.73  200711.71  53.96
856.1  372420.53  201016.42  53.98
857.4  372630.55  201155.39  53.98
858.6  373089.87  201454.41  54.00
859.8  373515.00  201698.90  54.00
861.0  374025.60  202017.55  54.01
862.2  374517.87  202326.16  54.02
863.5  374830.73  202575.23  54.04
864.7  375390.40  202875.52  54.04
865.9  375808.00  203112.48  54.05
867.1  376138.23  203312.95  54.05
868.3  376545.40  203583.45  54.07
869.5  377039.60  203909.17  54.08
870.8  377655.00  204265.93  54.09
872.0  378170.80  204573.23  54.10
873.2  378610.70  204817.76  54.10
874.4  379080.00  205091.31  54.10
875.6  379409.90  205283.87  54.11
876.8  379915.27  205558.42  54.11
878.0  380380.13  205890.98  54.13
879.2  381016.50  206202.31  54.12
880.4  381497.25  206479.68  54.12
881.6  381997.08  206756.88  54.13
882.8  382346.67  206997.92  54.14
884.0  382950.08  207310.02  54.13
885.2  383541.33  207585.90  54.12
886.5  384128.17  207926.77  54.13
887.7  384586.80  208189.25  54.13
888.8  385241.35  208571.20  54.14
890.0  385763.03  208873.61  54.15
891.2  386356.33  209210.69  54.15
892.4  386941.80  209543.70  54.15
893.6  387583.93  209850.30  54.14
894.8  388458.50  210313.32  54.14
896.0  389324.67  210770.14  54.14
897.2  390171.17  211206.55  54.13
898.4  390922.40  211629.47  54.14
899.6  391539.50  211922.81  54.13
900.8  391899.87  212100.04  54.12
902.0  392078.70  212219.36  54.13
903.2  392354.05  212389.63  54.13
904.3  392763.40  212574.79  54.12
905.5  393298.97  212873.89  54.13
906.7  393996.33  213172.46  54.11
907.9  394350.37  213455.20  54.13
909.1  394777.35  213588.15  54.10
910.2  394907.90  213692.84  54.11
911.4  395192.85  213805.72  54.10
912.6  395361.63  213907.17  54.10
913.8  395634.40  214027.74  54.10
915.0  396008.20  214210.71  54.09
916.2  396136.00  214283.55  54.09
917.3  396216.90  214288.96  54.08
918.5  396371.33  214323.03  54.07
919.7  396579.40  214456.57  54.08
920.8  396680.55  214462.91  54.06
922.0  396704.00  214495.05  54.07
923.2  396942.00  214546.80  54.05
924.4  397136.25  214682.88  54.06
925.5  397423.13  214743.18  54.03
926.7  398080.50  214998.46  54.01
927.9  398903.20  215342.45  53.98
929.0  400444.20  216100.29  53.97
930.2  402568.20  217186.13  53.95
931.4  405024.75  218468.21  53.94
932.5  407656.20  219876.71  53.94
933.7  409146.60  220483.04  53.89
934.9  409867.50  220746.63  53.86
936.0  409437.17  220391.74  53.83
937.2  407227.60  219140.89  53.81
938.3  405394.47  218111.65  53.80
939.5  403824.00  217151.28  53.77
940.7  404079.60  217173.55  53.75
941.8  405582.60  217857.80  53.71
943.0  407136.50  218423.81  53.65
944.2  407918.33  218741.64  53.62
945.3  407303.00  218399.17  53.62
946.5  406449.90  217781.23  53.58
947.6  406699.53  217659.53  53.52
948.8  406676.40  217418.87  53.46
949.9  406907.20  217247.16  53.39
951.1  406397.33  216790.44  53.34
952.2  406096.00  216432.35  53.30
953.4  405795.50  215972.27  53.22
954.5  405756.00  215648.39  53.15
955.7  405694.80  215252.64  53.06
956.8  405439.27  214905.43  53.01
958.0  405049.67  214399.35  52.93
959.1  404800.17  214058.24  52.88
960.3  404449.37  213673.06  52.83
961.4  404364.20  213306.47  52.75
962.6  404378.33  213315.85  52.75
963.7  404295.60  212991.17  52.68
964.9  403982.90  212854.86  52.69
966.0  403764.75  212720.47  52.68
967.2  403797.30  212648.30  52.66
968.3  403587.90  212428.29  52.63
969.5  403333.53  212205.42  52.61
970.6  403445.07  212229.38  52.60
971.8  403624.90  212129.78  52.56
972.9  403394.70  212098.91  52.58
974.0  403464.20  212086.41  52.57
975.2  403437.17  211955.58  52.54
976.3  403221.12  211919.01  52.56
977.5  403134.55  211778.00  52.53
978.6  403300.80  211561.45  52.46
979.7  403205.60  211525.19  52.46
980.9  402826.33  211458.06  52.49
982.0  402518.07  211273.99  52.49
983.2  401587.05  211041.22  52.55
984.3  400961.87  210605.97  52.53
985.4  401145.33  210799.67  52.55
986.6  400818.92  210522.05  52.52
987.7  401770.60  210836.39  52.48
988.9  401690.40  210562.46  52.42
990.0  401690.40  210845.88  52.49
993.1  378664.30  198512.85  52.42
996.9  377890.58  198662.34  52.57
1000.7  378160.83  199369.43  52.72
1004.5  378322.50  199967.72  52.86
1008.4  377789.04  200195.46  52.99
1012.2  377578.50  200495.64  53.10
1016.0  377118.00  200706.20  53.22
1019.8  376599.30  200858.35  53.33
1023.7  375774.27  200762.01  53.43
1027.5  374657.88  200492.15  53.51
1031.3  374176.83  200515.21  53.59
1035.1  373607.50  200446.60  53.65
1038.9  373388.03  200542.65  53.71
1042.7  373148.25  200648.36  53.77
1046.5  373004.67  200773.61  53.83
1050.3  372995.65  200897.13  53.86
1054.2  372638.58  200834.67  53.90
1058.0  372206.74  200706.57  53.92
1061.8  372136.60  200754.22  53.95
1065.6  371692.53  200572.61  53.96
1069.4  371263.53  200383.67  53.97
1073.2  370343.61  199877.40  53.97
1077.0  369607.75  199486.10  53.97
1080.8  369357.29  199284.38  53.95
1084.6  368885.07  198946.54  53.93
1088.4  368773.49  198809.48  53.91
1092.2  368140.50  198393.00  53.89
1096.0  367559.78  197946.44  53.85
1099.8  367024.88  197491.24  53.81
1103.6  366261.88  196891.80  53.76
1107.4  365271.91  196140.38  53.70
1111.2  365002.90  195792.84  53.64
1114.9  364367.50  195188.39  53.57
1118.7  363943.80  194622.45  53.48
1122.5  363452.27  193905.69  53.35
1126.3  362446.70  192775.30  53.19
1130.1  362040.88  191700.27  52.95
1133.9  360424.40  189700.23  52.63
1137.7  358977.60  187455.80  52.22
1141.4  357068.62  184726.93  51.73
1145.2  356229.27  182407.97  51.21
1149.0  354967.08  179979.24  50.70
1152.8  353274.50  177561.97  50.26
1156.6  351558.90  175527.49  49.93
1160.3  349840.33  173869.78  49.70
1164.1  347530.23  172193.99  49.55
1167.9  345814.58  171062.50  49.47
1171.7  344523.38  170233.88  49.41
1175.4  343157.73  169415.19  49.37
1179.2  341911.30  168620.96  49.32
1183.0  341510.00  168246.33  49.27
1186.7  341245.33  167936.07  49.21
1190.5  340577.47  167481.22  49.18
1194.3  339603.47  166907.21  49.15
1198.0  338243.68  166226.87  49.14
1201.8  336636.13  165483.67  49.16
1205.6  335491.33  165050.78  49.20
1209.3  334763.42  164934.19  49.27
1213.1  334141.80  164917.85  49.36
1216.8  333494.61  164959.52  49.46
1220.6  332496.27  164855.29  49.58
1224.3  331354.92  164669.95  49.70
1228.1  329974.60  164402.07  49.82
1231.9  328561.75  164058.92  49.93
1235.6  326952.60  163557.88  50.02
1239.4  325509.13  163136.38  50.12
1243.1  324226.69  162698.82  50.18
1246.9  322938.47  162245.42  50.24
1250.6  321921.27  161878.22  50.29
1254.3  320785.30  161418.77  50.32
1258.1  319636.80  160910.63  50.34
1261.8  318242.67  160250.85  50.35
1265.6  316860.67  159558.71  50.36
1269.3  315735.88  158942.68  50.34
1273.1  315923.72  158952.82  50.31
1276.8  315995.20  158828.54  50.26
1280.6  315287.47  158282.03  50.20
1284.3  313486.00  157150.27  50.13
1288.0  312067.38  156120.32  50.03
1291.8  311190.33  155313.65  49.91
1295.5  310211.73  154396.00  49.77
1299.2  309083.01  153308.61  49.60
1302.9  307593.43  151947.13  49.40
1306.7  305942.12  150387.54  49.16
1310.4  304360.81  148721.24  48.86
1314.1  302872.53  146998.07  48.53
1317.9  301566.04  145199.03  48.15
1321.6  300080.99  143176.40  47.71
1325.3  298410.00  140942.90  47.23
1329.0  297092.72  138752.29  46.70
1332.8  295094.80  136146.27  46.14
1336.5  293394.80  133624.05  45.54
1340.2  293186.83  131773.06  44.95
1343.9  292988.54  129934.93  44.35
1347.6  292792.95  128147.45  43.77
1351.4  293694.00  126867.50  43.20
1355.1  294931.27  125775.96  42.65
1358.8  295936.00  124501.34  42.07
