/*** Spectra Vista SIG Data ***/
name= 21_20221020_QUPA_26_avg.sig
comm= Averaged Ref/Tar of files: HR.102022.0060_moc.sig,HR.102022.0061_moc.sig
data=
337.3  3027.13  198.50  6.56
338.8  3174.60  202.02  6.36
340.3  3326.35  210.16  6.32
341.8  3520.83  209.03  5.94
343.2  3640.80  196.63  5.40
344.7  3838.50  197.41  5.14
346.2  4003.30  189.08  4.72
347.7  4207.78  189.89  4.51
349.2  4422.60  180.36  4.08
350.6  4627.35  180.48  3.90
352.1  4858.60  182.71  3.76
353.6  5135.60  189.37  3.69
355.1  5421.68  193.39  3.57
356.6  5735.63  199.46  3.48
358.0  5997.20  200.52  3.34
359.5  6272.70  204.83  3.27
361.0  6553.58  208.62  3.18
362.5  6908.90  212.46  3.08
364.0  7254.78  212.20  2.92
365.4  7587.00  215.97  2.85
366.9  7956.00  227.32  2.86
368.4  8291.60  233.79  2.82
369.9  8620.98  240.91  2.79
371.3  9051.30  252.51  2.79
372.8  9451.80  258.68  2.74
374.3  9863.13  271.06  2.75
375.8  10267.95  274.12  2.67
377.2  10679.30  275.15  2.58
378.7  11082.80  278.99  2.52
380.2  11459.40  284.37  2.48
381.7  11945.05  293.42  2.46
383.1  12397.00  301.84  2.43
384.6  12867.08  311.37  2.42
386.1  13323.33  317.35  2.38
387.6  13744.50  329.56  2.40
389.0  14204.00  335.39  2.36
390.5  14655.60  337.57  2.30
392.0  15208.75  349.14  2.30
393.4  15738.73  355.84  2.26
394.9  16260.30  371.37  2.28
396.4  16792.88  380.73  2.27
397.9  17322.50  389.50  2.25
399.3  17854.13  395.80  2.22
400.8  18369.73  406.64  2.21
402.2  19001.70  420.86  2.21
403.7  19548.90  432.66  2.21
405.2  20147.43  449.83  2.23
406.6  20694.40  455.39  2.20
408.1  21289.20  470.08  2.21
409.6  21862.20  476.63  2.18
411.0  22502.90  488.61  2.17
412.5  23157.40  515.27  2.23
414.0  23777.63  528.01  2.22
415.4  24446.25  544.01  2.23
416.9  25096.05  557.33  2.22
418.4  25771.50  577.33  2.24
419.8  26481.00  595.40  2.25
421.3  27165.30  612.67  2.26
422.7  27927.00  635.35  2.28
424.2  28653.75  657.16  2.29
425.7  29388.90  676.69  2.30
427.1  30130.80  694.49  2.30
428.6  30907.00  717.87  2.32
430.0  31655.05  736.64  2.33
431.5  32491.73  770.99  2.37
432.9  33328.75  798.64  2.40
434.4  34193.78  825.53  2.41
435.9  35014.00  851.60  2.43
437.3  35832.50  877.65  2.45
438.8  36666.08  901.38  2.46
440.2  37527.88  931.32  2.48
441.7  38471.40  961.74  2.50
443.1  39339.25  986.94  2.51
444.6  40269.40  1021.05  2.54
446.0  41182.65  1049.12  2.55
447.5  42122.58  1080.16  2.56
448.9  43060.20  1108.67  2.57
450.4  44042.95  1141.82  2.59
451.8  44889.00  1168.89  2.60
453.3  45801.73  1194.68  2.61
454.7  46784.43  1224.90  2.62
456.2  47623.23  1251.47  2.63
457.6  48573.23  1283.88  2.64
459.1  49542.35  1316.51  2.66
460.5  50463.88  1344.76  2.66
462.0  51516.73  1372.21  2.66
463.4  52539.50  1396.62  2.66
464.8  53488.13  1423.18  2.66
466.3  54431.03  1456.20  2.68
467.7  55385.13  1486.72  2.68
469.2  56426.68  1515.28  2.69
470.6  57408.30  1540.69  2.68
472.0  58439.40  1569.97  2.69
473.5  59452.13  1598.15  2.69
474.9  60462.75  1626.13  2.69
476.4  61603.20  1664.23  2.70
477.8  62611.00  1696.92  2.71
479.2  63597.00  1725.09  2.71
480.7  64674.30  1751.48  2.71
482.1  65805.30  1784.37  2.71
483.6  66975.75  1816.57  2.71
485.0  68032.50  1850.73  2.72
486.4  69185.25  1887.76  2.73
487.9  70243.88  1923.82  2.74
489.3  71357.35  1960.53  2.75
490.7  72402.83  1999.24  2.76
492.2  73588.20  2042.88  2.78
493.6  74671.05  2081.56  2.79
495.0  75757.50  2126.90  2.81
496.5  76926.35  2174.00  2.83
497.9  78012.30  2225.99  2.85
499.3  79156.95  2281.76  2.88
500.7  80384.55  2346.10  2.92
502.2  81526.40  2414.01  2.96
503.6  82752.80  2487.01  3.01
505.0  83827.30  2563.75  3.06
506.5  85118.78  2659.08  3.12
507.9  86251.85  2763.38  3.20
509.3  87556.80  2879.66  3.29
510.7  88759.13  3007.74  3.39
512.2  90106.88  3158.45  3.51
513.6  91567.35  3327.97  3.63
515.0  92988.83  3523.33  3.79
516.4  94348.80  3739.37  3.96
517.8  95965.25  3992.94  4.16
519.3  97272.33  4261.91  4.38
520.7  98799.60  4565.05  4.62
522.1  100074.98  4876.88  4.87
523.5  101386.60  5212.90  5.14
524.9  102825.45  5566.85  5.41
526.3  104209.70  5916.71  5.68
527.8  105657.75  6275.61  5.94
529.2  106698.90  6621.14  6.21
530.6  108244.95  6984.72  6.45
532.0  109886.00  7349.20  6.69
533.4  111192.83  7672.20  6.90
534.8  112068.65  7952.38  7.10
536.3  113597.40  8248.26  7.26
537.7  115479.00  8559.00  7.41
539.1  116865.65  8827.87  7.55
540.5  118041.80  9071.59  7.69
541.9  119739.98  9352.38  7.81
543.3  121028.20  9598.65  7.93
544.7  122333.40  9839.51  8.04
546.1  124103.93  10122.05  8.16
547.5  125305.60  10344.96  8.26
549.0  126907.00  10601.17  8.35
550.4  128381.88  10835.07  8.44
551.8  129920.60  11047.34  8.50
553.2  131387.93  11222.92  8.54
554.6  132683.20  11347.59  8.55
556.0  134167.05  11444.15  8.53
557.4  135753.10  11506.77  8.48
558.8  137365.20  11539.96  8.40
560.2  138796.75  11530.78  8.31
561.6  140435.18  11508.01  8.19
563.0  141988.63  11456.36  8.07
564.4  143553.85  11387.07  7.93
565.8  145052.50  11290.73  7.78
567.2  146769.75  11182.46  7.62
568.6  148226.25  11037.51  7.45
570.0  149611.20  10855.53  7.26
571.4  151285.55  10684.72  7.06
572.8  153013.25  10519.80  6.88
574.2  154604.80  10352.32  6.70
575.6  156127.50  10194.11  6.53
577.0  157612.40  10055.07  6.38
578.4  159295.50  9944.03  6.24
579.8  160799.18  9839.98  6.12
581.2  162478.28  9769.30  6.01
582.5  163893.60  9695.63  5.92
583.9  165365.20  9642.63  5.83
585.3  167105.03  9613.26  5.75
586.7  168566.45  9578.77  5.68
588.1  170016.75  9559.01  5.62
589.5  171634.75  9557.10  5.57
590.9  173228.00  9577.41  5.53
592.3  174984.65  9616.17  5.50
593.7  176410.65  9648.21  5.47
595.0  177998.18  9693.50  5.45
596.4  179422.25  9735.44  5.43
597.8  180866.48  9775.25  5.40
599.2  182358.00  9814.01  5.38
600.6  184084.88  9855.55  5.35
602.0  185358.98  9861.24  5.32
603.3  187111.95  9867.11  5.27
604.7  188742.35  9855.38  5.22
606.1  190191.60  9808.25  5.16
607.5  191789.03  9757.45  5.09
608.9  193454.45  9696.51  5.01
610.2  194792.85  9611.06  4.93
611.6  196367.10  9526.54  4.85
613.0  197907.20  9450.72  4.78
614.4  199262.25  9362.30  4.70
615.8  200684.25  9292.31  4.63
617.1  202198.50  9235.38  4.57
618.5  203781.20  9200.95  4.52
619.9  205263.53  9173.33  4.47
621.3  206844.08  9169.48  4.43
622.6  208421.75  9175.71  4.40
624.0  209872.80  9187.01  4.38
625.4  211314.68  9219.59  4.36
626.8  212853.55  9266.08  4.35
628.1  214088.88  9315.47  4.35
629.5  215816.50  9389.04  4.35
630.9  217269.80  9452.00  4.35
632.2  218502.20  9496.30  4.35
633.6  219987.75  9545.97  4.34
635.0  221398.40  9564.19  4.32
636.3  222875.90  9570.86  4.29
637.7  224207.00  9546.32  4.26
639.1  225820.00  9507.00  4.21
640.4  227265.15  9446.03  4.16
641.8  228445.20  9355.58  4.10
643.2  229962.95  9275.15  4.03
644.5  231300.50  9176.62  3.97
645.9  232839.00  9087.42  3.90
647.2  233764.13  9003.40  3.85
648.6  235183.50  8949.35  3.81
650.0  236476.80  8905.37  3.77
651.3  237516.95  8865.23  3.73
652.7  239766.10  8841.98  3.69
654.0  241869.80  8823.70  3.65
655.4  243214.23  8773.58  3.61
656.8  243412.10  8681.78  3.57
658.1  244774.10  8618.22  3.52
659.5  246925.35  8564.31  3.47
660.8  248220.00  8496.00  3.42
662.2  249200.00  8398.72  3.37
663.5  250671.55  8325.87  3.32
664.9  251674.80  8255.93  3.28
666.2  252436.20  8179.75  3.24
667.6  254103.15  8149.27  3.21
668.9  255005.53  8133.46  3.19
670.3  256842.63  8145.78  3.17
671.6  257866.88  8161.60  3.17
673.0  259017.38  8200.79  3.17
674.3  260249.60  8246.46  3.17
675.7  261544.60  8322.28  3.18
677.0  262582.05  8399.08  3.20
678.4  263903.55  8501.02  3.22
679.7  264938.73  8621.22  3.25
681.1  266180.35  8756.84  3.29
682.4  267255.30  8924.61  3.34
683.8  268426.60  9144.35  3.41
685.1  269416.13  9411.35  3.49
686.4  270729.00  9755.32  3.60
687.8  271917.25  10184.15  3.75
689.1  273007.50  10711.79  3.92
690.5  274301.55  11427.88  4.17
691.8  275094.00  12363.18  4.49
693.1  276443.25  13616.54  4.93
694.5  277572.75  15222.35  5.48
695.8  278824.00  17206.15  6.17
697.1  279984.25  19574.10  6.99
698.5  281026.00  22325.13  7.94
699.8  282054.33  25437.47  9.02
701.1  283210.75  28884.71  10.20
702.5  283994.70  32546.10  11.46
703.8  284895.00  36420.43  12.78
705.1  286030.88  40456.62  14.14
706.5  287048.88  44588.26  15.53
707.8  287979.75  48787.50  16.94
709.1  288796.20  53018.69  18.36
710.5  289912.45  57349.10  19.78
711.8  290725.10  61685.63  21.22
713.1  291684.00  66078.73  22.65
714.4  292576.00  70485.84  24.09
715.8  293378.80  74903.79  25.53
717.1  294662.40  79459.36  26.97
718.4  295590.40  83932.80  28.39
719.7  296670.00  88426.93  29.81
721.0  297180.00  92741.79  31.21
722.4  297908.05  97068.73  32.58
723.7  298844.10  101392.40  33.93
725.0  299833.65  105664.76  35.24
726.3  300742.20  109790.86  36.51
727.6  301244.35  113668.50  37.73
729.0  302128.58  117527.31  38.90
730.3  302916.90  121212.15  40.01
731.6  303774.30  124771.23  41.07
732.9  304553.38  128127.55  42.07
734.2  305324.25  131330.77  43.01
735.5  306295.50  134469.57  43.90
736.8  307057.20  137354.37  44.73
738.1  307903.70  140103.85  45.50
739.5  308835.63  142734.04  46.22
740.8  309486.38  145090.60  46.88
742.1  310158.23  147309.32  47.49
743.4  310750.00  149382.86  48.07
744.7  311616.15  151419.72  48.59
746.0  312464.10  153326.22  49.07
747.3  313038.60  154960.82  49.50
748.6  313763.75  156550.44  49.89
749.9  314392.00  157991.60  50.25
751.2  314950.60  159324.48  50.59
752.5  315682.80  160633.48  50.88
753.8  316159.38  161743.97  51.16
755.1  316784.00  162824.63  51.40
756.4  317310.60  163773.12  51.61
757.7  318245.38  164867.76  51.81
759.0  319997.45  166294.23  51.97
760.3  321103.20  167353.37  52.12
761.6  322578.20  168554.32  52.25
762.9  323086.50  169192.99  52.37
764.2  323391.80  169712.10  52.48
765.5  323624.38  170139.36  52.57
766.8  323979.20  170606.95  52.66
768.1  324443.40  171096.56  52.74
769.3  324998.10  171596.69  52.80
770.6  325589.55  172120.89  52.86
771.9  326238.33  172652.38  52.92
773.2  326571.60  172986.84  52.97
774.5  327098.20  173428.77  53.02
775.8  327678.30  173882.25  53.06
777.1  328170.70  174272.03  53.10
778.4  328412.43  174534.81  53.15
779.6  329115.20  175002.97  53.17
780.9  329490.00  175329.43  53.21
782.2  329876.25  175645.33  53.25
783.5  330132.00  175864.75  53.27
784.8  330536.48  176186.01  53.30
786.0  330906.45  176431.82  53.32
787.3  331179.95  176659.29  53.34
788.6  331521.03  176913.36  53.36
789.9  331885.40  177192.92  53.39
791.2  332460.45  177570.98  53.41
792.4  333047.50  177950.06  53.43
793.7  333432.20  178234.81  53.45
795.0  333954.23  178580.54  53.47
796.2  334515.15  178926.35  53.49
797.5  335130.98  179295.10  53.50
798.8  335729.48  179671.66  53.52
800.0  336343.90  180028.28  53.53
801.3  336704.70  180278.25  53.54
802.6  337153.28  180608.66  53.57
803.8  337734.88  180971.09  53.58
805.1  338135.88  181233.18  53.60
806.4  338518.50  181495.34  53.61
807.7  339003.23  181794.38  53.63
808.9  339488.20  182093.48  53.64
810.2  339932.25  182395.56  53.66
811.4  340328.70  182672.69  53.68
812.7  340884.38  183051.61  53.70
814.0  341668.45  183492.56  53.70
815.2  342224.75  183850.30  53.72
816.5  342596.60  184120.91  53.74
817.7  343014.25  184382.33  53.75
819.0  343472.25  184683.61  53.77
820.2  343596.00  184806.29  53.79
821.5  344251.50  185217.13  53.80
822.7  344542.75  185442.52  53.82
824.0  344846.70  185653.70  53.84
825.2  345260.48  185946.03  53.86
826.5  345580.25  186162.20  53.87
827.7  346116.18  186496.17  53.88
829.0  346483.48  186721.16  53.89
830.2  346792.85  186928.07  53.90
831.5  347288.75  187228.58  53.91
832.7  347614.05  187428.74  53.92
834.0  347954.08  187665.69  53.93
835.2  348293.28  187916.44  53.95
836.4  348588.90  188119.72  53.97
837.7  348993.80  188391.46  53.98
838.9  349505.95  188697.97  53.99
840.1  349876.13  188946.72  54.00
841.4  350276.40  189228.27  54.02
842.6  350672.60  189486.57  54.04
843.8  351014.00  189720.01  54.05
845.1  351530.05  190070.92  54.07
846.3  351945.60  190355.59  54.09
847.5  352367.40  190660.50  54.11
848.8  352816.20  190923.16  54.11
850.0  353158.05  191179.16  54.13
851.2  353670.30  191521.11  54.15
852.5  354035.80  191770.16  54.17
853.7  354633.75  192125.83  54.18
854.9  355155.30  192428.43  54.18
856.1  355638.40  192710.80  54.19
857.4  355809.95  192859.42  54.20
858.6  356293.50  193161.49  54.21
859.8  356726.25  193445.25  54.23
861.0  357177.60  193741.97  54.24
862.2  357720.48  194040.84  54.24
863.5  358119.45  194284.58  54.25
864.7  358571.40  194578.37  54.26
865.9  358999.40  194814.09  54.27
867.1  359330.90  195050.52  54.28
868.3  359729.10  195337.12  54.30
869.5  360320.95  195635.23  54.29
870.8  360850.50  195923.06  54.29
872.0  361339.73  196222.13  54.30
873.2  361756.35  196435.61  54.30
874.4  362179.35  196710.93  54.31
875.6  362577.38  196980.43  54.33
876.8  363086.30  197256.08  54.33
878.0  363587.45  197539.35  54.33
879.2  364155.90  197805.07  54.32
880.4  364605.00  198083.73  54.33
881.6  365025.70  198287.30  54.32
882.8  365597.60  198535.75  54.30
884.0  366125.68  198875.15  54.32
885.2  366586.00  199119.09  54.32
886.5  367128.20  199455.56  54.33
887.7  367572.08  199672.88  54.32
888.8  368203.35  200009.61  54.32
890.0  368783.05  200283.68  54.31
891.2  369365.40  200582.25  54.30
892.4  369932.33  200863.85  54.30
893.6  370465.75  201154.03  54.30
894.8  371254.50  201588.43  54.30
896.0  371989.00  202013.45  54.31
897.2  372875.75  202426.90  54.29
898.4  373599.60  202811.21  54.29
899.6  374053.88  203069.69  54.29
900.8  374364.18  203214.22  54.28
902.0  374538.90  203299.73  54.28
903.2  374736.83  203456.47  54.29
904.3  375110.70  203600.07  54.28
905.5  375675.78  203877.60  54.27
906.7  376139.00  204144.35  54.27
907.9  376540.50  204381.38  54.28
909.1  376832.93  204469.69  54.26
910.2  377065.20  204499.68  54.23
911.4  377164.13  204640.02  54.26
912.6  377291.20  204672.84  54.25
913.8  377438.18  204806.99  54.26
915.0  377723.85  204975.12  54.27
916.2  377841.75  204965.62  54.25
917.3  377844.98  204891.93  54.23
918.5  377940.50  204996.71  54.24
919.7  378074.70  205063.90  54.24
920.8  377924.03  205021.93  54.25
922.0  378108.50  204993.25  54.22
923.2  378105.00  205046.40  54.23
924.4  378317.25  205008.50  54.19
925.5  378529.40  205042.44  54.17
926.7  379002.25  205312.89  54.17
927.9  379719.60  205679.04  54.17
929.0  381118.50  206392.59  54.15
930.2  383205.30  207382.45  54.12
931.4  385514.10  208539.23  54.09
932.5  388087.45  209812.79  54.06
933.7  389230.98  210463.78  54.07
934.9  389795.00  210604.00  54.03
936.0  389304.50  210248.82  54.01
937.2  386987.55  208953.90  53.99
938.3  385280.75  207872.52  53.95
939.5  383576.40  206907.43  53.94
940.7  384024.60  206839.91  53.86
941.8  385233.30  207462.62  53.85
943.0  386463.00  208017.07  53.83
944.2  387218.00  208231.44  53.78
945.3  386616.75  207834.62  53.76
946.5  385808.40  207170.96  53.70
947.6  385976.80  207002.13  53.63
948.8  385721.70  206675.43  53.58
949.9  385522.20  206412.72  53.54
951.1  385008.00  205847.51  53.47
952.2  384540.00  205375.55  53.41
953.4  384448.75  204958.41  53.31
954.5  384134.40  204564.81  53.25
955.7  384060.60  204218.28  53.17
956.8  383939.80  203655.57  53.04
958.0  383416.50  203121.83  52.98
959.1  382829.60  202649.46  52.93
960.3  382448.43  202167.74  52.86
961.4  382316.50  201880.54  52.80
962.6  382401.25  201691.40  52.74
963.7  381971.03  201404.82  52.73
964.9  381809.03  201128.40  52.68
966.0  381390.53  200927.16  52.68
967.2  381168.45  200655.89  52.64
968.3  380975.40  200488.89  52.63
969.5  380781.15  200263.57  52.59
970.6  381117.00  200185.42  52.53
971.8  381168.03  200187.00  52.52
972.9  380914.50  199984.58  52.50
974.0  381303.00  200074.67  52.47
975.2  381036.63  199850.52  52.45
976.3  381112.08  199739.40  52.41
977.5  380822.23  199654.79  52.43
978.6  380895.20  199535.59  52.39
979.7  380978.33  199608.62  52.39
980.9  381031.63  199360.39  52.32
982.0  380600.35  199124.40  52.32
983.2  380128.20  198910.40  52.33
984.3  379572.40  198657.91  52.34
985.4  380123.78  198781.84  52.29
986.6  379529.25  198660.67  52.34
987.7  380247.18  198872.72  52.30
988.9  380548.80  198547.20  52.17
990.0  379859.40  198724.48  52.32
993.1  386769.54  201757.94  52.16
996.9  385377.68  201549.23  52.30
1000.7  385349.48  202043.41  52.43
1004.5  385405.25  202583.65  52.56
1008.4  385115.17  202930.69  52.69
1012.2  384982.00  203328.45  52.82
1016.0  384607.80  203567.80  52.93
1019.8  383916.23  203588.97  53.03
1023.7  382717.59  203295.97  53.12
1027.5  380973.35  202716.06  53.21
1031.3  379874.78  202407.99  53.28
1035.1  378757.23  202081.43  53.35
1038.9  378277.72  202077.22  53.42
1042.7  377978.33  202171.95  53.49
1046.5  377829.67  202339.06  53.55
1050.3  377847.93  202491.31  53.59
1054.2  377461.58  202469.57  53.64
1058.0  377130.19  202415.74  53.67
1061.8  377085.23  202530.87  53.71
1065.6  376467.83  202254.48  53.72
1069.4  375634.47  201817.44  53.73
1073.2  374317.83  201067.97  53.72
1077.0  373631.10  200624.19  53.70
1080.8  373888.54  200674.68  53.67
1084.6  374052.12  200696.94  53.65
1088.4  374393.13  200840.69  53.64
1092.2  373902.75  200473.23  53.62
1096.0  373251.44  199968.17  53.57
1099.8  372559.63  199392.92  53.52
1103.6  371641.08  198680.86  53.46
1107.4  370462.72  197797.95  53.39
1111.2  370155.10  197369.76  53.32
1114.9  369658.92  196791.61  53.24
1118.7  369443.25  196251.42  53.12
1122.5  369094.27  195537.52  52.98
1126.3  368231.56  194366.55  52.78
1130.1  367847.05  193167.52  52.51
1133.9  366174.20  190928.02  52.14
1137.7  364605.90  188375.50  51.67
1141.4  362546.06  185288.26  51.11
1145.2  361591.75  182622.15  50.51
1149.0  360322.08  179908.41  49.93
1152.8  358479.10  177186.12  49.43
1156.6  356630.63  174870.30  49.03
1160.3  354804.33  172971.18  48.75
1164.1  352473.83  171139.84  48.55
1167.9  350845.83  169890.83  48.42
1171.7  349531.88  168941.25  48.33
1175.4  348078.73  167954.51  48.25
1179.2  346690.00  166986.23  48.17
1183.0  346385.33  166500.64  48.07
1186.7  346430.00  166252.74  47.99
1190.5  346114.93  165925.68  47.94
1194.3  345200.57  165376.59  47.91
1198.0  343698.85  164616.62  47.90
1201.8  341997.08  163826.47  47.90
1205.6  340963.00  163465.11  47.94
1209.3  340421.70  163469.03  48.02
1213.1  339972.38  163613.74  48.13
1216.8  339330.29  163772.49  48.26
1220.6  338184.00  163703.96  48.41
1224.3  336918.00  163540.02  48.54
1228.1  335367.80  163262.55  48.68
1231.9  333774.60  162863.52  48.79
1235.6  332016.53  162347.25  48.90
1239.4  330463.38  161908.90  48.99
1243.1  329063.70  161480.59  49.07
1246.9  327759.26  161058.62  49.14
1250.6  326745.33  160705.72  49.18
1254.3  325562.05  160283.98  49.23
1258.1  324322.83  159776.04  49.26
1261.8  322871.33  159115.93  49.28
1265.6  321740.73  158558.80  49.28
1269.3  321050.33  158172.19  49.27
1273.1  321421.08  158268.32  49.24
1276.8  321128.40  157954.65  49.19
1280.6  319919.23  157127.02  49.11
1284.3  317914.00  155855.45  49.02
1288.0  316696.26  154907.22  48.91
1291.8  316290.22  154301.64  48.78
1295.5  315600.27  153479.48  48.63
1299.2  314428.21  152332.14  48.45
1302.9  312775.39  150825.93  48.22
1306.7  311000.55  149125.14  47.95
1310.4  309276.07  147267.72  47.62
1314.1  307696.22  145370.62  47.24
1317.9  306280.63  143379.82  46.81
1321.6  304729.64  141195.69  46.33
1325.3  303068.85  138791.83  45.80
1329.0  301784.70  136473.98  45.22
1332.8  299853.40  133764.77  44.61
1336.5  298219.07  131152.67  43.98
1340.2  298100.83  129255.03  43.36
1343.9  298159.38  127449.10  42.75
1347.6  298540.35  125819.65  42.14
1351.4  300343.50  124847.34  41.57
1355.1  302861.90  124195.54  41.01
1358.8  304928.00  123304.38  40.44
1362.5  305335.48  121600.96  39.83
