/*** Spectra Vista SIG Data ***/
name= 39_20220926_QUPA_22_avg.sig
comm= Averaged Ref/Tar of files: HR.092722.0033_moc.sig,HR.092722.0034_moc.sig
data=
337.3  3027.13  198.50  6.56
338.8  3174.60  202.02  6.36
340.3  3279.50  206.14  6.29
341.8  3520.83  201.19  5.71
343.2  3685.20  222.00  6.02
344.7  3881.15  204.72  5.27
346.2  4044.15  187.91  4.65
347.7  4286.43  188.76  4.40
349.2  4460.40  181.44  4.07
350.6  4700.80  205.66  4.38
352.1  5001.50  200.06  4.00
353.6  5239.70  194.32  3.71
355.1  5556.38  188.58  3.39
356.6  5866.73  196.65  3.35
358.0  6156.70  197.78  3.21
359.5  6427.20  203.94  3.17
361.0  6733.13  209.48  3.11
362.5  7084.55  216.64  3.06
364.0  7455.50  223.67  3.00
365.4  7811.80  224.80  2.88
366.9  8177.00  232.05  2.84
368.4  8537.08  245.48  2.88
369.9  8918.25  259.44  2.91
371.3  9345.00  272.34  2.91
372.8  9770.40  286.74  2.93
374.3  10212.50  295.63  2.89
375.8  10645.25  285.67  2.68
377.2  11055.90  290.52  2.63
378.7  11459.40  295.90  2.58
380.2  11862.90  301.28  2.54
381.7  12377.45  313.49  2.53
383.1  12855.15  328.79  2.56
384.6  13352.63  329.10  2.46
386.1  13809.78  335.11  2.43
387.6  14283.50  339.57  2.38
389.0  14766.80  348.40  2.36
390.5  15266.25  366.39  2.40
392.0  15843.55  380.88  2.40
393.4  16421.88  388.87  2.37
394.9  16938.90  396.72  2.34
396.4  17465.63  408.83  2.34
397.9  18040.00  415.13  2.30
399.3  18588.55  425.46  2.29
400.8  19142.40  443.67  2.32
402.2  19787.30  466.45  2.36
403.7  20367.45  481.50  2.36
405.2  20976.05  492.44  2.35
406.6  21552.80  505.76  2.35
408.1  22148.00  515.28  2.33
409.6  22740.20  531.19  2.34
411.0  23420.95  546.56  2.33
412.5  24094.53  574.77  2.39
414.0  24735.25  590.88  2.39
415.4  25420.13  608.18  2.39
416.9  26098.35  620.66  2.38
418.4  26798.63  638.69  2.38
419.8  27554.80  666.12  2.42
421.3  28252.63  684.48  2.42
422.7  29040.60  713.40  2.46
424.2  29801.25  732.38  2.46
425.7  30562.50  756.32  2.47
427.1  31333.50  775.43  2.47
428.6  32147.00  799.80  2.49
430.0  32899.40  819.45  2.49
431.5  33760.35  847.74  2.51
432.9  34632.60  873.14  2.52
434.4  35526.00  893.88  2.52
435.9  36372.00  921.20  2.53
437.3  37235.00  940.50  2.53
438.8  38091.45  971.97  2.55
440.2  38983.18  994.46  2.55
441.7  39945.40  1023.76  2.56
443.1  40849.75  1057.35  2.59
444.6  41815.20  1087.30  2.60
446.0  42765.60  1115.85  2.61
447.5  43738.20  1152.91  2.64
448.9  44685.60  1184.22  2.65
450.4  45700.55  1222.48  2.67
451.8  46579.00  1253.20  2.69
453.3  47527.63  1289.20  2.71
454.7  48536.70  1320.14  2.72
456.2  49408.60  1351.60  2.74
457.6  50378.63  1377.95  2.74
459.1  51381.20  1407.12  2.74
460.5  52323.00  1436.48  2.75
462.0  53396.70  1474.23  2.76
463.4  54457.50  1504.26  2.76
464.8  55444.50  1540.13  2.78
466.3  56422.58  1568.00  2.78
467.7  57397.85  1593.29  2.78
469.2  58453.48  1627.07  2.78
470.6  59459.60  1655.09  2.78
472.0  60522.50  1689.00  2.79
473.5  61556.75  1717.60  2.79
474.9  62600.25  1752.75  2.80
476.4  63763.20  1794.24  2.81
477.8  64829.50  1827.00  2.82
479.2  65844.50  1856.00  2.82
480.7  66961.35  1896.23  2.83
482.1  68102.85  1927.63  2.83
483.6  69302.20  1973.87  2.85
485.0  70377.45  2017.82  2.87
486.4  71586.00  2066.10  2.89
487.9  72657.00  2108.93  2.90
489.3  73801.70  2155.74  2.92
490.7  74876.63  2199.92  2.94
492.2  76101.90  2260.86  2.97
493.6  77220.15  2323.49  3.01
495.0  78331.50  2386.80  3.05
496.5  79523.83  2459.53  3.09
497.9  80639.13  2532.91  3.14
499.3  81813.13  2620.96  3.20
500.7  83080.15  2716.11  3.27
502.2  84242.00  2829.48  3.36
503.6  85526.80  2955.04  3.46
505.0  86625.45  3091.15  3.57
506.5  87940.80  3250.50  3.70
507.9  89098.25  3421.61  3.84
509.3  90428.00  3623.04  4.01
510.7  91669.50  3852.23  4.20
512.2  93045.30  4110.90  4.42
513.6  94552.15  4411.19  4.67
515.0  96004.53  4745.46  4.94
516.4  97410.60  5103.00  5.24
517.8  99044.50  5517.23  5.57
519.3  100396.98  5936.84  5.91
520.7  101974.90  6403.99  6.28
522.1  103261.28  6872.91  6.66
523.5  104611.40  7350.32  7.03
524.9  106103.70  7837.11  7.39
526.3  107567.60  8308.65  7.72
527.8  109073.25  8776.35  8.05
529.2  110081.20  9193.30  8.35
530.6  111597.35  9623.70  8.62
532.0  113246.00  10026.80  8.85
533.4  114613.73  10371.30  9.05
534.8  115546.83  10656.71  9.22
536.3  117132.00  10959.84  9.36
537.7  119057.40  11277.00  9.47
539.1  120489.20  11528.81  9.57
540.5  121692.95  11751.16  9.66
541.9  123449.10  12015.21  9.73
543.3  124743.78  12234.78  9.81
544.7  126084.00  12462.48  9.88
546.1  127881.05  12733.99  9.96
547.5  129124.80  12942.72  10.02
549.0  130746.00  13182.40  10.08
550.4  132249.38  13391.75  10.13
551.8  133814.85  13589.88  10.16
553.2  135316.05  13747.39  10.16
554.6  136656.00  13848.64  10.13
556.0  138162.15  13922.82  10.08
557.4  139769.53  13961.47  9.99
558.8  141422.40  13960.08  9.87
560.2  142884.50  13902.50  9.73
561.6  144553.05  13827.72  9.57
563.0  146126.25  13713.87  9.38
564.4  147731.65  13565.19  9.18
565.8  149238.75  13383.25  8.97
567.2  150994.50  13194.55  8.74
568.6  152467.50  12958.65  8.50
570.0  153880.48  12698.08  8.25
571.4  155595.05  12453.35  8.00
572.8  157352.00  12215.25  7.76
574.2  158972.80  11979.52  7.54
575.6  160537.50  11763.00  7.33
577.0  162053.30  11571.20  7.14
578.4  163754.50  11411.40  6.97
579.8  165285.90  11259.27  6.81
581.2  166980.95  11144.41  6.67
582.5  168409.80  11023.74  6.55
583.9  169920.00  10924.44  6.43
585.3  171708.08  10858.91  6.32
586.7  173196.08  10788.83  6.23
588.1  174672.75  10735.48  6.15
589.5  176314.25  10708.95  6.07
590.9  177940.00  10688.80  6.01
592.3  179728.55  10700.13  5.95
593.7  181176.45  10700.24  5.91
595.0  182794.73  10724.27  5.87
596.4  184239.65  10743.32  5.83
597.8  185730.38  10765.96  5.80
599.2  187255.20  10787.04  5.76
600.6  189001.80  10806.58  5.72
602.0  190312.80  10788.33  5.67
603.3  192084.80  10777.67  5.61
604.7  193747.40  10745.82  5.55
606.1  195242.40  10681.20  5.47
607.5  196885.58  10608.07  5.39
608.9  198582.70  10523.45  5.30
610.2  199938.38  10415.79  5.21
611.6  201538.43  10314.00  5.12
613.0  203109.20  10207.48  5.03
614.4  204485.70  10100.61  4.94
615.8  205934.63  9997.65  4.85
617.1  207461.10  9919.56  4.78
618.5  209079.60  9856.80  4.71
619.9  210591.75  9808.71  4.66
621.3  212210.78  9783.68  4.61
622.6  213805.00  9772.20  4.57
624.0  215280.30  9773.67  4.54
625.4  216738.23  9796.88  4.52
626.8  218299.90  9828.91  4.50
628.1  219556.70  9858.31  4.49
629.5  221335.85  9924.92  4.48
630.9  222788.78  9967.71  4.47
632.2  224053.03  9994.88  4.46
633.6  225570.50  10021.55  4.44
635.0  227005.60  10010.40  4.41
636.3  228481.10  9978.64  4.37
637.7  229836.50  9903.75  4.31
639.1  231490.00  9817.50  4.24
640.4  232956.50  9700.04  4.16
641.8  234184.85  9557.77  4.08
643.2  235748.98  9416.26  3.99
644.5  237104.00  9271.00  3.91
645.9  238650.75  9143.82  3.83
647.2  239696.45  9018.66  3.76
648.6  241218.00  8938.35  3.71
650.0  242611.20  8873.28  3.66
651.3  243611.23  8824.15  3.62
652.7  245736.05  8800.49  3.58
654.0  247755.10  8756.96  3.53
655.4  249135.73  8718.27  3.50
656.8  249404.90  8644.16  3.47
658.1  250835.00  8585.14  3.42
659.5  253065.75  8542.38  3.38
660.8  254430.00  8460.00  3.33
662.2  255449.60  8373.12  3.28
663.5  256962.15  8310.68  3.23
664.9  258017.50  8243.30  3.19
666.2  258852.00  8196.24  3.17
667.6  260555.08  8202.21  3.15
668.9  261515.25  8221.63  3.14
670.3  263331.38  8265.33  3.14
671.6  264371.63  8323.43  3.15
673.0  265544.25  8407.50  3.17
674.3  266791.20  8521.76  3.19
675.7  268122.95  8653.40  3.23
677.0  269189.55  8801.19  3.27
678.4  270489.03  8986.20  3.32
679.7  271524.20  9184.43  3.38
681.1  272758.70  9421.61  3.45
682.4  273819.00  9693.06  3.54
683.8  274990.30  9998.04  3.64
685.1  275987.25  10354.50  3.75
686.4  277278.00  10780.32  3.89
687.8  278481.00  11298.55  4.06
689.1  279526.75  11943.80  4.27
690.5  280850.10  12793.14  4.56
691.8  281656.70  13885.06  4.93
693.1  282943.80  15306.87  5.41
694.5  284102.00  17085.25  6.01
695.8  285330.50  19255.60  6.75
697.1  286490.75  21835.45  7.62
698.5  287518.20  24815.64  8.63
699.8  288562.05  28189.56  9.77
701.1  289718.48  31917.33  11.02
702.5  290511.65  35895.09  12.36
703.8  291420.00  40081.50  13.75
705.1  292556.55  44459.81  15.20
706.5  293560.00  48938.60  16.67
707.8  294528.30  53488.02  18.16
709.1  295359.75  58062.86  19.66
710.5  296453.68  62733.25  21.16
711.8  297259.00  67368.30  22.66
713.1  298262.50  72046.84  24.16
714.4  299154.50  76712.00  25.64
715.8  299935.00  81345.94  27.12
717.1  301255.65  86096.67  28.58
718.4  302198.40  90711.04  30.02
719.7  303277.65  95311.98  31.43
721.0  303795.00  99675.00  32.81
722.4  304515.20  104027.66  34.16
723.7  305480.55  108339.48  35.47
725.0  306469.35  112561.47  36.73
726.3  307384.28  116631.19  37.94
727.6  307932.08  120411.01  39.10
729.0  308822.68  124184.73  40.21
730.3  309617.18  127742.70  41.26
731.6  310487.80  131177.16  42.25
732.9  311233.30  134403.82  43.18
734.2  312032.88  137454.35  44.05
735.5  313023.65  140448.96  44.87
736.8  313859.10  143190.66  45.62
738.1  314691.30  145799.56  46.33
739.5  315628.80  148284.62  46.98
740.8  316314.90  150486.99  47.58
742.1  316971.35  152544.63  48.13
743.4  317575.00  154450.00  48.63
744.7  318438.58  156351.86  49.10
746.0  319333.95  158123.16  49.52
747.3  319930.35  159623.14  49.89
748.6  320664.75  161076.55  50.23
749.9  321308.00  162364.80  50.53
751.2  321854.20  163536.87  50.81
752.5  322586.40  164703.16  51.06
753.8  323069.25  165659.69  51.28
755.1  323726.00  166613.20  51.47
756.4  324297.88  167466.02  51.64
757.7  325285.63  168465.36  51.79
759.0  327051.98  169806.88  51.92
760.3  328204.80  170776.32  52.03
761.6  329707.00  171894.52  52.14
762.9  330228.75  172446.55  52.22
764.2  330574.10  172875.54  52.30
765.5  330813.03  173203.23  52.36
766.8  331187.20  173584.96  52.41
768.1  331649.60  173984.52  52.46
769.3  332214.75  174421.73  52.50
770.6  332800.65  174877.56  52.55
771.9  333479.30  175327.39  52.58
773.2  333813.60  175585.84  52.60
774.5  334391.20  175964.36  52.62
775.8  335006.20  176365.82  52.65
777.1  335516.50  176701.47  52.67
778.4  335798.10  176920.76  52.69
779.6  336487.00  177339.35  52.70
780.9  336900.00  177624.00  52.72
782.2  337317.75  177906.30  52.74
783.5  337574.00  178089.50  52.76
784.8  338026.95  178371.95  52.77
786.0  338351.30  178595.41  52.78
787.3  338702.48  178822.07  52.80
788.6  339063.55  179047.45  52.81
789.9  339420.20  179296.04  52.82
791.2  340017.85  179644.61  52.83
792.4  340631.75  179990.74  52.84
793.7  341080.80  180273.16  52.85
795.0  341632.50  180598.44  52.86
796.2  342181.55  180927.04  52.87
797.5  342770.48  181292.28  52.89
798.8  343373.30  181655.33  52.90
800.0  344014.03  182006.72  52.91
801.3  344394.00  182247.24  52.92
802.6  344928.38  182553.48  52.93
803.8  345467.28  182878.70  52.94
805.1  345886.63  183135.93  52.95
806.4  346290.90  183390.54  52.96
807.7  346775.18  183687.35  52.97
808.9  347278.20  183984.22  52.98
810.2  347723.60  184247.63  52.99
811.4  348148.20  184500.10  52.99
812.7  348684.38  184843.75  53.01
814.0  349445.80  185273.76  53.02
815.2  350032.00  185628.85  53.03
816.5  350375.20  185849.36  53.04
817.7  350812.95  186097.55  53.05
819.0  351293.25  186383.12  53.06
820.2  351428.00  186489.60  53.07
821.5  352020.60  186869.18  53.08
822.7  352330.05  187067.25  53.09
824.0  352603.80  187244.46  53.10
825.2  353038.50  187510.95  53.11
826.5  353286.08  187700.66  53.13
827.7  353848.20  188008.27  53.13
829.0  354230.75  188244.17  53.14
830.2  354507.05  188414.39  53.15
831.5  354961.70  188694.39  53.16
832.7  355252.80  188870.64  53.17
834.0  355505.93  189075.57  53.18
835.2  355856.88  189279.09  53.19
836.4  356164.60  189488.53  53.20
837.7  356527.60  189732.52  53.22
838.9  356941.08  190008.75  53.23
840.1  357215.40  190216.08  53.25
841.4  357616.50  190455.68  53.26
842.6  357955.40  190693.76  53.27
843.8  358280.40  190930.52  53.29
845.1  358770.75  191225.70  53.30
846.3  359097.50  191454.56  53.32
847.5  359553.60  191688.84  53.31
848.8  359923.20  191963.16  53.33
850.0  360237.50  192185.14  53.35
851.2  360649.80  192494.61  53.37
852.5  361044.50  192732.82  53.38
853.7  361485.00  193022.55  53.40
854.9  361963.60  193289.62  53.40
856.1  362333.40  193525.67  53.41
857.4  362524.63  193653.94  53.42
858.6  363021.20  193949.98  53.43
859.8  363386.25  194180.63  53.44
861.0  363706.20  194425.92  53.46
862.2  364117.23  194660.21  53.46
863.5  364440.05  194889.96  53.48
864.7  364960.20  195163.32  53.48
865.9  365311.80  195376.12  53.48
867.1  365559.50  195563.21  53.50
868.3  365941.65  195777.66  53.50
869.5  366372.95  196039.41  53.51
870.8  366817.50  196314.30  53.52
872.0  367371.08  196591.08  53.51
873.2  367695.75  196812.96  53.53
874.4  368102.48  197058.42  53.53
875.6  368480.73  197251.67  53.53
876.8  368893.10  197495.72  53.54
878.0  369302.95  197756.30  53.55
879.2  369776.10  197996.34  53.54
880.4  370207.88  198258.15  53.55
881.6  370607.65  198497.53  53.56
882.8  370990.40  198694.72  53.56
884.0  371579.90  198983.98  53.55
885.2  372023.40  199219.32  53.55
886.5  372459.20  199503.79  53.56
887.7  372973.58  199693.46  53.54
888.8  373497.30  200038.29  53.56
890.0  374052.70  200302.17  53.55
891.2  374425.20  200555.48  53.56
892.4  375063.68  200844.84  53.55
893.6  375475.95  201101.72  53.56
894.8  376239.75  201521.40  53.56
896.0  377050.75  201934.05  53.56
897.2  377812.50  202366.45  53.56
898.4  378510.00  202697.22  53.55
899.6  378936.00  202909.43  53.55
900.8  379213.73  203069.64  53.55
902.0  379351.65  203119.44  53.54
903.2  379620.45  203245.62  53.54
904.3  379845.00  203398.74  53.55
905.5  380370.33  203676.41  53.55
906.7  380906.00  203891.40  53.53
907.9  381261.65  204114.89  53.54
909.1  381387.15  204192.77  53.54
910.2  381446.93  204235.76  53.54
911.4  381721.28  204328.22  53.53
912.6  381788.55  204325.55  53.52
913.8  381874.28  204356.34  53.51
915.0  382097.10  204493.17  53.52
916.2  382151.25  204523.80  53.52
917.3  382084.65  204455.12  53.51
918.5  382233.80  204517.20  53.51
919.7  382415.85  204612.87  53.51
920.8  382313.85  204539.24  53.50
922.0  382285.75  204469.65  53.49
923.2  382336.50  204449.70  53.47
924.4  382468.50  204490.58  53.47
925.5  382738.40  204557.40  53.45
926.7  383273.50  204820.68  53.44
927.9  384057.60  205158.48  53.42
929.0  385238.70  205745.13  53.41
930.2  387258.00  206777.76  53.40
931.4  389497.95  207895.68  53.38
932.5  392157.75  209213.42  53.35
933.7  393373.43  209831.03  53.34
934.9  394003.75  210016.63  53.30
936.0  393407.63  209653.28  53.29
937.2  391289.25  208367.73  53.25
938.3  389292.35  207266.00  53.24
939.5  387637.20  206288.64  53.22
940.7  387978.30  206245.62  53.16
941.8  389268.08  206861.16  53.14
943.0  390585.75  207428.10  53.11
944.2  391236.30  207709.58  53.09
945.3  390507.00  207257.70  53.07
946.5  389749.05  206640.18  53.02
947.6  389790.80  206451.82  52.96
948.8  389408.18  206170.97  52.94
949.9  389470.20  205967.16  52.88
951.1  389018.50  205457.92  52.81
952.2  388620.00  205060.80  52.77
953.4  388386.50  204680.10  52.70
954.5  388135.80  204408.36  52.66
955.7  387916.20  204004.08  52.59
956.8  387426.20  203518.60  52.53
958.0  386960.50  203115.50  52.49
959.1  386892.65  202701.05  52.39
960.3  386358.00  202194.02  52.33
961.4  386069.30  201994.46  52.32
962.6  385997.50  201821.55  52.29
963.7  385650.90  201559.02  52.26
964.9  385323.38  201372.26  52.26
966.0  385248.15  201162.29  52.22
967.2  385394.85  201123.81  52.19
968.3  385045.65  200907.54  52.18
969.5  384695.20  200678.94  52.17
970.6  384292.98  200663.88  52.22
971.8  384461.70  200614.75  52.18
972.9  384348.98  200635.79  52.20
974.0  384887.90  200624.04  52.13
975.2  384789.00  200513.28  52.11
976.3  384338.80  200415.48  52.15
977.5  384225.80  200508.39  52.19
978.6  384496.10  200370.08  52.11
979.7  384376.13  200470.20  52.15
980.9  384188.10  200391.07  52.16
982.0  383960.00  200331.13  52.18
983.2  383704.68  200078.23  52.14
984.3  383379.00  199792.12  52.11
985.4  383016.65  199724.09  52.15
986.6  381985.75  199467.80  52.22
987.7  382856.08  199972.19  52.23
988.9  381927.60  199926.00  52.35
990.0  382770.20  199971.96  52.24
993.1  386297.39  200026.72  51.78
996.9  385031.05  199898.64  51.92
1000.7  385097.24  200366.36  52.03
1004.5  385174.92  200860.27  52.15
1008.4  384699.50  201117.10  52.28
1012.2  384507.42  201440.29  52.39
1016.0  384169.80  201664.59  52.49
1019.8  383552.40  201714.98  52.59
1023.7  382376.12  201452.18  52.68
1027.5  380758.05  200884.30  52.76
1031.3  379771.80  200594.48  52.82
1035.1  378757.23  200251.06  52.87
1038.9  378277.72  200144.94  52.91
1042.7  377945.92  200138.96  52.95
1046.5  377797.50  200216.06  53.00
1050.3  377753.41  200304.48  53.03
1054.2  377368.83  200214.86  53.06
1058.0  376978.23  200056.05  53.07
1061.8  376905.28  200100.12  53.09
1065.6  376347.70  199840.37  53.10
1069.4  375575.40  199430.17  53.10
1073.2  374288.17  198722.14  53.09
1077.0  373571.05  198289.39  53.08
1080.8  373646.88  198269.52  53.06
1084.6  373629.08  198182.49  53.04
1088.4  373825.18  198232.28  53.03
1092.2  373347.00  197862.32  53.00
1096.0  372702.50  197360.35  52.95
1099.8  372020.35  196830.31  52.91
1103.6  371080.75  196163.36  52.86
1107.4  369935.31  195351.92  52.81
1111.2  369573.40  194955.90  52.75
1114.9  369000.92  194416.81  52.69
1118.7  368708.18  193937.29  52.60
1122.5  368315.13  193317.83  52.49
1126.3  367351.83  192271.33  52.34
1130.1  366976.13  191274.23  52.12
1133.9  365293.60  189303.72  51.82
1137.7  363732.10  187155.36  51.45
1141.4  361687.84  184526.80  51.02
1145.2  360739.77  182344.12  50.55
1149.0  359429.58  180114.41  50.11
1152.8  357619.85  177875.27  49.74
1156.6  355777.22  175978.00  49.46
1160.3  353952.67  174417.28  49.28
1164.1  351601.43  172850.02  49.16
1167.9  349959.38  171796.65  49.09
1171.7  348681.38  170996.07  49.04
1175.4  347211.70  170161.71  49.01
1179.2  345823.28  169338.77  48.97
1183.0  345462.33  168983.95  48.92
1186.7  345393.07  168805.23  48.87
1190.5  344974.87  168488.89  48.84
1194.3  344025.87  167987.04  48.83
1198.0  342580.43  167292.58  48.83
1201.8  340870.83  166525.72  48.85
1205.6  339779.33  166114.27  48.89
1209.3  339188.77  166015.10  48.94
1213.1  338671.88  165999.02  49.01
1216.8  338028.81  165982.61  49.10
1220.6  336931.47  165741.65  49.19
1224.3  335672.83  165422.59  49.28
1228.1  334165.00  164988.69  49.37
1231.9  332576.03  164474.75  49.45
1235.6  330811.73  163842.49  49.53
1239.4  329271.38  163302.67  49.60
1243.1  327886.63  162780.26  49.65
1246.9  326576.80  162272.70  49.69
1250.6  325525.87  161845.35  49.72
1254.3  324341.33  161345.90  49.75
1258.1  323107.28  160787.32  49.76
1261.8  321666.13  160107.37  49.77
1265.6  320451.98  159481.38  49.77
1269.3  319628.63  159010.38  49.75
1273.1  319959.54  159073.83  49.72
1276.8  319750.80  158828.54  49.67
1280.6  318659.00  158095.77  49.61
1284.3  316667.60  156901.54  49.55
1288.0  315396.93  155983.81  49.46
1291.8  314877.19  155361.98  49.34
1295.5  314116.00  154573.08  49.21
1299.2  312980.55  153524.51  49.05
1302.9  311355.03  152143.35  48.86
1306.7  309573.02  150595.53  48.65
1310.4  307873.91  148942.82  48.38
1314.1  306296.28  147263.64  48.08
1317.9  304866.25  145539.05  47.74
1321.6  303332.01  143639.38  47.35
1325.3  301668.15  141546.83  46.92
1329.0  300348.07  139570.31  46.47
1332.8  298405.80  137175.87  45.97
1336.5  296753.47  134904.27  45.46
1340.2  296584.17  133328.00  44.95
1343.9  296532.08  131805.92  44.45
1347.6  296732.70  130418.60  43.95
1351.4  298189.00  129623.92  43.47
1355.1  300213.10  129092.97  43.00
