/*** Spectra Vista SIG Data ***/
name= 45_20221021_QUPA_23_avg.sig
comm= Averaged Ref/Tar of files: HR.102122.0052_moc.sig,HR.102122.0053_moc.sig
data=
337.3  6317.33  401.10  6.35
338.8  6445.40  371.06  5.76
340.3  6805.80  391.61  5.75
341.8  7076.55  401.78  5.68
343.2  7461.30  406.06  5.44
344.7  7900.50  429.38  5.43
346.2  8225.00  423.00  5.14
347.7  8627.35  395.75  4.59
349.2  8920.80  367.20  4.12
350.6  9277.35  365.25  3.94
352.1  9834.25  373.97  3.80
353.6  10388.80  393.15  3.78
355.1  10910.10  389.65  3.57
356.6  11518.28  409.04  3.55
358.0  11968.43  398.04  3.33
359.5  12499.88  400.69  3.21
361.0  13223.90  415.10  3.14
362.5  13842.00  428.44  3.10
364.0  14539.78  452.60  3.11
365.4  15159.05  466.31  3.08
366.9  15764.93  456.62  2.90
368.4  16462.60  473.41  2.88
369.9  17172.00  492.14  2.87
371.3  18016.08  525.25  2.92
372.8  18805.90  564.03  3.00
374.3  19619.80  578.60  2.95
375.8  20443.28  565.98  2.77
377.2  21165.30  556.59  2.63
378.7  22018.15  571.90  2.60
380.2  22777.20  579.98  2.55
381.7  23632.00  595.33  2.52
383.1  24569.85  625.17  2.54
384.6  25446.30  630.90  2.48
386.1  26415.23  640.24  2.42
387.6  27181.28  645.92  2.38
389.0  28204.65  666.55  2.36
390.5  29186.03  683.76  2.34
392.0  30222.00  694.93  2.30
393.4  31287.38  719.25  2.30
394.9  32219.70  741.69  2.30
396.4  33345.40  773.46  2.32
397.9  34368.60  787.29  2.29
399.3  35267.38  796.25  2.26
400.8  36457.58  827.48  2.27
402.2  37657.95  854.47  2.27
403.7  38827.65  878.64  2.26
405.2  39922.60  908.83  2.28
406.6  41132.40  931.89  2.27
408.1  42175.95  955.97  2.27
409.6  43331.08  983.83  2.27
411.0  44556.33  996.60  2.24
412.5  45902.60  1031.13  2.25
414.0  47233.03  1061.23  2.25
415.4  48452.40  1105.72  2.28
416.9  49683.10  1131.11  2.28
418.4  51000.30  1172.78  2.30
419.8  52353.35  1196.85  2.29
421.3  53776.80  1232.55  2.29
422.7  55195.40  1284.40  2.33
424.2  56635.20  1329.73  2.35
425.7  58031.88  1368.91  2.36
427.1  59496.60  1399.05  2.35
428.6  60950.75  1445.49  2.37
430.0  62439.85  1475.45  2.36
431.5  64097.80  1512.37  2.36
432.9  65716.50  1556.57  2.37
434.4  67344.03  1608.05  2.39
435.9  68969.50  1660.85  2.41
437.3  70609.50  1696.40  2.40
438.8  72203.70  1737.91  2.41
440.2  73870.48  1776.83  2.41
441.7  75701.00  1825.87  2.41
443.1  77488.65  1876.12  2.42
444.6  79191.28  1931.94  2.44
446.0  80967.18  1988.09  2.46
447.5  82925.00  2039.29  2.46
448.9  84620.38  2086.58  2.47
450.4  86475.00  2135.72  2.47
451.8  88264.13  2200.24  2.49
453.3  90029.55  2253.09  2.50
454.7  91784.25  2310.05  2.52
456.2  93538.55  2350.60  2.51
457.6  95443.65  2400.11  2.51
459.1  97266.23  2454.90  2.52
460.5  99064.70  2512.41  2.54
462.0  101059.20  2572.72  2.55
463.4  102978.23  2627.40  2.55
464.8  104904.45  2677.50  2.55
466.3  106810.88  2730.71  2.56
467.7  108800.00  2782.17  2.56
469.2  110663.40  2839.12  2.57
470.6  112650.13  2894.63  2.57
472.0  114678.50  2954.31  2.58
473.5  116627.90  3008.04  2.58
474.9  118768.05  3073.80  2.59
476.4  120818.80  3125.52  2.59
477.8  122836.00  3200.00  2.61
479.2  124879.40  3254.91  2.61
480.7  126950.55  3313.04  2.61
482.1  129153.13  3370.95  2.61
483.6  131325.30  3443.66  2.62
485.0  133496.70  3524.85  2.64
486.4  135574.18  3593.60  2.65
487.9  137775.25  3660.40  2.66
489.3  139879.43  3739.92  2.67
490.7  142022.40  3832.62  2.70
492.2  144230.13  3927.91  2.72
493.6  146452.50  4030.73  2.75
495.0  148698.23  4148.35  2.79
496.5  150878.70  4264.65  2.83
497.9  153139.88  4406.23  2.88
499.3  155353.13  4556.22  2.93
500.7  157631.00  4730.15  3.00
502.2  159951.08  4923.25  3.08
503.6  162234.60  5144.49  3.17
505.0  164483.28  5393.89  3.28
506.5  166903.30  5693.69  3.41
507.9  169325.88  6034.04  3.56
509.3  171564.30  6413.05  3.74
510.7  174145.73  6858.71  3.94
512.2  176746.05  7377.41  4.17
513.6  179547.10  7972.92  4.44
515.0  182241.68  8642.85  4.74
516.4  185087.00  9394.29  5.08
517.8  187861.50  10210.97  5.44
519.3  190726.40  11113.15  5.83
520.7  193331.40  12051.76  6.23
522.1  195973.38  13052.05  6.66
523.5  198505.00  14083.13  7.09
524.9  201372.08  15151.08  7.52
526.3  203964.75  16185.93  7.94
527.8  206701.13  17232.25  8.34
529.2  209289.60  18267.43  8.73
530.6  211984.20  19306.80  9.11
532.0  214801.93  20319.89  9.46
533.4  217358.80  21259.95  9.78
534.8  219893.85  22151.61  10.07
536.3  222754.73  23044.95  10.35
537.7  225622.00  23903.57  10.59
539.1  228448.03  24741.79  10.83
540.5  231244.50  25538.47  11.04
541.9  234210.08  26345.12  11.25
543.3  236826.00  27110.43  11.45
544.7  239800.00  27921.14  11.64
546.1  242606.00  28706.00  11.83
547.5  245440.80  29480.92  12.01
549.0  248379.20  30246.35  12.18
550.4  251248.73  30961.13  12.32
551.8  254228.23  31620.32  12.44
553.2  257049.68  32184.89  12.52
554.6  259848.00  32650.00  12.57
556.0  262721.55  33014.40  12.57
557.4  265804.30  33304.07  12.53
558.8  268668.70  33479.70  12.46
560.2  271840.00  33617.14  12.37
561.6  274766.53  33639.97  12.24
563.0  277546.10  33572.78  12.10
564.4  280688.10  33492.10  11.93
565.8  283702.85  33327.66  11.75
567.2  286865.63  33109.54  11.54
568.6  289874.03  32813.39  11.32
570.0  292708.00  32396.70  11.07
571.4  296084.18  31979.37  10.80
572.8  299214.80  31500.80  10.53
574.2  302060.33  31005.23  10.26
575.6  305107.13  30568.49  10.02
577.0  308082.23  30166.72  9.79
578.4  311478.13  29856.25  9.59
579.8  314502.53  29558.43  9.40
581.2  317529.75  29284.18  9.22
582.5  320422.50  29044.29  9.06
583.9  323429.60  28854.95  8.92
585.3  326325.00  28690.43  8.79
586.7  329290.50  28571.40  8.68
588.1  332258.00  28485.92  8.57
589.5  335563.95  28461.86  8.48
590.9  338481.78  28447.05  8.40
592.3  341407.58  28477.29  8.34
593.7  344344.70  28543.65  8.29
595.0  347253.60  28634.40  8.25
596.4  350538.50  28762.61  8.21
597.8  353182.10  28839.90  8.17
599.2  356243.55  28913.49  8.12
600.6  359405.48  28961.86  8.06
602.0  362335.20  28936.55  7.99
603.3  365222.00  28841.43  7.90
604.7  368199.00  28682.66  7.79
606.1  371205.98  28460.63  7.67
607.5  374497.43  28183.42  7.53
608.9  377542.55  27835.50  7.37
610.2  380659.95  27454.47  7.21
611.6  383597.50  27040.36  7.05
613.0  386375.60  26616.00  6.89
614.4  389134.88  26201.63  6.73
615.8  392388.40  25835.95  6.58
617.1  395065.33  25487.18  6.45
618.5  398262.68  25225.16  6.33
619.9  400985.40  24986.90  6.23
621.3  403908.70  24825.91  6.15
622.6  406809.00  24724.61  6.08
624.0  409506.38  24677.63  6.03
625.4  412568.85  24704.47  5.99
626.8  415510.55  24784.78  5.96
628.1  418282.20  24888.85  5.95
629.5  420992.43  25009.68  5.94
630.9  423737.00  25145.89  5.93
632.2  426667.35  25268.90  5.92
633.6  429055.58  25303.39  5.90
635.0  431906.55  25296.54  5.86
636.3  434924.25  25179.83  5.79
637.7  437623.90  24931.86  5.70
639.1  440578.60  24577.77  5.58
640.4  443254.38  24114.16  5.44
641.8  446036.40  23593.12  5.29
643.2  448597.20  23010.30  5.13
644.5  451430.00  22420.00  4.97
645.9  454035.40  21816.00  4.80
647.2  456346.28  21250.08  4.66
648.6  458926.40  20780.18  4.53
650.0  461692.80  20374.72  4.41
651.3  464590.75  20058.24  4.32
652.7  468430.50  19786.07  4.22
654.0  471255.95  19488.19  4.14
655.4  473529.53  19141.88  4.04
656.8  475403.25  18731.03  3.94
658.1  478104.90  18295.28  3.83
659.5  481118.40  17847.78  3.71
660.8  483752.85  17392.20  3.60
662.2  486340.25  16894.05  3.47
663.5  489117.83  16442.72  3.36
664.9  491054.65  16035.13  3.27
666.2  493316.53  15685.85  3.18
667.6  495942.75  15444.97  3.11
668.9  498528.00  15274.29  3.06
670.3  501466.00  15159.38  3.02
671.6  503627.20  15106.52  3.00
673.0  505959.20  15112.57  2.99
674.3  508327.05  15173.40  2.98
675.7  510899.40  15294.47  2.99
677.0  513244.88  15454.35  3.01
678.4  515430.80  15656.20  3.04
679.7  517762.95  15942.95  3.08
681.1  520216.58  16313.27  3.14
682.4  522314.25  16792.61  3.22
683.8  524644.88  17440.34  3.32
685.1  526889.40  18314.15  3.48
686.4  529207.25  19511.52  3.69
687.8  531559.80  21179.00  3.98
689.1  534006.20  23478.90  4.40
690.5  536010.65  26542.51  4.95
691.8  538608.13  30654.25  5.69
693.1  541053.00  35862.65  6.63
694.5  543453.20  42195.47  7.76
695.8  545813.00  49518.35  9.07
697.1  548129.10  57690.25  10.52
698.5  550460.25  66565.52  12.09
699.8  552804.40  75938.74  13.74
701.1  554753.33  85543.95  15.42
702.5  556804.88  95251.50  17.11
703.8  559239.10  104982.67  18.77
705.1  561079.45  114402.98  20.39
706.5  563377.93  123674.48  21.95
707.8  565219.43  132572.32  23.46
709.1  567456.73  141281.81  24.90
710.5  569651.00  149683.98  26.28
711.8  571642.00  157754.72  27.60
713.1  573577.00  165556.14  28.86
714.4  575674.50  173151.04  30.08
715.8  577937.28  180564.25  31.24
717.1  580151.75  187739.49  32.36
718.4  582394.95  194657.13  33.42
719.7  584587.35  201299.69  34.43
721.0  586325.28  207527.20  35.39
722.4  588140.10  213535.80  36.31
723.7  590133.30  219325.17  37.17
725.0  591859.53  224737.38  37.97
726.3  594092.20  230092.57  38.73
727.6  595826.25  234992.79  39.44
729.0  597630.25  239642.65  40.10
730.3  599538.50  244078.67  40.71
731.6  601031.40  248072.50  41.27
732.9  602950.73  252005.51  41.80
734.2  604576.50  255571.45  42.27
735.5  606323.30  258985.50  42.71
736.8  608358.45  262276.75  43.11
738.1  610163.78  265285.72  43.48
739.5  611993.25  268097.92  43.81
740.8  613907.80  270810.49  44.11
742.1  615435.63  273214.19  44.39
743.4  617125.25  275560.55  44.65
744.7  618919.00  277823.00  44.89
746.0  620409.85  279799.59  45.10
747.3  621945.80  281692.50  45.29
748.6  623464.80  283469.29  45.47
749.9  625177.48  285220.62  45.62
751.2  626431.78  286654.27  45.76
752.5  627910.05  288117.98  45.89
753.8  629217.90  289394.62  45.99
755.1  630765.38  290748.46  46.09
756.4  631917.25  291822.85  46.18
757.7  633902.50  293228.97  46.26
759.0  637486.98  295301.68  46.32
760.3  640147.90  296913.27  46.38
761.6  642935.35  298539.08  46.43
762.9  644347.00  299504.47  46.48
764.2  645103.80  300113.05  46.52
765.5  645944.10  300755.37  46.56
766.8  646463.45  301216.24  46.59
768.1  647526.60  301891.95  46.62
769.3  648816.20  302641.39  46.65
770.6  650116.40  303440.22  46.67
771.9  651261.88  304116.28  46.70
773.2  652617.23  304900.33  46.72
774.5  653551.95  305407.08  46.73
775.8  654586.43  306008.90  46.75
777.1  655844.53  306647.87  46.76
778.4  657097.88  307338.82  46.77
779.6  658300.20  308011.03  46.79
780.9  658953.23  308390.14  46.80
782.2  659884.95  308909.14  46.81
783.5  660775.25  309385.50  46.82
784.8  661589.25  309810.00  46.83
786.0  662365.35  310251.10  46.84
787.3  663191.28  310683.41  46.85
788.6  664044.25  311153.23  46.86
789.9  664758.50  311524.70  46.86
791.2  666019.35  312171.77  46.87
792.4  667123.88  312711.15  46.87
793.7  668617.10  313471.60  46.88
795.0  669670.55  314006.12  46.89
796.2  670962.80  314674.50  46.90
797.5  672189.38  315282.50  46.90
798.8  673554.00  315921.00  46.90
800.0  674590.00  316430.00  46.91
801.3  675793.13  317013.75  46.91
802.6  676800.00  317571.43  46.92
803.8  677937.75  318139.73  46.93
805.1  678911.25  318643.99  46.93
806.4  679859.95  319096.56  46.94
807.7  680930.75  319639.07  46.94
808.9  682067.33  320213.40  46.95
810.2  682905.30  320656.80  46.95
811.4  683984.00  321188.80  46.96
812.7  685352.55  321863.95  46.96
814.0  686578.20  322464.45  46.97
815.2  687989.25  323136.35  46.97
816.5  689106.25  323700.63  46.97
817.7  689923.25  324145.86  46.98
819.0  690629.80  324520.00  46.99
820.2  691361.40  324958.16  47.00
821.5  692478.60  325499.69  47.01
822.7  693448.88  326014.50  47.01
824.0  694430.10  326486.18  47.01
825.2  695073.60  326810.81  47.02
826.5  695827.90  327216.98  47.03
827.7  696932.83  327758.69  47.03
829.0  697854.38  328214.24  47.03
830.2  698845.00  328711.09  47.04
831.5  699722.10  329160.64  47.04
832.7  700643.70  329621.08  47.05
834.0  701244.00  329960.35  47.05
835.2  702172.55  330457.64  47.06
836.4  702946.40  330869.03  47.07
837.7  703771.88  331281.97  47.07
838.9  705029.85  331894.71  47.08
840.1  705861.75  332344.89  47.08
841.4  706816.20  332873.25  47.09
842.6  707762.30  333335.00  47.10
843.8  708662.50  333761.44  47.10
845.1  709460.40  334228.95  47.11
846.3  710357.55  334694.70  47.12
847.5  711399.00  335171.11  47.11
848.8  712283.80  335637.50  47.12
850.0  713459.40  336258.49  47.13
851.2  714369.65  336725.92  47.14
852.5  715573.00  337305.25  47.14
853.7  716307.30  337672.99  47.14
854.9  717529.80  338234.19  47.14
856.1  718528.15  338721.47  47.14
857.4  719446.35  339232.74  47.15
858.6  720283.20  339732.80  47.17
859.8  721511.50  340307.86  47.17
861.0  722540.00  340764.95  47.16
862.2  723620.10  341257.80  47.16
863.5  724778.60  341685.41  47.14
864.7  725650.00  342207.14  47.16
865.9  726584.25  342731.95  47.17
867.1  727325.00  343079.02  47.17
868.3  728424.08  343669.03  47.18
869.5  729656.70  344178.10  47.17
870.8  730953.00  344700.45  47.16
872.0  732041.40  345175.30  47.15
873.2  732795.25  345593.41  47.16
874.4  733593.30  346020.23  47.17
875.6  734796.90  346557.96  47.16
876.8  736069.95  347217.05  47.17
878.0  737165.45  347713.00  47.17
879.2  738389.05  348207.85  47.16
880.4  739530.00  348718.57  47.15
881.6  740606.90  349160.05  47.15
882.8  741758.10  349744.27  47.15
884.0  742716.00  350162.10  47.15
885.2  743873.25  350765.25  47.15
886.5  745323.08  351409.48  47.15
887.7  746296.18  351766.55  47.13
888.8  747755.45  352427.74  47.13
890.0  748781.25  352878.75  47.13
891.2  749741.85  353375.24  47.13
892.4  751165.80  353964.48  47.12
893.6  752904.08  354773.42  47.12
894.8  754563.00  355472.52  47.11
896.0  755940.33  356239.31  47.13
897.2  757795.50  357017.34  47.11
898.4  759597.30  357871.80  47.11
899.6  760771.30  358409.92  47.11
900.8  761488.65  358654.59  47.10
902.0  761866.80  358897.94  47.11
903.2  762184.70  358972.97  47.10
904.3  763425.00  359492.95  47.09
905.5  764700.75  359995.82  47.08
906.7  765997.85  360570.33  47.07
907.9  766843.03  360911.67  47.06
909.1  767487.88  361366.50  47.08
910.2  768048.75  361597.50  47.08
911.4  768230.10  361632.60  47.07
912.6  768967.50  361844.65  47.06
913.8  769890.45  362220.75  47.05
915.0  770396.60  362342.57  47.03
916.2  770561.85  362368.62  47.03
917.3  771051.70  362645.11  47.03
918.5  771531.60  362815.93  47.03
919.7  771696.75  362857.75  47.02
920.8  771810.60  362858.81  47.01
922.0  771868.08  362838.38  47.01
923.2  772226.03  362946.63  47.00
924.4  772890.25  363208.63  46.99
925.5  773614.20  363497.26  46.99
926.7  774600.68  363733.31  46.96
927.9  776166.38  364275.80  46.93
929.0  779306.40  365646.73  46.92
930.2  783522.00  367616.35  46.92
931.4  788510.90  369817.04  46.90
932.5  792702.35  371874.02  46.91
933.7  795675.45  372947.27  46.87
934.9  797396.25  373607.50  46.85
936.0  796395.15  372967.30  46.83
937.2  793219.68  371394.06  46.82
938.3  789340.50  369324.89  46.79
939.5  786836.70  367995.09  46.77
940.7  787009.30  367809.20  46.74
941.8  789805.90  368981.33  46.72
943.0  792009.15  369744.46  46.68
944.2  793854.00  370496.57  46.67
945.3  792939.00  370020.52  46.66
946.5  791253.75  368832.50  46.61
947.6  792292.50  368861.64  46.56
948.8  791378.55  368120.53  46.52
949.9  791653.98  368020.38  46.49
951.1  791452.88  367733.58  46.46
952.2  790865.75  367099.87  46.42
953.4  790611.90  366504.50  46.36
954.5  788618.25  365389.50  46.33
955.7  788774.75  364758.43  46.24
956.8  788960.65  364645.68  46.22
958.0  788183.55  363796.59  46.16
959.1  787449.60  363074.40  46.11
960.3  787175.00  362666.08  46.07
961.4  787796.40  362726.40  46.04
962.6  787276.80  362282.40  46.02
963.7  787260.60  362107.40  46.00
964.9  787452.70  362060.52  45.98
966.0  787917.90  361926.15  45.93
967.2  787831.80  361950.00  45.94
968.3  789415.95  362492.52  45.92
969.5  789735.85  362576.00  45.91
970.6  789637.15  362749.76  45.94
971.8  789349.23  362561.53  45.93
972.9  789974.50  362633.50  45.90
974.0  791183.90  362799.21  45.86
975.2  790121.25  362443.66  45.87
976.3  790852.35  362760.08  45.87
977.5  790040.48  362499.49  45.88
978.6  790017.30  362613.76  45.90
979.7  789096.00  362084.80  45.89
980.9  789257.18  362348.53  45.91
982.0  788567.60  362495.72  45.97
983.2  788471.60  362732.60  46.00
984.3  786614.85  361934.50  46.01
985.4  786035.60  361415.00  45.98
986.6  786894.73  361546.23  45.95
987.7  785502.63  361054.93  45.96
988.9  787489.73  361358.92  45.89
990.0  785694.15  361668.74  46.03
993.1  870034.20  396265.76  45.55
996.9  869214.10  397146.47  45.69
1000.7  868367.43  397841.23  45.81
1004.5  867147.73  398254.96  45.93
1008.4  867824.13  399613.18  46.05
1012.2  868740.75  400992.40  46.16
1016.0  868108.50  401742.73  46.28
1019.8  866515.93  401931.31  46.38
1023.7  864761.41  401938.58  46.48
1027.5  862200.40  401485.67  46.57
1031.3  860440.55  401165.23  46.62
1035.1  859277.25  401034.04  46.67
1038.9  858841.48  401137.82  46.71
1042.7  858563.13  401361.92  46.75
1046.5  857846.50  401310.19  46.78
1050.3  856289.49  400806.54  46.81
1054.2  854311.43  400096.01  46.83
1058.0  853358.40  399788.23  46.85
1061.8  852214.08  399429.31  46.87
1065.6  850312.29  398519.74  46.87
1069.4  848161.53  397600.58  46.88
1073.2  846070.88  396651.94  46.88
1077.0  844615.20  395952.23  46.88
1080.8  844050.17  395545.86  46.86
1084.6  843778.83  395226.07  46.84
1088.4  843203.70  394833.48  46.83
1092.2  842007.13  394046.30  46.80
1096.0  840606.57  393138.29  46.77
1099.8  839086.50  392084.52  46.73
1103.6  837283.35  390912.60  46.69
1107.4  835866.29  389845.44  46.64
1111.2  834475.30  388819.28  46.59
1114.9  833632.50  387950.79  46.54
1118.7  833359.92  387194.16  46.46
1122.5  833559.78  386397.86  46.36
1126.3  831256.65  384288.30  46.23
1130.1  830739.13  382590.49  46.05
1133.9  827194.54  379002.33  45.82
1137.7  824574.80  375324.30  45.52
1141.4  820723.48  370722.24  45.17
1145.2  819750.58  367082.85  44.78
1149.0  817709.25  363191.43  44.42
1152.8  814172.35  358971.42  44.09
1156.6  810533.37  355283.43  43.83
1160.3  807308.25  352335.73  43.64
1164.1  802644.47  349245.93  43.51
1167.9  799607.67  347179.70  43.42
1171.7  797072.00  345585.35  43.36
1175.4  794630.31  344191.88  43.31
1179.2  792573.00  342914.79  43.27
1183.0  792824.50  342575.74  43.21
1186.7  792978.67  342240.00  43.16
1190.5  791727.08  341342.94  43.11
1194.3  788997.77  339881.78  43.08
1198.0  785884.88  338432.32  43.06
1201.8  783346.67  337359.00  43.07
1205.6  781751.79  336903.74  43.10
1209.3  780784.50  336786.27  43.13
1213.1  779710.63  336631.08  43.17
1216.8  777929.07  336372.74  43.24
1220.6  775700.50  335985.68  43.31
1224.3  773391.67  335529.47  43.38
1228.1  771234.61  335232.50  43.47
1231.9  768788.15  334669.31  43.53
1235.6  766269.90  334035.73  43.59
1239.4  763853.63  333480.81  43.66
1243.1  761611.50  332876.83  43.71
1246.9  759579.70  332284.70  43.75
1250.6  757499.77  331575.11  43.77
1254.3  755493.60  330873.43  43.80
1258.1  753309.33  330062.29  43.81
1261.8  750739.27  329020.05  43.83
1265.6  748375.33  327987.98  43.83
1269.3  746233.53  326933.85  43.81
1273.1  746871.48  326998.28  43.78
1276.8  746907.33  326727.93  43.74
1280.6  746084.93  326108.63  43.71
1284.3  743275.00  324517.14  43.66
1288.0  741383.61  323204.54  43.59
1291.8  739897.20  321837.30  43.50
1295.5  738321.72  320310.88  43.38
1299.2  736072.35  318341.54  43.25
1302.9  733219.30  315913.46  43.09
1306.7  730114.88  313201.36  42.90
1310.4  727032.43  310242.42  42.67
1314.1  724505.63  307341.97  42.42
1317.9  721957.60  304155.81  42.13
1321.6  719106.27  300596.73  41.80
1325.3  716251.28  296745.96  41.43
1329.0  713564.13  292823.30  41.04
1332.8  709847.50  288210.81  40.60
1336.5  706401.46  283672.73  40.16
1340.2  704836.15  279895.79  39.71
