/*** Spectra Vista SIG Data ***/
name= 9_20220824_ACSA_7_avg.sig
comm= Averaged Ref/Tar of files: HR.082422.0024_moc.sig,HR.082422.0025_moc.sig
data=
337.3  3473.75  248.13  7.14
338.8  3607.50  230.88  6.40
340.3  3794.85  234.25  6.17
341.8  3932.35  237.77  6.05
343.2  4173.60  230.88  5.53
344.7  4350.30  221.78  5.10
346.2  4534.35  220.59  4.86
347.7  4719.00  220.22  4.67
349.2  4951.80  211.68  4.27
350.6  5178.23  205.66  3.97
352.1  5501.65  214.35  3.90
353.6  5794.90  215.14  3.71
355.1  6095.18  228.99  3.76
356.6  6391.13  229.43  3.59
358.0  6667.10  236.06  3.54
359.5  6983.40  222.48  3.19
361.0  7301.70  239.40  3.28
362.5  7699.33  245.91  3.19
364.0  8086.35  263.81  3.26
365.4  8458.10  264.14  3.12
366.9  8840.00  270.73  3.06
368.4  9218.95  267.30  2.90
369.9  9593.88  275.66  2.87
371.3  10039.20  293.70  2.93
372.8  10487.25  307.98  2.94
374.3  10938.13  317.13  2.90
375.8  11372.90  323.40  2.84
377.2  11809.10  317.42  2.69
378.7  12239.50  317.42  2.59
380.2  12669.90  317.42  2.51
381.7  13242.25  335.11  2.53
383.1  13744.50  344.96  2.51
384.6  14296.75  361.47  2.53
386.1  14809.70  367.54  2.48
387.6  15307.60  355.74  2.32
389.0  15838.80  364.48  2.30
390.5  16354.80  387.63  2.37
392.0  16954.45  396.75  2.34
393.4  17577.98  409.89  2.33
394.9  18165.60  417.60  2.30
396.4  18733.50  414.00  2.21
397.9  19321.25  415.13  2.15
399.3  19905.45  430.53  2.16
400.8  20488.35  443.67  2.17
402.2  21186.65  466.45  2.20
403.7  21811.95  476.69  2.19
405.2  22443.90  487.71  2.17
406.6  23084.00  487.20  2.11
408.1  23707.40  497.20  2.10
409.6  24320.60  513.63  2.11
411.0  25043.55  533.75  2.13
412.5  25718.88  541.45  2.11
414.0  26406.00  558.28  2.11
415.4  27149.25  576.38  2.12
416.9  27871.65  585.96  2.10
418.4  28591.43  605.07  2.12
419.8  29356.60  618.80  2.11
421.3  30106.43  641.70  2.13
422.7  30937.20  664.68  2.15
424.2  31758.75  691.88  2.18
425.7  32567.40  704.16  2.16
427.1  33359.10  724.79  2.17
428.6  34193.00  744.00  2.18
430.0  34978.38  764.82  2.19
431.5  35879.70  788.04  2.20
432.9  36800.80  817.47  2.22
434.4  37746.38  836.58  2.22
435.9  38626.00  865.20  2.24
437.3  39517.50  885.50  2.24
438.8  40412.78  909.53  2.25
440.2  41314.35  932.47  2.26
441.7  42330.60  956.76  2.26
443.1  43287.75  983.15  2.27
444.6  44304.20  1008.70  2.28
446.0  45282.75  1038.00  2.29
447.5  46297.35  1062.44  2.29
448.9  47278.50  1088.76  2.30
450.4  48329.40  1121.47  2.32
451.8  49257.00  1146.60  2.33
453.3  50221.08  1174.14  2.34
454.7  51290.28  1198.93  2.34
456.2  52212.30  1214.06  2.33
457.6  53232.75  1242.54  2.33
459.1  54246.08  1271.21  2.34
460.5  55238.75  1297.38  2.35
462.0  56345.15  1325.45  2.35
463.4  57430.40  1356.30  2.36
464.8  58469.25  1376.40  2.35
466.3  59508.08  1396.89  2.35
467.7  60550.65  1421.58  2.35
469.2  61662.58  1449.73  2.35
470.6  62691.10  1478.06  2.36
472.0  63773.83  1503.21  2.36
473.5  64819.63  1528.33  2.36
474.9  65906.25  1553.25  2.36
476.4  67118.40  1589.76  2.37
477.8  68237.00  1615.30  2.37
479.2  69310.00  1647.20  2.38
480.7  70464.30  1679.10  2.38
482.1  71657.55  1702.21  2.38
483.6  72914.70  1734.00  2.38
485.0  74054.10  1765.95  2.38
486.4  75296.25  1801.29  2.39
487.9  76444.88  1836.90  2.40
489.3  77659.65  1870.08  2.41
490.7  78778.75  1905.42  2.42
492.2  80070.90  1949.22  2.43
493.6  81234.25  1989.47  2.45
495.0  82397.25  2035.80  2.47
496.5  83632.83  2086.79  2.50
497.9  84792.15  2136.68  2.52
499.3  86024.85  2186.58  2.54
500.7  87328.65  2250.24  2.58
502.2  88519.80  2312.64  2.61
503.6  89833.80  2391.48  2.66
505.0  90947.20  2472.92  2.72
506.5  92314.20  2567.90  2.78
507.9  93575.40  2665.54  2.85
509.3  95001.20  2782.40  2.93
510.7  96305.63  2901.60  3.01
512.2  97778.63  3045.54  3.11
513.6  99330.70  3211.53  3.23
515.0  100798.35  3394.09  3.37
516.4  102230.10  3597.62  3.52
517.8  103917.63  3827.88  3.68
519.3  105309.15  4067.68  3.86
520.7  106934.55  4341.45  4.06
522.1  108278.30  4617.34  4.26
523.5  109712.70  4915.04  4.48
524.9  111223.35  5220.09  4.69
526.3  112676.20  5524.75  4.90
527.8  114211.35  5830.11  5.10
529.2  115385.60  6120.92  5.30
530.6  117016.10  6433.14  5.50
532.0  118832.00  6731.20  5.66
533.4  120193.05  6980.27  5.81
534.8  121101.33  7181.18  5.93
536.3  122885.40  7414.92  6.03
537.7  125017.20  7663.32  6.13
539.1  126553.10  7858.42  6.21
540.5  127778.20  8025.30  6.28
541.9  129595.65  8223.66  6.35
543.3  130913.25  8391.88  6.41
544.7  132262.80  8554.56  6.47
546.1  134104.85  8756.17  6.53
547.5  135419.20  8919.68  6.59
549.0  137258.00  9110.20  6.64
550.4  138836.88  9273.50  6.68
551.8  140435.08  9424.09  6.71
553.2  142030.53  9542.73  6.72
554.6  143447.20  9617.92  6.70
556.0  145055.25  9675.18  6.67
557.4  146738.90  9703.44  6.61
558.8  148439.70  9706.23  6.54
560.2  149949.88  9671.58  6.45
561.6  151694.18  9624.36  6.34
563.0  153364.48  9551.11  6.23
564.4  155011.15  9452.80  6.10
565.8  156591.25  9335.13  5.96
567.2  158390.50  9208.45  5.81
568.6  159960.38  9054.53  5.66
570.0  161453.23  8885.36  5.50
571.4  163274.80  8727.29  5.35
572.8  165095.00  8572.93  5.19
574.2  166790.40  8422.40  5.05
575.6  168401.25  8284.50  4.92
577.0  169985.90  8160.86  4.80
578.4  171796.63  8067.15  4.70
579.8  173364.30  7975.13  4.60
581.2  175152.90  7905.73  4.51
582.5  176634.90  7839.00  4.44
583.9  178215.40  7778.56  4.36
585.3  180079.43  7741.71  4.30
586.7  181613.58  7705.62  4.24
588.1  183160.25  7675.13  4.19
589.5  184877.00  7663.60  4.15
590.9  186582.80  7668.16  4.11
592.3  188463.35  7683.11  4.08
593.7  189960.23  7691.19  4.05
595.0  191643.98  7715.52  4.03
596.4  193136.30  7738.92  4.01
597.8  194673.68  7758.71  3.99
599.2  196284.00  7777.44  3.96
600.6  198116.10  7805.79  3.94
602.0  199441.80  7802.61  3.91
603.3  201298.80  7812.93  3.88
604.7  203032.73  7797.49  3.84
606.1  204571.20  7769.40  3.80
607.5  206271.03  7733.95  3.75
608.9  208024.30  7696.59  3.70
610.2  209449.80  7640.33  3.65
611.6  211107.53  7595.12  3.60
613.0  212718.45  7537.12  3.54
614.4  214146.90  7478.70  3.49
615.8  215660.25  7435.35  3.45
617.1  217236.60  7388.22  3.40
618.5  218921.60  7364.48  3.36
619.9  220487.03  7340.12  3.33
621.3  222160.28  7341.53  3.30
622.6  223809.00  7344.40  3.28
624.0  225322.80  7360.38  3.27
625.4  226832.93  7379.79  3.25
626.8  228460.05  7408.31  3.24
628.1  229810.90  7434.30  3.23
629.5  231713.55  7482.52  3.23
630.9  233373.80  7525.27  3.22
632.2  234781.23  7553.88  3.22
633.6  236444.88  7579.53  3.21
635.0  238013.60  7581.76  3.19
636.3  239587.70  7563.56  3.16
637.7  240991.25  7530.33  3.12
639.1  242707.50  7490.00  3.09
640.4  244233.15  7434.11  3.04
641.8  245485.90  7368.86  3.00
643.2  247122.75  7314.55  2.96
644.5  248528.50  7252.55  2.92
645.9  250274.25  7202.88  2.88
647.2  252133.35  7176.02  2.85
648.6  254056.50  7152.30  2.82
650.0  255528.00  7128.00  2.79
651.3  255936.73  7094.01  2.77
652.7  257191.90  7094.79  2.76
654.0  259365.40  7121.90  2.75
655.4  260910.40  7105.80  2.72
656.8  261027.30  7046.08  2.70
658.1  262321.20  7005.22  2.67
659.5  264895.05  7020.83  2.65
660.8  266850.00  7020.00  2.63
662.2  267792.00  6970.88  2.60
663.5  269432.60  6941.81  2.58
664.9  270747.10  6926.14  2.56
666.2  271483.80  6890.88  2.54
667.6  273235.68  6907.36  2.53
668.9  274399.55  6937.70  2.53
670.3  275660.00  6981.00  2.53
671.6  277226.25  7035.75  2.54
673.0  278443.13  7110.98  2.55
674.3  279719.70  7191.34  2.57
675.7  281103.05  7289.17  2.59
677.0  282250.38  7400.40  2.62
678.4  283659.98  7523.74  2.65
679.7  284761.23  7669.11  2.69
681.1  286136.15  7827.80  2.74
682.4  287344.20  8009.04  2.79
683.8  288670.20  8207.94  2.84
685.1  289704.75  8429.63  2.91
686.4  291042.00  8689.08  2.99
687.8  292365.00  9006.80  3.08
689.1  293455.25  9389.50  3.20
690.5  294885.90  9887.64  3.35
691.8  295681.10  10527.29  3.56
693.1  297100.05  11397.48  3.84
694.5  298298.00  12517.05  4.20
695.8  299572.00  13932.10  4.65
697.1  300800.50  15702.05  5.22
698.5  301887.30  17814.96  5.90
699.8  303028.70  20307.73  6.70
701.1  304230.48  23151.18  7.61
702.5  305033.85  26266.24  8.61
703.8  306022.50  29650.50  9.69
705.1  307244.93  33233.85  10.82
706.5  308327.50  36959.03  11.99
707.8  309368.70  40802.16  13.19
709.1  310272.85  44725.91  14.42
710.5  311478.40  48789.06  15.66
711.8  312356.10  52886.68  16.93
713.1  313404.20  57083.54  18.21
714.4  314363.10  61320.54  19.51
715.8  315255.10  65611.06  20.81
717.1  316632.45  70044.90  22.12
718.4  317609.60  74439.68  23.44
719.7  318762.93  78900.74  24.75
721.0  319297.50  83223.00  26.06
722.4  320097.25  87584.20  27.36
723.7  321109.05  91968.06  28.64
725.0  322217.78  96313.10  29.89
726.3  323224.83  100544.13  31.11
727.6  323772.63  104570.46  32.30
729.0  324755.55  108595.73  33.44
730.3  325527.45  112431.08  34.54
731.6  326484.45  116185.22  35.59
732.9  327339.60  119745.22  36.58
734.2  328185.00  123158.20  37.53
735.5  329279.43  126493.93  38.42
736.8  330069.90  129558.42  39.25
738.1  330943.30  132487.26  40.03
739.5  331946.93  135297.81  40.76
740.8  332688.68  137833.41  41.43
742.1  333471.50  140226.50  42.05
743.4  334225.00  142460.00  42.62
744.7  335230.30  144665.62  43.15
746.0  336166.35  146675.10  43.63
747.3  336776.85  148392.14  44.06
748.6  337531.00  150065.85  44.46
749.9  338286.00  151600.80  44.81
751.2  339060.90  153008.88  45.13
752.5  339976.15  154389.60  45.41
753.8  340565.58  155537.38  45.67
755.1  341302.00  156639.60  45.89
756.4  341934.90  157611.11  46.09
757.7  342964.48  158697.67  46.27
759.0  344858.75  160103.63  46.43
760.3  346077.60  161140.32  46.56
761.6  347741.80  162323.84  46.68
762.9  348285.00  162944.95  46.78
764.2  348704.70  163444.40  46.87
765.5  349000.85  163863.39  46.95
766.8  349465.60  164331.52  47.02
768.1  350007.60  164794.56  47.08
769.3  350657.30  165264.05  47.13
770.6  351331.50  165743.50  47.18
771.9  352131.15  166255.04  47.21
773.2  352529.20  166583.04  47.25
774.5  353152.80  166995.40  47.29
775.8  353902.95  167433.86  47.31
777.1  354493.15  167804.89  47.34
778.4  354865.50  168046.18  47.35
779.6  355659.63  168499.14  47.38
780.9  356160.00  168822.00  47.40
782.2  356647.50  169121.70  47.42
783.5  357002.50  169348.20  47.44
784.8  357570.00  169660.80  47.45
786.0  358006.95  169898.33  47.46
787.3  358405.83  170147.56  47.47
788.6  358858.70  170422.88  47.49
789.9  359352.00  170705.08  47.50
791.2  360051.48  171064.36  47.51
792.4  360779.48  171443.62  47.52
793.7  361321.20  171716.08  47.52
795.0  361961.33  172061.01  47.54
796.2  362648.10  172425.55  47.55
797.5  363362.40  172819.38  47.56
798.8  364085.60  173187.24  47.57
800.0  364848.23  173544.61  47.57
801.3  365368.10  173821.50  47.57
802.6  366016.50  174140.24  47.58
803.8  366694.20  174492.02  47.59
805.1  367257.63  174783.18  47.59
806.4  367703.10  175023.78  47.60
807.7  368282.70  175338.27  47.61
808.9  368895.45  175648.92  47.61
810.2  369436.55  175926.31  47.62
811.4  369962.60  176215.44  47.63
812.7  370621.88  176556.25  47.64
814.0  371502.20  177002.61  47.65
815.2  372201.25  177345.65  47.65
816.5  372611.85  177580.37  47.66
817.7  373137.80  177861.78  47.67
819.0  373626.55  178145.00  47.68
820.2  373868.00  178270.40  47.68
821.5  374613.50  178662.51  47.69
822.7  375012.83  178881.53  47.70
824.0  375324.30  179083.44  47.71
825.2  375860.25  179360.33  47.72
826.5  376167.18  179550.45  47.73
827.7  376804.15  179872.84  47.74
829.0  377228.95  180116.84  47.75
830.2  377550.75  180304.59  47.76
831.5  378080.85  180580.12  47.76
832.7  378423.68  180773.57  47.77
834.0  378782.18  180975.43  47.78
835.2  379177.98  181190.24  47.79
836.4  379478.55  181390.00  47.80
837.7  379942.00  181667.56  47.81
838.9  380403.03  181945.77  47.83
840.1  380801.93  182170.89  47.84
841.4  381286.90  182432.78  47.85
842.6  381711.20  182659.56  47.85
843.8  382013.40  182878.88  47.87
845.1  382570.10  183189.71  47.88
846.3  383017.30  183449.24  47.90
847.5  383426.40  183686.58  47.91
848.8  383839.80  183953.88  47.92
850.0  384232.45  184165.94  47.93
851.2  384824.25  184474.53  47.94
852.5  385285.60  184721.04  47.94
853.7  385823.25  184983.75  47.95
854.9  386222.30  185238.64  47.96
856.1  386770.15  185518.45  47.97
857.4  386941.63  185664.16  47.98
858.6  387529.25  185931.66  47.98
859.8  387945.00  186160.88  47.99
861.0  388486.80  186437.16  47.99
862.2  388922.40  186699.81  48.00
863.5  389363.33  186903.02  48.00
864.7  389934.60  187206.36  48.01
865.9  390341.20  187419.56  48.01
867.1  390696.35  187599.50  48.02
868.3  391166.10  187843.56  48.02
869.5  391715.70  188126.42  48.03
870.8  392292.00  188404.20  48.03
872.0  392888.33  188688.47  48.03
873.2  393407.10  188919.81  48.02
874.4  393848.33  189176.72  48.03
875.6  394248.05  189369.90  48.03
876.8  394701.10  189624.28  48.04
878.0  395267.65  189868.91  48.04
879.2  395893.50  190144.59  48.03
880.4  396549.75  190414.13  48.02
881.6  397079.63  190682.80  48.02
882.8  397526.40  190870.88  48.01
884.0  398158.43  191209.55  48.02
885.2  398684.20  191449.10  48.02
886.5  399291.90  191738.30  48.02
887.7  399801.03  191969.31  48.02
888.8  400605.98  192298.17  48.00
890.0  401140.55  192628.82  48.02
891.2  401785.60  192928.30  48.02
892.4  402525.90  193242.84  48.01
893.6  403224.75  193528.61  48.00
894.8  404196.25  193936.00  47.98
896.0  405138.50  194371.20  47.98
897.2  406022.50  194769.90  47.97
898.4  406744.80  195127.02  47.97
899.6  407397.75  195451.20  47.98
900.8  407783.90  195647.72  47.98
902.0  408228.15  195761.28  47.95
903.2  408596.63  195865.92  47.94
904.3  408911.40  196044.06  47.94
905.5  409543.60  196366.32  47.95
906.7  410189.00  196650.10  47.94
907.9  410855.20  196906.50  47.93
909.1  411281.55  197069.49  47.92
910.2  411526.88  197201.31  47.92
911.4  411822.45  197252.64  47.90
912.6  412054.50  197372.89  47.90
913.8  412310.85  197480.39  47.90
915.0  412834.80  197720.88  47.89
916.2  413078.25  197806.05  47.89
917.3  413175.60  197748.72  47.86
918.5  413327.70  197856.08  47.87
919.7  413724.75  197956.44  47.85
920.8  413707.75  198021.02  47.86
922.0  413952.00  198055.55  47.85
923.2  414141.00  198170.70  47.85
924.4  414433.13  198236.03  47.83
925.5  415007.40  198356.14  47.80
926.7  415592.63  198584.65  47.78
927.9  416448.00  198969.60  47.78
929.0  417906.00  199594.26  47.76
930.2  420280.00  200623.66  47.74
931.4  422901.00  201766.68  47.71
932.5  425816.00  203076.66  47.69
933.7  427309.65  203712.95  47.67
934.9  427997.50  204027.25  47.67
936.0  427545.63  203711.95  47.65
937.2  425371.95  202643.16  47.64
938.3  423725.25  201716.62  47.61
939.5  422323.20  200874.24  47.56
940.7  422702.10  200916.72  47.53
941.8  424177.65  201563.33  47.52
943.0  425718.75  202158.15  47.49
944.2  426487.75  202412.73  47.46
945.3  426260.25  202107.75  47.41
946.5  425590.20  201573.63  47.36
947.6  425833.10  201569.90  47.34
948.8  425690.85  201359.15  47.30
949.9  425791.80  201269.04  47.27
951.1  425514.05  200926.05  47.22
952.2  425544.00  200613.60  47.14
953.4  425277.00  200244.95  47.09
954.5  425201.40  199985.76  47.03
955.7  425187.00  199848.60  47.00
956.8  425122.90  199422.08  46.91
958.0  424837.00  199084.20  46.86
959.1  424588.73  198773.44  46.82
960.3  424303.88  198514.42  46.79
961.4  424300.95  198241.66  46.72
962.6  424357.50  198225.30  46.71
963.7  424166.93  198026.34  46.69
964.9  424232.25  197908.11  46.65
966.0  424081.58  197767.58  46.63
967.2  424224.90  197848.35  46.64
968.3  423848.70  197651.34  46.63
969.5  423835.70  197491.78  46.60
970.6  423848.30  197545.65  46.61
971.8  424285.23  197560.62  46.56
972.9  424001.55  197513.54  46.58
974.0  424647.70  197625.76  46.54
975.2  424700.63  197579.60  46.52
976.3  424493.60  197475.57  46.52
977.5  424312.35  197482.99  46.54
978.6  424106.00  197569.38  46.58
979.7  424300.28  197667.02  46.59
980.9  424771.35  197685.52  46.54
982.0  424755.75  197547.42  46.51
983.2  425089.60  197523.61  46.47
984.3  424707.80  197399.40  46.48
985.4  424095.48  197409.79  46.55
986.6  424360.38  197502.60  46.54
987.7  425250.70  197754.62  46.50
988.9  425359.80  197995.68  46.55
990.0  425704.50  198225.48  46.56
993.1  372132.89  172064.95  46.24
996.9  372899.18  172842.08  46.35
1000.7  374062.03  173784.27  46.46
1004.5  374637.17  174403.47  46.55
1008.4  374463.71  174702.48  46.65
1012.2  374588.63  175090.74  46.74
1016.0  374752.80  175522.25  46.84
1019.8  375063.15  175952.70  46.91
1023.7  375129.26  176266.15  46.99
1027.5  374909.07  176430.66  47.06
1031.3  375206.58  176734.52  47.10
1035.1  375088.47  176836.08  47.15
1038.9  375028.87  176956.85  47.18
1042.7  374833.92  176988.06  47.22
1046.5  374677.33  176987.90  47.24
1050.3  374728.61  177065.58  47.25
1054.2  374431.75  177013.38  47.28
1058.0  373939.07  176788.33  47.28
1061.8  373786.14  176768.75  47.29
1065.6  373524.57  176634.62  47.29
1069.4  373508.07  176630.43  47.29
1073.2  373131.49  176405.65  47.28
1077.0  372670.30  176141.66  47.26
1080.8  372166.67  175780.14  47.23
1084.6  371060.67  175135.80  47.20
1088.4  370327.86  174712.52  47.18
1092.2  369456.75  174164.95  47.14
1096.0  368859.91  173733.85  47.10
1099.8  368358.90  173304.58  47.05
1103.6  367690.73  172806.80  47.00
1107.4  366798.62  172129.43  46.93
1111.2  366498.70  171833.00  46.89
1114.9  365793.17  171250.38  46.82
1118.7  365168.93  170636.58  46.73
1122.5  364473.20  169904.80  46.62
1126.3  363326.43  168895.78  46.49
1130.1  362779.85  167992.39  46.31
1133.9  361123.70  166361.25  46.07
1137.7  359722.90  164619.52  45.76
1141.4  357952.08  162511.26  45.40
1145.2  357231.60  160697.31  44.98
1149.0  356082.71  158774.69  44.59
1152.8  354428.35  156748.25  44.23
1156.6  352753.68  154973.50  43.93
1160.3  350984.00  153435.57  43.72
1164.1  348548.03  151839.14  43.56
1167.9  346725.00  150696.21  43.46
1171.7  345444.75  149900.63  43.39
1175.4  344259.10  149231.84  43.35
1179.2  343246.53  148611.55  43.30
1183.0  342930.00  148293.65  43.24
1186.7  342400.10  147869.05  43.19
1190.5  341298.73  147233.13  43.14
1194.3  340087.17  146570.97  43.10
1198.0  338837.13  145974.03  43.08
1201.8  337356.93  145334.52  43.08
1205.6  336116.67  144887.50  43.11
1209.3  335115.68  144673.09  43.17
1213.1  334076.78  144448.39  43.24
1216.8  333074.78  144275.73  43.32
1220.6  331941.87  144051.60  43.40
1224.3  330672.08  143756.50  43.47
1228.1  329412.00  143487.95  43.56
1231.9  328143.20  143164.49  43.63
1235.6  326689.05  142708.29  43.68
1239.4  325322.88  142313.63  43.75
1243.1  324079.56  141902.22  43.79
1246.9  322847.51  141481.79  43.82
1250.6  321849.53  141121.25  43.85
1254.3  320785.30  140709.41  43.86
1258.1  319777.73  140294.10  43.87
1261.8  318504.67  139750.80  43.88
1265.6  317066.87  139089.27  43.87
1269.3  315600.48  138376.38  43.85
1273.1  315525.12  138235.90  43.81
1276.8  315782.00  138206.32  43.77
1280.6  315663.90  137999.06  43.72
1284.3  314322.40  137222.32  43.66
1288.0  312863.23  136339.51  43.58
1291.8  311547.65  135441.58  43.47
1295.5  310147.20  134462.12  43.35
1299.2  308844.38  133480.01  43.22
1302.9  307374.91  132344.18  43.06
1306.7  305802.47  131088.13  42.87
1310.4  304299.18  129743.67  42.64
1314.1  302918.18  128384.11  42.38
1317.9  301687.71  126967.86  42.09
1321.6  300278.48  125363.80  41.75
1325.3  298653.60  123554.14  41.37
1329.0  297291.40  121803.80  40.97
1332.8  295187.20  119634.90  40.53
1336.5  293349.00  117545.70  40.07
1340.2  292974.50  116034.75  39.61
1343.9  292517.08  114495.94  39.14
1347.6  291896.85  112908.60  38.68
1351.4  292097.50  111699.64  38.24
1355.1  292440.13  110563.75  37.81
1358.8  292544.00  109285.72  37.36
1362.5  291991.10  107659.65  36.87
1366.2  290231.65  105351.07  36.30
