/*** Spectra Vista SIG Data ***/
name= 15_20220720_ACRU_25_avg.sig
comm= Averaged Ref/Tar of files: 14_20220720_ACRU_25_1_avg.sig,15_20220720_ACRU_25_2_avg.sig
data=
337.3  3176.00  280.74  8.84
338.8  3310.89  279.44  8.44
340.3  3482.52  277.53  7.97
341.8  3658.00  275.22  7.52
343.2  3818.40  264.29  6.92
344.7  3994.89  266.46  6.67
346.2  4173.51  259.11  6.21
347.7  4358.53  264.04  6.06
349.2  4536.00  262.44  5.79
350.6  4743.65  265.12  5.59
352.1  5043.18  266.07  5.28
353.6  5303.32  261.74  4.94
355.1  5567.60  261.06  4.69
356.6  5850.34  268.45  4.59
358.0  6098.22  276.77  4.54
359.5  6396.30  286.64  4.48
361.0  6693.23  283.29  4.23
362.5  7040.64  291.36  4.14
364.0  7355.14  295.22  4.01
365.4  7690.04  304.28  3.96
366.9  8015.86  315.72  3.94
368.4  8318.88  324.97  3.91
369.9  8666.02  336.40  3.88
371.3  9064.65  348.37  3.84
372.8  9434.10  359.31  3.81
374.3  9840.73  365.50  3.71
375.8  10214.05  370.37  3.63
377.2  10594.12  382.75  3.61
378.7  10970.72  384.03  3.50
380.2  11329.39  390.95  3.45
381.7  11814.43  399.71  3.38
383.1  12235.30  403.48  3.30
384.6  12700.73  413.36  3.25
386.1  13111.63  422.37  3.22
387.6  13515.43  437.11  3.23
389.0  13936.00  445.39  3.20
390.5  14354.70  458.94  3.20
392.0  14873.72  468.30  3.15
393.4  15397.15  479.71  3.12
394.9  15881.85  486.95  3.07
396.4  16387.50  497.54  3.04
397.9  16886.88  507.14  3.00
399.3  17364.51  517.60  2.98
400.8  17871.23  529.60  2.96
402.2  18457.51  544.31  2.95
403.7  19015.24  557.63  2.93
405.2  19579.23  570.46  2.91
406.6  20106.67  577.79  2.87
408.1  20648.87  591.05  2.86
409.6  21196.39  604.99  2.85
411.0  21805.47  619.96  2.84
412.5  22411.18  632.29  2.82
414.0  23010.17  649.67  2.82
415.4  23654.57  666.67  2.82
416.9  24283.29  680.87  2.80
418.4  24918.68  698.09  2.80
419.8  25567.97  717.08  2.80
421.3  26232.46  736.43  2.81
422.7  26949.70  758.31  2.81
424.2  27672.19  780.27  2.82
425.7  28381.02  800.41  2.82
427.1  29067.89  826.07  2.84
428.6  29791.00  847.04  2.84
430.0  30471.40  870.18  2.86
431.5  31272.85  893.51  2.86
432.9  32081.06  921.00  2.87
434.4  32902.14  946.27  2.88
435.9  33663.00  972.40  2.89
437.3  34436.88  998.51  2.90
438.8  35199.98  1023.04  2.91
440.2  35987.24  1048.49  2.91
441.7  36885.74  1077.87  2.92
443.1  37720.54  1105.56  2.93
444.6  38605.70  1135.21  2.94
446.0  39467.79  1164.17  2.95
447.5  40338.93  1192.80  2.96
448.9  41191.85  1220.83  2.96
450.4  42106.93  1250.97  2.97
451.8  42904.34  1279.45  2.98
453.3  43744.59  1310.37  3.00
454.7  44680.82  1341.59  3.00
456.2  45474.17  1368.10  3.01
457.6  46369.58  1395.40  3.01
459.1  47259.34  1421.59  3.01
460.5  48105.42  1449.09  3.01
462.0  49077.72  1480.67  3.02
463.4  50020.99  1510.01  3.02
464.8  50928.19  1538.28  3.02
466.3  51831.73  1567.86  3.02
467.7  52743.72  1593.29  3.02
469.2  53712.55  1621.58  3.02
470.6  54600.64  1648.80  3.02
472.0  55561.07  1679.35  3.02
473.5  56483.53  1707.78  3.02
474.9  57422.75  1735.79  3.02
476.4  58478.40  1768.05  3.02
477.8  59457.25  1798.83  3.03
479.2  60392.50  1828.94  3.03
480.7  61400.54  1864.11  3.04
482.1  62440.86  1900.93  3.04
483.6  63536.65  1936.30  3.05
485.0  64527.14  1971.08  3.05
486.4  65620.50  2009.84  3.06
487.9  66614.44  2048.62  3.08
489.3  67676.10  2093.48  3.09
490.7  68672.49  2137.65  3.11
492.2  69805.40  2186.94  3.13
493.6  70813.22  2233.36  3.15
495.0  71833.13  2284.99  3.18
496.5  72907.85  2343.25  3.21
497.9  73908.19  2403.63  3.25
499.3  74972.13  2471.97  3.30
500.7  76116.52  2546.59  3.35
502.2  77165.87  2628.14  3.41
503.6  78299.80  2722.00  3.48
505.0  79268.71  2821.04  3.56
506.5  80464.65  2941.77  3.66
507.9  81564.68  3074.71  3.77
509.3  82830.67  3235.70  3.91
510.7  83971.88  3410.27  4.06
512.2  85250.52  3614.07  4.24
513.6  86595.08  3849.22  4.45
515.0  87891.54  4114.55  4.68
516.4  89137.13  4409.78  4.95
517.8  90611.88  4752.05  5.24
519.3  91806.54  5112.85  5.57
520.7  93224.09  5513.36  5.91
522.1  94405.79  5918.08  6.27
523.5  95636.64  6345.02  6.63
524.9  96908.33  6771.47  6.99
526.3  98168.35  7190.17  7.32
527.8  99616.28  7617.35  7.65
529.2  100674.34  8009.96  7.96
530.6  101935.12  8398.20  8.24
532.0  103525.34  8785.73  8.49
533.4  104794.48  9113.35  8.70
534.8  105614.85  9369.09  8.87
536.3  107123.75  9654.85  9.01
537.7  108920.70  9947.64  9.13
539.1  110288.21  10185.85  9.24
540.5  111424.34  10389.17  9.32
541.9  113077.29  10635.97  9.41
543.3  114237.54  10831.67  9.48
544.7  115539.00  11043.24  9.56
546.1  117160.41  11280.59  9.63
547.5  118234.67  11460.27  9.69
549.0  119779.00  11672.58  9.75
550.4  121112.61  11851.13  9.79
551.8  122489.95  12003.81  9.80
553.2  123894.81  12127.16  9.79
554.6  125125.87  12200.69  9.75
556.0  126499.43  12245.34  9.68
557.4  127943.96  12255.88  9.58
558.8  129421.58  12232.91  9.45
560.2  130726.73  12156.64  9.30
561.6  132223.75  12063.12  9.12
563.0  133666.24  11925.94  8.92
564.4  135087.48  11760.24  8.71
565.8  136442.71  11558.39  8.47
567.2  138037.17  11351.29  8.22
568.6  139383.07  11104.72  7.97
570.0  140659.26  10838.91  7.71
571.4  142213.50  10595.27  7.45
572.8  143792.48  10365.43  7.21
574.2  145277.07  10144.11  6.98
575.6  146677.50  9938.47  6.78
577.0  148035.65  9755.24  6.59
578.4  149581.25  9605.81  6.42
579.8  150951.72  9463.49  6.27
581.2  152498.70  9350.95  6.13
582.5  153771.15  9239.44  6.01
583.9  155140.50  9149.84  5.90
585.3  156760.09  9089.01  5.80
586.7  158084.66  9020.24  5.71
588.1  159437.69  8969.27  5.63
589.5  160899.67  8939.24  5.56
590.9  162363.54  8920.21  5.49
592.3  163995.04  8923.89  5.44
593.7  165294.68  8921.39  5.40
595.0  166763.48  8936.58  5.36
596.4  168060.79  8940.81  5.32
597.8  169390.99  8946.17  5.28
599.2  170781.60  8947.84  5.24
600.6  172349.99  8953.14  5.19
602.0  173520.37  8923.03  5.14
603.3  175138.27  8902.74  5.08
604.7  176628.58  8861.53  5.02
606.1  177971.70  8797.83  4.94
607.5  179425.95  8730.71  4.87
608.9  180947.61  8654.80  4.78
610.2  182177.10  8562.65  4.70
611.6  183613.08  8479.04  4.62
613.0  185012.99  8397.10  4.54
614.4  186252.13  8314.98  4.46
615.8  187543.69  8242.51  4.39
617.1  188936.65  8179.36  4.33
618.5  190394.60  8135.77  4.27
619.9  191751.43  8099.59  4.22
621.3  193203.72  8083.79  4.18
622.6  194628.13  8081.78  4.15
624.0  195936.90  8087.12  4.13
625.4  197235.92  8099.80  4.11
626.8  198653.76  8134.34  4.09
628.1  199859.55  8162.72  4.08
629.5  201530.64  8215.29  4.08
630.9  202974.71  8259.22  4.07
632.2  204220.57  8282.83  4.06
633.6  205682.67  8306.12  4.04
635.0  207065.07  8301.87  4.01
636.3  208436.17  8278.96  3.97
637.7  209658.34  8224.83  3.92
639.1  211125.84  8163.00  3.87
640.4  212471.18  8081.85  3.80
641.8  213540.53  7980.68  3.74
643.2  214957.14  7892.89  3.67
644.5  216165.17  7801.45  3.61
645.9  217703.85  7730.73  3.55
647.2  219209.90  7670.70  3.50
648.6  220927.50  7643.32  3.46
650.0  222282.00  7614.72  3.43
651.3  222555.17  7561.38  3.40
652.7  223500.49  7533.62  3.37
654.0  225210.05  7540.65  3.35
655.4  226782.07  7548.29  3.33
656.8  227083.24  7504.41  3.30
658.1  228051.77  7479.55  3.28
659.5  230080.64  7477.06  3.25
660.8  231675.00  7472.36  3.23
662.2  232515.74  7445.34  3.20
663.5  234125.50  7447.68  3.18
664.9  235361.32  7443.70  3.16
666.2  236134.00  7445.67  3.15
667.6  237846.83  7492.06  3.15
668.9  238828.83  7537.73  3.16
670.3  239830.17  7588.96  3.16
671.6  241247.32  7673.16  3.18
673.0  242290.88  7763.35  3.20
674.3  243398.35  7866.97  3.23
675.7  244572.61  7982.74  3.26
677.0  245597.11  8110.65  3.30
678.4  246859.88  8256.65  3.34
679.7  247865.68  8412.93  3.39
681.1  249064.87  8599.58  3.45
682.4  250090.97  8792.01  3.52
683.8  251232.80  9006.28  3.58
685.1  252099.63  9246.15  3.67
686.4  253298.30  9532.26  3.76
687.8  254495.50  9888.54  3.89
689.1  255430.00  10329.93  4.04
690.5  256626.43  10924.89  4.26
691.8  257413.67  11713.97  4.55
693.1  258583.73  12811.49  4.95
694.5  259604.04  14241.93  5.49
695.8  260688.46  16071.03  6.16
697.1  261780.46  18343.87  7.01
698.5  262741.15  21077.92  8.02
699.8  263725.37  24273.48  9.20
701.1  264775.98  27902.13  10.54
702.5  265473.64  31861.43  12.00
703.8  266362.50  36123.86  13.56
705.1  267406.92  40626.63  15.19
706.5  268369.48  45275.71  16.87
707.8  269269.08  50026.97  18.58
709.1  270095.29  54812.56  20.29
710.5  271140.85  59679.19  22.01
711.8  271907.62  64492.03  23.72
713.1  272810.77  69327.31  25.41
714.4  273639.59  74105.87  27.08
715.8  274390.35  78813.94  28.72
717.1  275597.85  83590.92  30.33
718.4  276475.74  88186.88  31.90
719.7  277480.10  92734.85  33.42
721.0  277968.75  97008.00  34.90
722.4  278669.14  101226.31  36.32
723.7  279542.53  105371.90  37.69
725.0  280517.40  109407.03  39.00
726.3  281401.82  113260.48  40.25
727.6  281907.78  116802.05  41.43
729.0  282730.21  120313.68  42.55
730.3  283453.10  123612.89  43.61
731.6  284289.72  126795.86  44.60
732.9  285033.41  129759.68  45.52
734.2  285763.28  132578.33  46.39
735.5  286722.70  135336.86  47.20
736.8  287469.15  137838.98  47.95
738.1  288218.07  140187.16  48.64
739.5  289088.68  142452.00  49.28
740.8  289747.29  144465.67  49.86
742.1  290433.20  146384.86  50.40
743.4  291141.67  148181.19  50.90
744.7  292042.59  149967.96  51.35
746.0  292872.78  151579.48  51.76
747.3  293363.08  152918.82  52.13
748.6  294052.13  154254.03  52.46
749.9  294753.34  155489.90  52.75
751.2  295429.63  156639.50  53.02
752.5  296266.43  157792.09  53.26
753.8  296876.92  158743.61  53.47
755.1  297522.34  159642.23  53.66
756.4  298080.44  160426.30  53.82
757.7  298988.99  161345.40  53.96
759.0  300625.92  162602.75  54.09
760.3  301725.60  163520.85  54.20
761.6  303191.24  164592.69  54.29
762.9  303719.50  165113.74  54.36
764.2  304077.60  165524.67  54.44
765.5  304355.55  165854.23  54.49
766.8  304771.47  166237.08  54.54
768.1  305272.54  166639.76  54.59
769.3  305868.91  167053.67  54.62
770.6  306476.41  167491.04  54.65
771.9  307163.85  167949.57  54.68
773.2  307557.80  168225.92  54.70
774.5  308145.94  168608.72  54.72
775.8  308771.94  169004.68  54.73
777.1  309339.80  169360.67  54.75
778.4  309663.80  169582.44  54.76
779.6  310408.27  170023.32  54.77
780.9  310880.00  170302.57  54.78
782.2  311312.84  170575.72  54.79
783.5  311613.42  170779.96  54.81
784.8  312144.23  171086.39  54.81
786.0  312548.72  171325.60  54.82
787.3  312913.96  171553.74  54.82
788.6  313348.95  171796.51  54.83
789.9  313794.37  172057.17  54.83
791.2  314392.19  172412.03  54.84
792.4  315032.16  172784.92  54.85
793.7  315513.10  173049.54  54.85
795.0  316105.90  173387.92  54.85
796.2  316763.79  173740.44  54.85
797.5  317455.95  174130.00  54.85
798.8  318105.24  174489.22  54.85
800.0  318720.45  174843.52  54.86
801.3  319226.29  175102.19  54.85
802.6  319775.44  175424.56  54.86
803.8  320386.54  175772.96  54.86
805.1  320872.28  176038.78  54.86
806.4  321354.45  176304.67  54.86
807.7  321869.03  176578.27  54.86
808.9  322376.17  176871.58  54.86
810.2  322892.79  177157.26  54.87
811.4  323406.50  177426.84  54.86
812.7  324011.46  177765.33  54.86
814.0  324790.09  178194.79  54.86
815.2  325357.75  178527.78  54.87
816.5  325764.11  178749.17  54.87
817.7  326209.91  179000.37  54.87
819.0  326722.28  179277.60  54.87
820.2  326912.67  179375.01  54.87
821.5  327574.73  179757.50  54.88
822.7  327896.64  179955.62  54.88
824.0  328177.35  180133.46  54.89
825.2  328656.49  180398.73  54.89
826.5  328986.73  180559.89  54.88
827.7  329483.52  180828.76  54.88
829.0  329860.13  181046.33  54.89
830.2  330169.41  181229.07  54.89
831.5  330605.52  181477.09  54.89
832.7  330876.70  181635.90  54.90
834.0  331169.32  181807.96  54.90
835.2  331511.54  181994.62  54.90
836.4  331801.44  182167.39  54.90
837.7  332182.77  182395.91  54.91
838.9  332561.21  182631.32  54.92
840.1  332863.20  182837.32  54.93
841.4  333301.24  183085.78  54.93
842.6  333650.50  183290.96  54.94
843.8  333922.34  183477.16  54.95
845.1  334397.69  183759.47  54.95
846.3  334767.02  183983.85  54.96
847.5  335122.55  184214.96  54.97
848.8  335491.60  184423.56  54.97
850.0  335824.89  184605.09  54.97
851.2  336274.43  184890.88  54.98
852.5  336653.37  185100.11  54.98
853.7  337135.88  185359.72  54.98
854.9  337528.64  185602.51  54.99
856.1  337896.65  185824.51  54.99
857.4  338085.02  185949.67  55.00
858.6  338513.15  186173.57  55.00
859.8  338862.19  186379.57  55.00
861.0  339288.30  186612.33  55.00
862.2  339667.43  186860.92  55.01
863.5  340031.53  187048.72  55.01
864.7  340506.10  187308.69  55.01
865.9  340918.54  187507.64  55.00
867.1  341188.87  187656.70  55.00
868.3  341590.45  187859.96  55.00
869.5  342026.26  188101.93  55.00
870.8  342541.50  188388.90  55.00
872.0  342975.04  188654.59  55.01
873.2  343417.15  188858.78  54.99
874.4  343778.18  189061.64  55.00
875.6  344136.06  189235.42  54.99
876.8  344577.13  189467.59  54.99
878.0  345025.69  189693.17  54.98
879.2  345518.33  189955.68  54.98
880.4  345970.57  190207.85  54.98
881.6  346447.39  190433.10  54.97
882.8  346865.47  190624.68  54.96
884.0  347425.48  190900.35  54.95
885.2  347862.05  191131.71  54.94
886.5  348440.09  191432.83  54.94
887.7  348861.88  191656.37  54.94
888.8  349507.19  191977.41  54.93
890.0  350015.70  192226.44  54.92
891.2  350578.55  192515.13  54.91
892.4  351196.57  192801.20  54.90
893.6  351693.56  193080.81  54.90
894.8  352502.79  193514.28  54.90
896.0  353379.63  193911.81  54.87
897.2  354153.04  194298.78  54.86
898.4  354895.75  194666.19  54.85
899.6  355408.32  194933.81  54.85
900.8  355809.38  195106.54  54.83
902.0  356036.55  195199.03  54.83
903.2  356378.02  195387.38  54.83
904.3  356705.65  195529.21  54.82
905.5  357344.68  195827.67  54.80
906.7  357884.42  196117.19  54.80
907.9  358423.57  196361.46  54.78
909.1  358713.34  196521.21  54.79
910.2  359005.39  196606.93  54.76
911.4  359275.32  196727.26  54.76
912.6  359524.64  196792.93  54.74
913.8  359837.54  196911.20  54.72
915.0  360272.50  197112.79  54.71
916.2  360477.00  197187.99  54.70
917.3  360543.68  197200.56  54.70
918.5  360788.99  197279.92  54.68
919.7  361126.68  197398.92  54.66
920.8  361185.05  197407.84  54.66
922.0  361377.04  197460.08  54.64
923.2  361656.75  197511.60  54.61
924.4  361919.82  197582.37  54.59
925.5  362184.45  197674.69  54.58
926.7  362747.78  197925.66  54.56
927.9  363620.80  198287.92  54.53
929.0  364882.95  198924.38  54.52
930.2  366969.49  199963.22  54.49
931.4  369221.18  201098.33  54.47
932.5  371727.98  202328.21  54.43
933.7  373086.04  202960.33  54.40
934.9  373661.46  203208.63  54.38
936.0  373384.38  202955.41  54.36
937.2  371628.28  201856.88  54.32
938.3  370237.25  200981.16  54.28
939.5  368968.80  200179.72  54.25
940.7  369155.25  200175.10  54.23
941.8  370614.55  200813.18  54.18
943.0  372003.50  201427.50  54.15
944.2  372758.21  201718.66  54.12
945.3  372506.88  201456.73  54.08
946.5  371922.30  200949.92  54.03
947.6  372182.84  200903.36  53.98
948.8  372139.95  200673.59  53.92
949.9  372362.20  200596.00  53.87
951.1  372140.98  200232.81  53.81
952.2  372062.00  199989.94  53.75
953.4  371841.04  199591.62  53.68
954.5  371954.70  199390.07  53.61
955.7  371886.90  199093.80  53.54
956.8  371773.72  198791.21  53.47
958.0  371529.34  198451.35  53.41
959.1  371468.11  198212.35  53.36
960.3  371179.65  197888.01  53.31
961.4  371253.56  197705.55  53.25
962.6  371492.63  197627.07  53.20
963.7  371299.39  197486.63  53.19
964.9  371182.30  197425.19  53.19
966.0  371103.53  197361.00  53.18
967.2  371438.93  197367.85  53.14
968.3  371252.03  197173.25  53.11
969.5  371229.01  197065.76  53.08
970.6  371348.48  197039.69  53.06
971.8  371586.43  197144.27  53.05
972.9  371287.57  197085.34  53.08
974.0  371471.69  197275.03  53.11
975.2  371485.13  197225.48  53.09
976.3  371670.92  197233.14  53.07
977.5  371746.03  197162.44  53.04
978.6  371692.90  197165.47  53.05
979.7  371563.59  197262.52  53.09
980.9  371562.20  197247.48  53.09
982.0  371481.30  197259.45  53.10
983.2  371527.63  197217.05  53.08
984.3  371234.14  197083.48  53.09
985.4  371830.87  197332.65  53.07
986.6  371545.63  197221.86  53.08
987.7  372637.89  197767.04  53.07
988.9  372046.20  197601.74  53.11
990.0  372946.25  198010.64  53.09
993.1  315238.82  165887.66  52.62
996.9  315428.76  166469.13  52.78
1000.7  316237.55  167271.24  52.89
1004.5  316679.55  167838.97  53.00
1008.4  316426.25  168088.92  53.12
1012.2  316475.90  168416.07  53.22
1016.0  316498.80  168767.66  53.32
1019.8  316628.82  169115.11  53.41
1023.7  316547.33  169320.11  53.49
1027.5  316132.17  169346.27  53.57
1031.3  316219.07  169545.89  53.62
1035.1  316018.10  169544.24  53.65
1038.9  315958.87  169603.57  53.68
1042.7  315738.34  169571.59  53.71
1046.5  315603.25  169552.80  53.72
1050.3  315618.98  169591.36  53.73
1054.2  315319.09  169485.17  53.75
1058.0  314842.48  169227.32  53.75
1061.8  314747.55  169182.99  53.75
1065.6  314479.04  169001.86  53.74
1069.4  314441.40  168951.77  53.73
1073.2  314052.09  168707.19  53.72
1077.0  313596.12  168399.50  53.70
1080.8  313200.00  168070.54  53.66
1084.6  312455.44  167540.63  53.62
1088.4  312024.17  167211.85  53.59
1092.2  311395.50  166720.82  53.54
1096.0  310946.56  166314.88  53.49
1099.8  310485.28  165894.50  53.43
1103.6  309878.34  165352.37  53.36
1107.4  309047.41  164678.30  53.29
1111.2  308771.90  164306.51  53.21
1114.9  308122.21  163695.13  53.13
1118.7  307574.44  163044.69  53.01
1122.5  306924.80  162276.59  52.87
1126.3  305944.37  161305.77  52.72
1130.1  305536.33  160470.76  52.52
1133.9  304260.25  158977.90  52.25
1137.7  303080.10  157346.42  51.92
1141.4  301612.68  155369.67  51.51
1145.2  301000.70  153664.86  51.05
1149.0  300041.15  151857.81  50.61
1152.8  298712.13  150021.55  50.22
1156.6  297366.94  148473.60  49.93
1160.3  295929.84  147187.12  49.74
1164.1  293926.10  145865.63  49.63
1167.9  292447.40  144965.04  49.57
1171.7  291378.94  144353.82  49.54
1175.4  290350.72  143818.74  49.53
1179.2  289404.17  143297.42  49.51
1183.0  289088.33  143061.62  49.49
1186.7  288609.19  142736.57  49.46
1190.5  287797.04  142227.48  49.42
1194.3  286857.14  141699.42  49.40
1198.0  285871.72  141205.24  49.39
1201.8  284592.12  140584.97  49.40
1205.6  283544.00  140120.93  49.42
1209.3  282760.05  139849.87  49.46
1213.1  282024.27  139599.39  49.50
1216.8  281288.34  139414.66  49.56
1220.6  280403.20  139173.47  49.63
1224.3  279409.38  138863.34  49.70
1228.1  278351.20  138540.95  49.77
1231.9  277241.82  138154.12  49.83
1235.6  275955.68  137640.33  49.88
1239.4  274746.69  137190.42  49.93
1243.1  273668.00  136743.36  49.97
1246.9  272638.51  136289.37  49.99
1250.6  271833.47  135920.58  50.00
1254.3  270939.03  135492.90  50.01
1258.1  270116.35  135072.02  50.01
1261.8  269039.07  134507.06  50.00
1265.6  267828.03  133847.12  49.98
1269.3  266678.77  133176.78  49.94
1273.1  266663.40  133031.57  49.89
1276.8  266893.60  132977.06  49.82
1280.6  266694.84  132704.44  49.76
1284.3  265409.40  131878.26  49.69
1288.0  264138.23  131009.93  49.60
1291.8  263066.28  130154.92  49.48
1295.5  261989.20  129257.97  49.34
1299.2  260960.31  128334.80  49.18
1302.9  259722.67  127235.79  48.99
1306.7  258368.02  126029.69  48.78
1310.4  257095.75  124745.87  48.52
1314.1  255875.86  123437.60  48.24
1317.9  254838.44  122088.16  47.91
1321.6  253670.45  120582.77  47.54
1325.3  252278.26  118870.28  47.12
1329.0  251097.53  117193.69  46.67
1332.8  249326.00  115132.60  46.18
1336.5  247793.27  113168.53  45.67
1340.2  247413.84  111723.09  45.16
1343.9  246892.08  110199.59  44.63
1347.6  246010.35  108511.97  44.11
1351.4  245729.25  107152.61  43.61
1355.1  245487.00  105832.63  43.11
1358.8  245272.00  104465.14  42.59
