/*** Spectra Vista SIG Data ***/
name= 38_20220721_CECA_41_avg.sig
comm= Averaged Ref/Tar of files: HR.072122.0036_moc.sig,HR.072122.0037_moc.sig,HR.072122.0038_moc.sig
data=
337.3  3275.25  284.52  8.69
338.8  3367.00  269.36  8.00
340.3  3513.75  249.87  7.11
341.8  3658.00  256.06  7.00
343.2  3862.80  248.64  6.44
344.7  4051.75  244.53  6.04
346.2  4207.55  239.65  5.70
347.7  4404.40  241.19  5.48
349.2  4573.80  236.88  5.18
350.6  4774.25  239.94  5.03
352.1  5072.95  233.40  4.60
353.6  5309.10  235.96  4.44
355.1  5590.05  246.95  4.42
356.6  5866.73  240.35  4.10
358.0  6124.80  246.69  4.03
359.5  6396.30  247.20  3.86
361.0  6673.28  251.37  3.77
362.5  7026.00  257.62  3.67
364.0  7340.80  259.99  3.54
365.4  7699.40  269.76  3.50
366.9  8011.25  268.88  3.36
368.4  8346.15  276.39  3.31
369.9  8675.03  291.87  3.36
371.3  9051.30  295.48  3.26
372.8  9425.25  311.52  3.31
374.3  9809.38  315.33  3.21
375.8  10241.00  319.81  3.12
377.2  10625.50  322.80  3.04
378.7  11002.10  322.80  2.93
380.2  11351.80  329.97  2.91
381.7  11836.95  335.11  2.83
383.1  12262.25  341.37  2.78
384.6  12759.18  348.88  2.73
386.1  13188.20  363.94  2.76
387.6  13636.70  362.93  2.66
389.0  14070.00  368.05  2.62
390.5  14522.85  382.32  2.63
392.0  15023.60  384.41  2.56
393.4  15528.53  395.88  2.55
394.9  16051.50  407.16  2.54
396.4  16585.88  417.45  2.52
397.9  17117.50  427.08  2.50
399.3  17600.88  432.21  2.46
400.8  18120.48  442.00  2.44
402.2  18707.10  445.17  2.38
403.7  19260.00  462.24  2.40
405.2  19815.98  473.50  2.39
406.6  20369.60  485.65  2.38
408.1  20927.60  497.20  2.38
409.6  21489.05  503.39  2.34
411.0  22118.60  518.09  2.34
412.5  22720.08  533.12  2.35
414.0  23329.38  548.77  2.35
415.4  23989.13  569.75  2.38
416.9  24614.18  591.10  2.40
418.4  25248.60  602.58  2.39
419.8  25916.80  618.80  2.39
421.3  26594.90  634.57  2.39
422.7  27318.00  656.56  2.40
424.2  28046.25  681.75  2.43
425.7  28753.20  699.81  2.43
427.1  29434.50  719.51  2.44
428.6  30194.00  739.87  2.45
430.0  30881.13  760.77  2.46
431.5  31700.70  782.07  2.47
432.9  32523.00  802.82  2.47
434.4  33334.28  825.12  2.48
435.9  34104.00  849.33  2.49
437.3  34883.75  865.33  2.48
438.8  35661.53  888.71  2.49
440.2  36463.35  909.11  2.49
441.7  37359.20  930.85  2.49
443.1  38199.75  955.77  2.50
444.6  39103.50  978.13  2.50
446.0  39975.98  1003.40  2.51
447.5  40868.85  1027.11  2.51
448.9  41718.60  1056.08  2.53
450.4  42644.35  1082.62  2.54
451.8  43446.00  1105.87  2.55
453.3  44311.18  1126.19  2.54
454.7  45269.30  1154.13  2.55
456.2  46075.90  1174.38  2.55
457.6  46980.23  1200.06  2.55
459.1  47876.73  1220.57  2.55
460.5  48738.50  1241.20  2.55
462.0  49731.43  1265.94  2.55
463.4  50690.00  1289.63  2.54
464.8  51601.13  1307.95  2.53
466.3  52537.65  1335.18  2.54
467.7  53456.85  1356.83  2.54
469.2  54442.10  1377.47  2.53
470.6  55342.95  1401.25  2.53
472.0  56300.00  1424.39  2.53
473.5  57220.38  1448.28  2.53
474.9  58182.75  1474.40  2.53
476.4  59256.00  1501.44  2.53
477.8  60262.00  1525.40  2.53
479.2  61219.00  1554.40  2.54
480.7  62242.50  1578.74  2.54
482.1  63291.00  1606.84  2.54
483.6  64389.20  1641.52  2.55
485.0  65412.53  1665.59  2.55
486.4  66522.60  1697.50  2.55
487.9  67523.63  1727.70  2.56
489.3  68633.23  1763.07  2.57
490.7  69649.25  1796.45  2.58
492.2  70809.90  1834.56  2.59
493.6  71828.95  1871.29  2.61
495.0  72832.50  1905.15  2.62
496.5  73932.65  1950.80  2.64
497.9  74959.90  1995.80  2.66
499.3  76045.85  2042.76  2.69
500.7  77234.80  2101.79  2.72
502.2  78299.80  2164.69  2.76
503.6  79453.20  2228.93  2.81
505.0  80443.15  2299.07  2.86
506.5  81646.65  2385.67  2.92
507.9  82767.98  2474.79  2.99
509.3  84064.00  2589.01  3.08
510.7  85263.75  2712.45  3.18
512.2  86560.50  2854.47  3.30
513.6  87908.10  3024.98  3.44
515.0  89219.20  3214.85  3.60
516.4  90493.20  3430.35  3.79
517.8  91996.13  3685.68  4.01
519.3  93204.65  3957.89  4.25
520.7  94654.85  4267.45  4.51
522.1  95854.53  4591.25  4.79
523.5  97133.20  4933.57  5.08
524.9  98459.10  5284.26  5.37
526.3  99746.85  5634.77  5.65
527.8  101113.65  5985.54  5.92
529.2  102214.00  6327.53  6.19
530.6  103707.65  6677.83  6.44
532.0  105294.00  7011.20  6.66
533.4  106523.03  7292.49  6.85
534.8  107400.23  7520.62  7.00
536.3  108979.20  7770.96  7.13
537.7  110854.80  8025.36  7.24
539.1  112194.48  8224.88  7.33
540.5  113294.10  8394.83  7.41
541.9  114912.23  8602.03  7.49
543.3  116131.98  8772.31  7.55
544.7  117306.00  8937.60  7.62
546.1  118951.25  9137.26  7.68
547.5  120120.00  9290.03  7.73
549.0  121781.00  9470.27  7.78
550.4  123196.88  9624.83  7.81
551.8  124594.95  9747.55  7.82
553.2  126024.73  9845.10  7.81
554.6  127285.60  9893.87  7.77
556.0  128712.60  9919.44  7.71
557.4  130208.58  9913.38  7.61
558.8  131724.45  9878.04  7.50
560.2  133069.75  9796.77  7.36
561.6  134638.88  9703.59  7.21
563.0  136112.15  9571.36  7.03
564.4  137593.10  9413.41  6.84
565.8  139017.50  9225.33  6.64
567.2  140631.50  9031.43  6.42
568.6  142049.25  8807.30  6.20
570.0  143388.38  8573.67  5.98
571.4  145020.20  8358.22  5.76
572.8  146649.75  8153.88  5.56
574.2  148153.60  7957.97  5.37
575.6  149591.25  7774.50  5.20
577.0  151001.90  7613.19  5.04
578.4  152629.75  7481.72  4.90
579.8  154040.40  7362.36  4.78
581.2  155672.18  7266.01  4.67
582.5  156990.60  7174.44  4.57
583.9  158403.20  7097.31  4.48
585.3  160093.13  7045.29  4.40
586.7  161447.65  6982.52  4.32
588.1  162863.00  6938.73  4.26
589.5  164407.25  6912.27  4.20
590.9  165936.80  6891.09  4.15
592.3  167630.35  6889.11  4.11
593.7  168983.10  6881.68  4.07
595.0  170495.55  6891.30  4.04
596.4  171859.45  6891.13  4.01
597.8  173243.75  6891.40  3.98
599.2  174688.80  6890.40  3.94
600.6  176329.73  6888.14  3.91
602.0  177545.63  6862.86  3.87
603.3  179225.85  6843.65  3.82
604.7  180769.83  6806.50  3.77
606.1  182173.80  6758.32  3.71
607.5  183712.53  6697.00  3.65
608.9  185291.40  6642.84  3.59
610.2  186585.53  6573.42  3.52
611.6  188072.93  6515.01  3.46
613.0  189526.20  6448.55  3.40
614.4  190823.25  6384.54  3.35
615.8  192187.13  6325.80  3.29
617.1  193599.00  6283.76  3.25
618.5  195138.00  6255.47  3.21
619.9  196547.33  6228.70  3.17
621.3  198085.50  6218.94  3.14
622.6  199561.50  6215.90  3.11
624.0  200942.70  6225.32  3.10
625.4  202301.55  6232.38  3.08
626.8  203808.15  6259.59  3.07
628.1  205067.78  6282.32  3.06
629.5  206810.38  6321.36  3.06
630.9  208345.50  6354.37  3.05
632.2  209658.23  6371.28  3.04
633.6  211185.50  6393.33  3.03
635.0  212643.60  6391.52  3.01
636.3  214070.20  6375.63  2.98
637.7  215363.13  6343.03  2.95
639.1  216930.00  6302.33  2.91
640.4  218321.60  6252.24  2.86
641.8  219461.40  6179.33  2.82
643.2  220950.45  6121.29  2.77
644.5  222230.25  6059.00  2.73
645.9  223853.85  6012.24  2.69
647.2  225809.85  5992.09  2.65
648.6  227650.50  5985.90  2.63
650.0  229024.80  5976.00  2.61
651.3  229299.95  5946.67  2.59
652.7  230039.00  5922.31  2.57
654.0  231999.90  5932.63  2.56
655.4  233489.30  5936.68  2.54
656.8  233810.00  5908.05  2.53
658.1  234967.70  5898.97  2.51
659.5  237150.38  5899.60  2.49
660.8  238905.00  5910.00  2.47
662.2  239702.40  5895.68  2.46
663.5  241191.35  5903.71  2.45
664.9  242525.40  5922.80  2.44
666.2  243223.20  5934.80  2.44
667.6  244815.95  5977.15  2.44
668.9  245927.95  6024.69  2.45
670.3  246818.63  6077.05  2.46
671.6  248419.50  6150.75  2.48
673.0  249525.75  6239.25  2.50
674.3  250724.50  6338.28  2.53
675.7  251964.05  6445.90  2.56
677.0  253045.23  6563.45  2.59
678.4  254344.70  6695.60  2.63
679.7  255401.90  6830.69  2.67
681.1  256621.88  6987.47  2.72
682.4  257708.10  7151.56  2.78
683.8  258945.70  7328.36  2.83
685.1  259880.25  7525.45  2.90
686.4  261116.40  7749.28  2.97
687.8  262372.00  8012.97  3.05
689.1  263395.50  8336.33  3.16
690.5  264713.40  8770.14  3.31
691.8  265474.70  9352.60  3.52
693.1  266681.10  10174.38  3.82
694.5  267813.00  11265.80  4.21
695.8  268973.25  12706.63  4.72
697.1  270110.75  14547.87  5.39
698.5  271151.50  16837.35  6.21
699.8  272190.70  19582.13  7.19
701.1  273279.10  22786.86  8.34
702.5  274050.15  26374.48  9.62
703.8  274950.00  30321.00  11.03
705.1  276051.75  34582.34  12.53
706.5  277092.00  39066.75  14.10
707.8  278034.00  43719.58  15.72
709.1  278883.90  48480.97  17.38
710.5  280000.15  53368.66  19.06
711.8  280846.20  58247.60  20.74
713.1  281827.40  63174.41  22.42
714.4  282697.10  68077.44  24.08
715.8  283499.90  72923.97  25.72
717.1  284761.35  77837.60  27.33
718.4  285689.60  82569.39  28.90
719.7  286781.00  87256.94  30.43
721.0  287302.50  91668.00  31.91
722.4  288053.70  96005.87  33.33
723.7  289014.00  100248.90  34.69
725.0  290016.45  104377.44  35.99
726.3  290950.28  108284.84  37.22
727.6  291475.25  111900.32  38.39
729.0  292408.38  115462.53  39.49
730.3  293177.33  118775.23  40.51
731.6  294074.45  121954.20  41.47
732.9  294847.70  124915.37  42.37
734.2  295670.38  127724.12  43.20
735.5  296650.25  130450.83  43.97
736.8  297411.30  132912.76  44.69
738.1  298248.10  135238.95  45.34
739.5  299213.98  137462.27  45.94
740.8  299892.18  139429.18  46.49
742.1  300644.63  141316.60  47.00
743.4  301375.00  143063.33  47.47
744.7  302376.93  144816.67  47.89
746.0  303236.70  146391.18  48.28
747.3  303798.55  147701.26  48.62
748.6  304519.50  148992.93  48.93
749.9  305266.00  150207.20  49.21
751.2  306033.45  151328.31  49.45
752.5  306922.55  152461.47  49.67
753.8  307554.63  153383.58  49.87
755.1  308282.00  154290.93  50.05
756.4  308868.73  155060.36  50.20
757.7  309823.15  155959.79  50.34
759.0  311579.23  157192.65  50.45
760.3  312708.00  158079.68  50.55
761.6  314279.00  159131.84  50.63
762.9  314847.50  159644.00  50.71
764.2  315241.10  160051.41  50.77
765.5  315570.93  160391.57  50.83
766.8  316064.00  160773.76  50.87
768.1  316579.60  161170.45  50.91
769.3  317200.80  161571.85  50.94
770.6  317875.35  161998.20  50.96
771.9  318631.08  162453.29  50.98
773.2  319074.00  162732.00  51.00
774.5  319719.40  163119.15  51.02
775.8  320436.95  163521.80  51.03
777.1  321028.95  163869.64  51.05
778.4  321409.28  164085.57  51.05
779.6  322219.00  164514.00  51.06
780.9  322740.00  164796.00  51.06
782.2  323221.25  165060.13  51.07
783.5  323605.00  165269.33  51.07
784.8  324155.70  165579.57  51.08
786.0  324583.00  165817.68  51.09
787.3  325042.33  166053.71  51.09
788.6  325537.93  166296.23  51.08
789.9  326057.20  166564.16  51.08
791.2  326694.68  166909.96  51.09
792.4  327408.78  167279.98  51.09
793.7  327887.80  167543.31  51.10
795.0  328609.88  167884.75  51.09
796.2  329312.95  168240.97  51.09
797.5  330095.85  168624.60  51.08
798.8  330797.98  168986.07  51.08
800.0  331492.10  169351.60  51.09
801.3  332011.70  169621.87  51.09
802.6  332605.58  169942.17  51.09
803.8  333311.05  170286.28  51.09
805.1  333884.25  170556.63  51.08
806.4  334365.60  170804.84  51.08
807.7  334963.35  171100.89  51.08
808.9  335554.25  171395.58  51.08
810.2  336056.35  171689.19  51.09
811.4  336599.40  171964.84  51.09
812.7  337268.75  172298.75  51.09
814.0  338088.40  172731.24  51.09
815.2  338801.25  173050.97  51.08
816.5  339214.60  173276.77  51.08
817.7  339714.80  173542.50  51.08
819.0  340256.95  173828.97  51.09
820.2  340472.00  173958.40  51.09
821.5  341170.65  174319.55  51.09
822.7  341554.60  174514.00  51.09
824.0  341909.10  174695.40  51.09
825.2  342419.40  174960.54  51.10
826.5  342743.75  175125.51  51.10
827.7  343330.73  175419.32  51.09
829.0  343754.88  175643.88  51.10
830.2  344073.10  175811.23  51.10
831.5  344580.65  176033.19  51.09
832.7  344915.03  176214.08  51.09
834.0  345264.38  176375.35  51.08
835.2  345614.50  176582.05  51.09
836.4  345921.40  176773.45  51.10
837.7  346338.00  177002.75  51.11
838.9  346807.28  177238.69  51.11
840.1  347186.93  177442.38  51.11
841.4  347602.10  177679.73  51.12
842.6  347956.00  177869.87  51.12
843.8  348318.40  178081.49  51.13
845.1  348859.30  178350.71  51.12
846.3  349301.20  178577.13  51.12
847.5  349687.80  178802.40  51.13
848.8  350097.00  179014.00  51.13
850.0  350401.45  179204.06  51.14
851.2  350941.95  179504.28  51.15
852.5  351335.20  179722.79  51.15
853.7  351828.00  179985.60  51.16
854.9  352246.90  180215.04  51.16
856.1  352692.60  180443.64  51.16
857.4  352893.48  180559.19  51.17
858.6  353410.20  180796.64  51.16
859.8  353812.50  181004.00  51.16
861.0  354299.40  181275.12  51.16
862.2  354735.33  181497.12  51.16
863.5  355174.63  181688.52  51.15
864.7  355740.00  181925.92  51.14
865.9  356136.80  182149.44  51.15
867.1  356439.05  182310.13  51.15
868.3  356884.80  182554.16  51.15
869.5  357370.60  182820.83  51.16
870.8  357867.00  183069.60  51.16
872.0  358478.70  183311.80  51.14
873.2  358942.95  183527.46  51.13
874.4  359336.25  183759.03  51.14
875.6  359785.25  183950.51  51.13
876.8  360263.55  184183.09  51.12
878.0  360729.70  184441.91  51.13
879.2  361263.15  184684.18  51.12
880.4  361929.00  184922.75  51.09
881.6  362403.88  185185.42  51.10
882.8  362772.80  185386.77  51.10
884.0  363355.28  185686.06  51.10
885.2  363955.00  185947.39  51.09
886.5  364551.55  186229.60  51.08
887.7  365051.38  186471.78  51.08
888.8  365738.93  186785.16  51.07
890.0  366471.80  187069.49  51.05
891.2  367022.90  187350.03  51.05
892.4  367651.73  187655.37  51.04
893.6  368249.70  187921.04  51.03
894.8  369104.00  188383.80  51.04
896.0  370004.00  188786.73  51.02
897.2  370760.00  189168.20  51.02
898.4  371655.90  189541.44  51.00
899.6  372288.00  189841.95  50.99
900.8  372677.38  190074.25  51.00
902.0  373041.60  190185.62  50.98
903.2  373434.53  190323.91  50.97
904.3  373899.60  190517.04  50.95
905.5  374558.03  190807.38  50.94
906.7  375117.50  191088.60  50.94
907.9  375734.45  191363.95  50.93
909.1  376132.28  191557.71  50.93
910.2  376473.08  191643.23  50.90
911.4  376804.35  191768.07  50.89
912.6  377048.10  191886.93  50.89
913.8  377314.95  192017.41  50.89
915.0  377848.80  192223.08  50.87
916.2  378095.25  192288.20  50.86
917.3  378230.40  192352.77  50.86
918.5  378591.00  192461.27  50.84
919.7  378864.00  192571.66  50.83
920.8  379121.25  192602.46  50.80
922.0  379186.50  192674.53  50.81
923.2  379606.50  192756.20  50.78
924.4  379839.38  192857.85  50.77
925.5  380213.00  192959.27  50.75
926.7  380995.50  193193.38  50.71
927.9  381888.60  193571.20  50.69
929.0  383472.90  194238.00  50.65
930.2  385606.90  195270.09  50.64
931.4  387812.48  196352.73  50.63
932.5  390435.70  197586.97  50.61
933.7  391939.50  198179.06  50.56
934.9  392546.88  198437.17  50.55
936.0  392422.88  198241.12  50.52
937.2  390462.00  197260.52  50.52
938.3  389125.20  196367.82  50.46
939.5  387975.60  195572.64  50.41
940.7  388150.20  195576.36  50.39
941.8  389794.35  196195.32  50.33
943.0  391302.75  196816.50  50.30
944.2  392332.20  197188.94  50.26
945.3  391989.00  196933.10  50.24
946.5  391437.90  196432.02  50.18
947.6  391507.10  196395.57  50.16
948.8  391736.48  196172.21  50.08
949.9  391839.00  196031.36  50.03
951.1  391825.85  195685.66  49.94
952.2  391680.00  195404.80  49.89
953.4  391495.25  195091.33  49.83
954.5  391716.00  194903.28  49.76
955.7  391771.80  194664.96  49.69
956.8  391784.20  194395.85  49.62
958.0  391390.50  194004.47  49.57
959.1  391181.43  193852.63  49.56
960.3  391187.48  193577.62  49.48
961.4  390994.85  193394.29  49.46
962.6  391511.75  193462.27  49.41
963.7  391538.70  193283.39  49.37
964.9  391347.98  193188.84  49.36
966.0  391420.35  193121.28  49.34
967.2  391470.30  193146.48  49.34
968.3  391286.70  193056.48  49.34
969.5  391405.00  193018.58  49.31
970.6  391799.83  193022.29  49.27
971.8  391947.33  193109.16  49.27
972.9  392154.60  193079.94  49.24
974.0  392383.60  193193.52  49.24
975.2  392293.75  193076.75  49.22
976.3  392226.35  193125.47  49.24
977.5  392167.48  193070.94  49.23
978.6  392498.10  193061.59  49.19
979.7  392870.63  193221.56  49.18
980.9  393206.60  193236.39  49.14
982.0  392599.10  193195.87  49.21
983.2  392390.40  193197.77  49.24
984.3  392623.60  193157.76  49.20
985.4  392852.43  193321.19  49.21
986.6  393040.00  193326.55  49.19
987.7  393943.90  193667.34  49.16
988.9  393647.40  193491.60  49.15
990.0  394413.40  193859.28  49.15
993.1  331134.53  161992.42  48.92
996.9  332205.40  162933.56  49.05
1000.7  333578.58  163933.65  49.14
1004.5  334213.67  164581.39  49.24
1008.4  334144.04  164856.37  49.34
1012.2  334249.04  165195.68  49.42
1016.0  334500.60  165564.00  49.50
1019.8  334880.70  165985.05  49.57
1023.7  335214.63  166347.11  49.62
1027.5  335329.75  166621.69  49.69
1031.3  335938.78  167054.87  49.73
1035.1  336145.78  167286.73  49.77
1038.9  336239.57  167440.01  49.80
1042.7  336160.83  167473.76  49.82
1046.5  336077.33  167491.83  49.84
1050.3  336193.92  167570.32  49.84
1054.2  335971.42  167510.92  49.86
1058.0  335493.61  167271.40  49.86
1061.8  335396.81  167224.96  49.86
1065.6  335202.03  167092.60  49.85
1069.4  335469.13  167192.42  49.84
1073.2  335376.43  167095.05  49.82
1077.0  335109.03  166861.79  49.79
1080.8  334557.29  166443.60  49.75
1084.6  333320.05  165682.30  49.71
1088.4  332514.90  165168.54  49.67
1092.2  331695.00  164610.64  49.63
1096.0  331214.07  164216.11  49.58
1099.8  330864.52  163861.04  49.53
1103.6  330316.50  163417.22  49.47
1107.4  329574.69  162830.38  49.41
1111.2  329353.00  162519.86  49.35
1114.9  328725.83  161958.08  49.27
1118.7  328061.25  161323.68  49.17
1122.5  327343.47  160578.23  49.05
1126.3  326271.34  159599.64  48.92
1130.1  325778.73  158734.57  48.72
1133.9  324423.40  157187.10  48.45
1137.7  323228.90  155518.04  48.11
1141.4  321730.28  153505.39  47.71
1145.2  321147.60  151792.64  47.27
1149.0  320184.38  149989.59  46.84
1152.8  318781.75  148162.76  46.48
1156.6  317373.47  146644.85  46.21
1160.3  315895.33  145409.05  46.03
1164.1  313724.73  144108.71  45.93
1167.9  312081.25  143198.96  45.89
1171.7  310952.25  142603.88  45.86
1175.4  309999.57  142159.99  45.86
1179.2  309186.58  141741.33  45.84
1183.0  308992.00  141577.38  45.82
1186.7  308393.40  141224.93  45.79
1190.5  307282.87  140640.35  45.77
1194.3  306136.03  140072.28  45.75
1198.0  305124.60  139620.53  45.76
1201.8  303862.25  139091.88  45.77
1205.6  302728.33  138661.29  45.80
1209.3  301826.48  138387.33  45.85
1213.1  300849.00  138110.00  45.91
1216.8  299886.95  137873.27  45.98
1220.6  298903.73  137617.33  46.04
1224.3  297795.67  137289.67  46.10
1228.1  296761.80  137011.11  46.17
1231.9  295724.60  136694.63  46.22
1235.6  294517.13  136266.11  46.27
1239.4  293399.63  135890.66  46.32
1243.1  292317.15  135488.78  46.35
1246.9  291284.97  135054.94  46.37
1250.6  290448.27  134689.58  46.37
1254.3  289524.13  134269.64  46.38
1258.1  288701.93  133869.05  46.37
1261.8  287606.13  133340.53  46.36
1265.6  286257.15  132657.79  46.34
1269.3  284813.90  131867.51  46.30
1273.1  284666.83  131654.26  46.25
1276.8  285015.60  131647.48  46.19
1280.6  285140.07  131531.89  46.13
1284.3  284064.40  130832.17  46.06
1288.0  282751.18  129949.58  45.96
1291.8  281403.12  128972.76  45.83
1295.5  279994.00  127946.55  45.70
1299.2  278793.54  126980.32  45.55
1302.9  277500.56  125896.82  45.37
1306.7  276150.12  124716.32  45.16
1310.4  274853.85  123449.37  44.91
1314.1  273656.53  122165.92  44.64
1317.9  272609.38  120825.86  44.32
1321.6  271383.93  119311.01  43.96
1325.3  269939.25  117580.50  43.56
1329.0  268726.85  115889.15  43.13
1332.8  266789.60  113806.00  42.66
1336.5  265090.40  111786.90  42.17
1340.2  264673.50  110313.67  41.68
1343.9  264077.50  108759.14  41.18
1347.6  263082.60  107053.05  40.69
1351.4  262663.00  105619.22  40.21
1355.1  262246.97  104226.67  39.74
1358.8  261664.00  102706.29  39.25
1362.5  260935.10  101001.32  38.71
