/*** Spectra Vista SIG Data ***/
name= 43_20221021_ACRU_39_avg.sig
comm= Averaged Ref/Tar of files: HR.102122.0045_moc.sig,HR.102122.0046_moc.sig,HR.102122.0047_moc.sig
data=
337.3  6217.05  443.12  7.13
338.8  6445.40  456.26  7.08
340.3  6805.80  460.92  6.77
341.8  7076.55  454.49  6.42
343.2  7461.30  433.13  5.81
344.7  7900.50  426.92  5.40
346.2  8307.25  424.57  5.11
347.7  8627.35  426.66  4.95
349.2  8920.80  421.92  4.73
350.6  9277.35  431.34  4.65
352.1  9834.25  427.20  4.34
353.6  10320.00  437.70  4.24
355.1  10843.58  442.23  4.08
356.6  11518.28  444.99  3.86
358.0  12031.75  465.59  3.87
359.5  12499.88  450.64  3.61
361.0  13164.60  482.31  3.66
362.5  13842.00  493.26  3.56
364.0  14539.78  507.56  3.49
365.4  15214.38  526.91  3.46
366.9  15819.10  541.75  3.42
368.4  16462.60  556.90  3.38
369.9  17172.00  586.53  3.42
371.3  18016.08  615.29  3.42
372.8  18805.90  644.18  3.43
374.3  19619.80  650.24  3.31
375.8  20443.28  653.02  3.19
377.2  21217.95  670.91  3.16
378.7  21965.48  678.25  3.09
380.2  22777.20  700.99  3.08
381.7  23684.75  718.41  3.03
383.1  24569.85  725.10  2.95
384.6  25446.30  733.05  2.88
386.1  26362.50  760.24  2.88
387.6  27233.85  782.11  2.87
389.0  28204.65  806.84  2.86
390.5  29186.03  817.54  2.80
392.0  30222.00  841.80  2.79
393.4  31236.00  850.38  2.72
394.9  32219.70  880.33  2.73
396.4  33345.40  914.66  2.74
397.9  34418.70  929.47  2.70
399.3  35316.70  956.44  2.71
400.8  36457.58  968.86  2.66
402.2  37562.25  994.37  2.65
403.7  38733.75  1021.27  2.64
405.2  39876.50  1045.81  2.62
406.6  41087.10  1071.67  2.61
408.1  42131.93  1095.17  2.60
409.6  43288.30  1117.85  2.58
411.0  44514.80  1146.88  2.58
412.5  45821.50  1178.65  2.57
414.0  47113.85  1215.21  2.58
415.4  48375.00  1239.88  2.56
416.9  49645.58  1280.85  2.58
418.4  50927.65  1317.39  2.59
419.8  52247.30  1352.73  2.59
421.3  53638.20  1396.56  2.60
422.7  55060.20  1437.63  2.61
424.2  56536.88  1476.44  2.61
425.7  57937.00  1514.39  2.61
427.1  59404.50  1567.16  2.64
428.6  60860.68  1605.34  2.64
430.0  62322.15  1653.97  2.65
431.5  63982.10  1694.18  2.65
432.9  65574.63  1742.49  2.66
434.4  67233.13  1793.94  2.67
435.9  68834.00  1836.60  2.67
437.3  70503.00  1886.07  2.68
438.8  72098.60  1930.84  2.68
440.2  73714.03  1979.22  2.68
441.7  75545.45  2031.53  2.69
443.1  77334.75  2082.78  2.69
444.6  79064.65  2130.68  2.69
446.0  80841.80  2176.03  2.69
447.5  82775.00  2235.71  2.70
448.9  84470.83  2285.51  2.71
450.4  86325.00  2337.62  2.71
451.8  88088.25  2389.03  2.71
453.3  89852.63  2442.29  2.72
454.7  91631.70  2494.56  2.72
456.2  93385.25  2542.35  2.72
457.6  95264.10  2598.71  2.73
459.1  97034.70  2646.98  2.73
460.5  98883.93  2701.54  2.73
462.0  100850.40  2763.12  2.74
463.4  102819.68  2819.67  2.74
464.8  104717.03  2870.79  2.74
466.3  106594.28  2925.65  2.74
467.7  108582.40  2978.01  2.74
469.2  110391.90  3030.46  2.75
470.6  112433.13  3087.08  2.75
472.0  114433.93  3147.12  2.75
473.5  116409.70  3192.99  2.74
474.9  118520.10  3251.95  2.74
476.4  120540.80  3311.11  2.75
477.8  122584.00  3376.53  2.75
479.2  124599.15  3436.67  2.76
480.7  126698.78  3490.75  2.76
482.1  128873.88  3551.53  2.76
483.6  131018.40  3612.12  2.76
485.0  133216.95  3675.11  2.76
486.4  135265.35  3748.15  2.77
487.9  137464.50  3816.17  2.78
489.3  139566.75  3896.66  2.79
490.7  141681.00  3970.00  2.80
492.2  143889.63  4047.63  2.81
493.6  146084.60  4135.57  2.83
495.0  148358.93  4240.71  2.86
496.5  150510.15  4343.76  2.89
497.9  152742.63  4454.06  2.92
499.3  154984.25  4577.83  2.95
500.7  157234.80  4707.50  2.99
502.2  159584.15  4852.01  3.04
503.6  161839.80  5018.53  3.10
505.0  164058.40  5210.18  3.18
506.5  166475.05  5424.50  3.26
507.9  168838.40  5671.64  3.36
509.3  171078.53  5932.71  3.47
510.7  173665.05  6236.12  3.59
512.2  176298.45  6578.65  3.73
513.6  179103.50  6979.83  3.90
515.0  181802.08  7422.44  4.08
516.4  184566.40  7914.16  4.29
517.8  187316.50  8437.12  4.50
519.3  190209.60  9001.91  4.73
520.7  192843.60  9588.24  4.97
522.1  195460.85  10191.41  5.21
523.5  197995.33  10804.09  5.46
524.9  200833.58  11446.46  5.70
526.3  203411.25  12064.72  5.93
527.8  206128.63  12680.60  6.15
529.2  208713.60  13295.18  6.37
530.6  211398.30  13886.76  6.57
532.0  214235.45  14468.88  6.75
533.4  216731.20  14994.66  6.92
534.8  219228.90  15501.37  7.07
536.3  222131.60  15997.58  7.20
537.7  225040.00  16483.07  7.32
539.1  227878.63  16949.14  7.44
540.5  230686.50  17416.24  7.55
541.9  233643.20  17887.33  7.66
543.3  236179.30  18322.10  7.76
544.7  239162.00  18800.57  7.86
546.1  241955.00  19278.28  7.97
547.5  244792.80  19758.45  8.07
549.0  247743.20  20238.93  8.17
550.4  250593.53  20701.20  8.26
551.8  253538.88  21150.11  8.34
553.2  256383.90  21571.88  8.41
554.6  259206.40  21951.50  8.47
556.0  262063.20  22294.98  8.51
557.4  265147.60  22636.34  8.54
558.8  267991.25  22925.89  8.55
560.2  271160.00  23214.86  8.56
561.6  274063.90  23432.69  8.55
563.0  276820.70  23597.38  8.52
564.4  279997.90  23768.79  8.49
565.8  282987.10  23900.40  8.45
567.2  286142.00  24011.75  8.39
568.6  289141.65  24080.09  8.33
570.0  291968.63  24074.85  8.25
571.4  295339.55  24074.39  8.15
572.8  298465.80  24035.66  8.05
574.2  301328.48  23982.13  7.96
575.6  304371.88  23965.03  7.87
577.0  307343.58  23966.19  7.80
578.4  310712.50  24020.00  7.73
579.8  313751.98  24064.69  7.67
581.2  316773.25  24128.75  7.62
582.5  319680.00  24207.43  7.57
583.9  322703.20  24322.29  7.54
585.3  325546.40  24435.39  7.51
586.7  328528.20  24580.16  7.48
588.1  331465.80  24747.71  7.47
589.5  334763.25  24952.23  7.45
590.9  337695.55  25171.00  7.45
592.3  340613.10  25412.20  7.46
593.7  343566.30  25678.86  7.47
595.0  346466.40  25956.98  7.49
596.4  349742.50  26268.47  7.51
597.8  352353.80  26526.64  7.53
599.2  355457.70  26797.61  7.54
600.6  358587.08  27044.71  7.54
602.0  361561.20  27239.39  7.53
603.3  364416.00  27375.77  7.51
604.7  367386.03  27463.32  7.48
606.1  370358.78  27494.16  7.42
607.5  373642.23  27482.46  7.36
608.9  376707.10  27426.37  7.28
610.2  379843.20  27333.90  7.20
611.6  382745.00  27195.67  7.11
613.0  385516.13  27039.01  7.01
614.4  388241.28  26883.00  6.92
615.8  391489.20  26780.10  6.84
617.1  394190.35  26649.24  6.76
618.5  397438.35  26606.88  6.69
619.9  400125.90  26575.20  6.64
621.3  403012.03  26608.24  6.60
622.6  405902.25  26687.70  6.57
624.0  408588.00  26821.06  6.56
625.4  411696.68  27026.25  6.56
626.8  414624.60  27271.55  6.58
628.1  417378.85  27527.70  6.60
629.5  420073.85  27807.63  6.62
630.9  422836.80  28092.98  6.64
632.2  425820.40  28355.14  6.66
633.6  428169.30  28514.61  6.66
635.0  431049.20  28592.78  6.63
636.3  434028.53  28534.92  6.57
637.7  436690.80  28310.38  6.48
639.1  439639.20  27955.14  6.36
640.4  442339.75  27465.85  6.21
641.8  445147.20  26876.64  6.04
643.2  447664.35  26206.67  5.85
644.5  450520.00  25505.33  5.66
645.9  453116.30  24797.52  5.47
647.2  455395.33  24114.42  5.30
648.6  458034.00  23543.84  5.14
650.0  460823.40  23072.02  5.01
651.3  463669.90  22686.74  4.89
652.7  467545.50  22382.91  4.79
654.0  470291.25  22046.11  4.69
655.4  472483.73  21701.18  4.59
656.8  474226.73  21285.35  4.49
658.1  476841.23  20854.58  4.37
659.5  479952.00  20364.89  4.24
660.8  482762.70  19854.66  4.11
662.2  485395.90  19330.97  3.98
663.5  488226.90  18842.36  3.86
664.9  490123.50  18379.53  3.75
666.2  492379.88  17990.17  3.65
667.6  494959.50  17721.30  3.58
668.9  497534.40  17563.06  3.53
670.3  500522.75  17447.27  3.49
671.6  502652.00  17414.69  3.46
673.0  504941.60  17459.11  3.46
674.3  507353.00  17567.59  3.46
675.7  509841.90  17734.58  3.48
677.0  512147.03  17946.03  3.50
678.4  514333.60  18239.24  3.55
679.7  516707.33  18620.82  3.60
681.1  519200.78  19104.30  3.68
682.4  521339.63  19734.64  3.79
683.8  523627.88  20571.65  3.93
685.1  525870.60  21711.76  4.13
686.4  528100.30  23270.28  4.41
687.8  530492.93  25411.54  4.79
689.1  532896.00  28317.83  5.31
690.5  534896.55  32132.60  6.01
691.8  537528.75  37137.90  6.91
693.1  540009.00  43365.77  8.03
694.5  542360.70  50732.79  9.35
695.8  544720.50  59123.19  10.85
697.1  546949.20  68308.51  12.49
698.5  549282.38  78138.61  14.23
699.8  551627.20  88413.32  16.03
701.1  553620.38  98809.01  17.85
702.5  555677.13  109210.82  19.65
703.8  558112.65  119477.15  21.41
705.1  559957.55  129310.27  23.09
706.5  562214.90  138860.67  24.70
707.8  564057.75  147898.64  26.22
709.1  566295.05  156637.22  27.66
710.5  568532.35  164969.32  29.02
711.8  570438.00  172878.84  30.31
713.1  572330.00  180461.58  31.53
714.4  574426.78  187777.49  32.69
715.8  576688.10  194852.43  33.79
717.1  578943.55  201634.61  34.83
718.4  581183.25  208132.97  35.81
719.7  583371.45  214330.91  36.74
721.0  585063.05  220106.34  37.62
722.4  586917.90  225658.03  38.45
723.7  588861.65  231001.80  39.23
725.0  590584.25  235984.93  39.96
726.3  592854.60  240920.31  40.64
727.6  594543.00  245401.23  41.28
729.0  596341.20  249672.69  41.87
730.3  598287.60  253776.13  42.42
731.6  599774.20  257442.92  42.92
732.9  601731.00  261078.80  43.39
734.2  603351.38  264380.68  43.82
735.5  605136.40  267556.83  44.21
736.8  607115.78  270636.64  44.58
738.1  608910.30  273455.63  44.91
739.5  610678.65  276081.20  45.21
740.8  612575.70  278626.39  45.48
742.1  614134.90  280886.86  45.74
743.4  615860.35  283107.79  45.97
744.7  617694.00  285292.00  46.19
746.0  619176.73  287175.79  46.38
747.3  620653.60  288978.52  46.56
748.6  622160.90  290678.95  46.72
749.9  623910.60  292377.38  46.86
751.2  625157.40  293749.99  46.99
752.5  626686.65  295170.49  47.10
753.8  627997.50  296416.76  47.20
755.1  629497.25  297717.10  47.29
756.4  630599.70  298754.70  47.38
757.7  632630.63  300153.78  47.45
759.0  636156.43  302251.25  47.51
760.3  638859.15  303874.00  47.57
761.6  641689.15  305506.92  47.61
762.9  643093.00  306453.72  47.65
764.2  643842.60  307069.17  47.69
765.5  644676.30  307680.97  47.73
766.8  645187.85  308156.61  47.76
768.1  646241.40  308831.52  47.79
769.3  647519.00  309595.31  47.81
770.6  648859.45  310403.67  47.84
771.9  649995.15  311085.63  47.86
773.2  651339.00  311873.14  47.88
774.5  652265.10  312420.54  47.90
775.8  653345.08  313007.21  47.91
777.1  654532.95  313672.26  47.92
778.4  655772.50  314359.19  47.94
779.6  657019.80  315053.78  47.95
780.9  657720.00  315472.94  47.96
782.2  658641.23  316021.21  47.98
783.5  659520.50  316513.39  47.99
784.8  660261.00  316940.00  48.00
786.0  661083.83  317379.98  48.01
787.3  661896.10  317814.21  48.02
788.6  662796.75  318313.29  48.03
789.9  663496.50  318717.50  48.04
791.2  664806.20  319414.18  48.05
792.4  665896.00  319972.53  48.05
793.7  667437.65  320734.26  48.05
795.0  668409.90  321262.91  48.06
796.2  669686.95  321950.35  48.07
797.5  670895.00  322584.20  48.08
798.8  672240.63  323271.95  48.09
800.0  673330.00  323834.67  48.09
801.3  674517.38  324414.45  48.10
802.6  675576.00  324935.31  48.10
803.8  676624.20  325485.18  48.10
805.1  677655.38  326015.30  48.11
806.4  678662.75  326497.82  48.11
807.7  679645.98  327054.05  48.12
808.9  680766.40  327615.91  48.12
810.2  681662.10  328059.76  48.13
811.4  682723.20  328583.99  48.13
812.7  684074.95  329274.02  48.13
814.0  685284.60  329892.64  48.14
815.2  686758.50  330591.17  48.14
816.5  687859.38  331149.42  48.14
817.7  688659.50  331551.83  48.14
819.0  689348.80  331918.08  48.15
820.2  690063.15  332317.38  48.16
821.5  691161.60  332877.39  48.16
822.7  692201.83  333406.88  48.17
824.0  693165.20  333888.85  48.17
825.2  693882.15  334234.46  48.17
826.5  694618.25  334613.12  48.17
827.7  695609.48  335111.83  48.18
829.0  696511.43  335532.86  48.17
830.2  697578.80  336035.57  48.17
831.5  698438.03  336497.26  48.18
832.7  699339.15  336984.86  48.19
834.0  700020.90  337299.92  48.18
835.2  701137.05  337797.85  48.18
836.4  701789.20  338188.94  48.19
837.7  702489.38  338592.22  48.20
838.9  703726.05  339217.72  48.20
840.1  704645.70  339664.35  48.20
841.4  705693.20  340140.66  48.20
842.6  706507.20  340598.28  48.21
843.8  707389.80  341015.28  48.21
845.1  708171.75  341442.04  48.21
846.3  709052.40  341933.48  48.22
847.5  709956.00  342394.12  48.23
848.8  710941.25  342837.29  48.22
850.0  712221.40  343399.98  48.22
851.2  713116.15  343850.57  48.22
852.5  714302.00  344441.00  48.22
853.7  715018.05  344799.48  48.22
854.9  716092.65  345358.97  48.23
856.1  717072.30  345839.37  48.23
857.4  717970.43  346296.73  48.23
858.6  719196.80  346763.36  48.22
859.8  720275.80  347324.54  48.22
861.0  721289.45  347819.64  48.22
862.2  722353.80  348287.44  48.22
863.5  723214.13  348700.48  48.22
864.7  724212.50  349183.81  48.22
865.9  725275.88  349642.11  48.21
867.1  726150.00  349984.94  48.20
868.3  727237.48  350535.76  48.20
869.5  728307.15  351091.50  48.21
870.8  729436.50  351605.58  48.20
872.0  730508.65  352059.54  48.19
873.2  731555.85  352476.51  48.18
874.4  732340.90  352869.66  48.18
875.6  733531.10  353390.26  48.18
876.8  734949.60  354012.31  48.17
878.0  735869.05  354441.93  48.17
879.2  737076.65  354938.58  48.15
880.4  738036.00  355451.85  48.16
881.6  739095.80  355880.84  48.15
882.8  740397.70  356473.39  48.15
884.0  741340.60  356814.78  48.13
885.2  742653.50  357418.28  48.13
886.5  744087.05  357973.02  48.11
887.7  745043.70  358391.89  48.10
888.8  746303.85  359035.98  48.11
890.0  747311.25  359422.00  48.10
891.2  748438.28  359882.47  48.08
892.4  749654.40  360425.72  48.08
893.6  751562.00  361271.98  48.07
894.8  753007.20  361949.46  48.07
896.0  754558.35  362682.89  48.07
897.2  756392.18  363482.18  48.05
898.4  758171.40  364277.68  48.05
899.6  759529.90  364774.55  48.03
900.8  760019.00  365005.07  48.03
902.0  760588.50  365212.34  48.02
903.2  760888.10  365295.44  48.01
904.3  761889.38  365750.36  48.01
905.5  763141.50  366247.67  47.99
906.7  764188.05  366730.12  47.99
907.9  765236.35  367091.36  47.97
909.1  766323.25  367555.65  47.96
910.2  766867.50  367672.50  47.94
911.4  767034.23  367709.92  47.94
912.6  767755.00  367893.28  47.92
913.8  768414.15  368264.21  47.93
915.0  768900.20  368309.17  47.90
916.2  769044.00  368374.97  47.90
917.3  769511.65  368546.19  47.89
918.5  769971.90  368653.66  47.88
919.7  770120.25  368615.73  47.86
920.8  770481.73  368607.14  47.84
922.0  770521.95  368607.49  47.84
923.2  770589.38  368708.67  47.85
924.4  771230.50  368907.10  47.83
925.5  772211.20  369093.22  47.80
926.7  773177.30  369356.32  47.77
927.9  774431.93  369938.91  47.77
929.0  777834.90  371311.30  47.74
930.2  781720.80  373185.77  47.74
931.4  786671.45  375604.01  47.75
932.5  791137.60  377578.65  47.73
933.7  794082.83  378704.99  47.69
934.9  795777.50  379176.00  47.65
936.0  794753.78  378472.94  47.62
937.2  791562.30  376839.72  47.61
938.3  787666.75  374677.71  47.57
939.5  785140.20  373430.35  47.56
940.7  785286.43  373335.53  47.54
941.8  788399.30  374443.62  47.49
943.0  790573.05  375225.58  47.46
944.2  792390.00  375808.80  47.43
945.3  791453.40  375255.49  47.41
946.5  789748.75  374171.67  47.38
947.6  790761.50  374329.50  47.34
948.8  789433.18  373437.89  47.30
949.9  790069.88  373289.39  47.25
951.1  789841.78  372869.92  47.21
952.2  789636.43  372239.61  47.14
953.4  788945.70  371848.24  47.13
954.5  787773.00  370605.90  47.04
955.7  787055.35  369998.51  47.01
956.8  787209.35  369732.79  46.97
958.0  786848.40  368815.05  46.87
959.1  786088.80  368159.04  46.83
960.3  785787.50  367788.81  46.81
961.4  786379.50  367674.31  46.76
962.6  785829.60  367230.44  46.73
963.7  785778.00  367082.35  46.72
964.9  785934.48  366793.52  46.67
966.0  786879.80  366854.65  46.62
967.2  786765.00  366897.92  46.63
968.3  787767.90  367468.06  46.65
969.5  788036.28  367280.85  46.61
970.6  788466.45  367365.66  46.59
971.8  788742.50  367120.63  46.55
972.9  789341.00  367381.73  46.54
974.0  789860.85  367719.70  46.55
975.2  788045.63  367207.71  46.60
976.3  788667.68  367594.11  46.61
977.5  787737.15  367449.80  46.65
978.6  788391.75  367622.00  46.63
979.7  788233.60  367398.83  46.61
980.9  788340.50  367577.94  46.63
982.0  787591.65  367105.92  46.61
983.2  788471.60  367319.39  46.59
984.3  785508.50  366802.44  46.70
985.4  784858.90  366637.31  46.71
986.6  785643.70  367038.82  46.72
987.7  784178.00  366757.12  46.77
988.9  784682.28  367241.20  46.80
990.0  784214.50  366727.73  46.76
993.1  864408.60  398538.60  46.11
996.9  863623.30  399320.67  46.24
1000.7  863002.78  399968.94  46.35
1004.5  861740.93  400268.71  46.45
1008.4  862469.34  401542.23  46.56
1012.2  863520.21  402894.92  46.66
1016.0  863187.25  403598.75  46.76
1019.8  861518.72  403657.62  46.85
1023.7  859894.08  403548.82  46.93
1027.5  857348.40  402912.39  47.00
1031.3  855719.66  402436.67  47.03
1035.1  854566.80  402135.68  47.06
1038.9  854098.54  402069.47  47.08
1042.7  853803.50  402130.78  47.10
1046.5  853053.25  401927.50  47.12
1050.3  851531.93  401268.09  47.12
1054.2  849510.75  400453.82  47.14
1058.0  848570.40  400012.97  47.14
1061.8  847427.50  399501.54  47.14
1065.6  845657.67  398534.20  47.13
1069.4  843322.85  397387.52  47.12
1073.2  841340.50  396333.09  47.11
1077.0  839825.07  395528.15  47.10
1080.8  839301.83  395080.71  47.07
1084.6  839030.50  394664.02  47.04
1088.4  838445.52  394163.31  47.01
1092.2  837220.77  393259.50  46.97
1096.0  835813.83  392245.44  46.93
1099.8  834378.25  391111.96  46.87
1103.6  832572.10  389822.29  46.82
1107.4  831068.55  388608.17  46.76
1111.2  829692.32  387457.14  46.70
1114.9  828897.00  386466.00  46.62
1118.7  828656.50  385549.27  46.53
1122.5  828732.45  384652.26  46.41
1126.3  826408.80  382492.80  46.28
1130.1  825937.85  380833.41  46.11
1133.9  822481.02  377323.08  45.88
1137.7  819835.20  373743.06  45.59
1141.4  815950.18  369200.14  45.25
1145.2  814948.78  365606.00  44.86
1149.0  812953.50  361676.78  44.49
1152.8  809514.55  357399.02  44.15
1156.6  805904.27  353638.05  43.88
1160.3  802629.00  350597.72  43.68
1164.1  797980.80  347415.73  43.54
1167.9  794884.29  345326.02  43.44
1171.7  792358.13  343714.34  43.38
1175.4  789949.44  342288.38  43.33
1179.2  787940.25  340982.57  43.28
1183.0  788137.38  340643.93  43.22
1186.7  788309.67  340239.00  43.16
1190.5  787066.75  339251.08  43.10
1194.3  784335.65  337633.03  43.05
1198.0  781211.63  336006.67  43.01
1201.8  778726.67  334847.33  43.00
1205.6  777165.54  334352.18  43.02
1209.3  776111.25  334291.72  43.07
1213.1  774962.63  334182.89  43.12
1216.8  773142.40  333965.74  43.20
1220.6  770970.33  333580.45  43.27
1224.3  768670.83  333142.86  43.34
1228.1  766490.05  332790.54  43.42
1231.9  764041.20  332193.18  43.48
1235.6  761477.48  331479.15  43.53
1239.4  759104.68  330880.19  43.59
1243.1  756873.90  330199.84  43.63
1246.9  754887.83  329525.84  43.65
1250.6  752789.67  328762.62  43.67
1254.3  750760.80  327991.20  43.69
1258.1  748632.67  327093.62  43.69
1261.8  746097.10  325989.67  43.69
1265.6  743805.03  324944.90  43.69
1269.3  741654.93  323817.15  43.66
1273.1  742302.88  323800.80  43.62
1276.8  742355.33  323468.37  43.57
1280.6  741531.93  322764.34  43.53
1284.3  738777.23  321165.59  43.47
1288.0  736846.61  319799.09  43.40
1291.8  735399.00  318421.80  43.30
1295.5  733814.72  316895.76  43.18
1299.2  731552.25  314925.00  43.05
1302.9  728670.34  312505.64  42.89
1306.7  725550.53  309853.13  42.71
1310.4  722494.33  306970.05  42.49
1314.1  720016.88  304145.89  42.24
1317.9  717466.75  301054.98  41.96
1321.6  714615.42  297607.92  41.65
1325.3  711779.40  293896.74  41.29
1329.0  709108.40  290120.60  40.91
1332.8  705388.75  285650.00  40.50
1336.5  701978.58  281230.13  40.06
1340.2  700415.55  277560.71  39.63
