/*** Spectra Vista SIG Data ***/
name= 46_20220722_ACRU_32_avg.sig
comm= Averaged Ref/Tar of files: HR.072222.0014_moc.sig,HR.072222.0015_moc.sig,HR.072222.0016_moc.sig
data=
337.3  3324.88  291.13  8.76
338.8  3463.20  291.35  8.41
340.3  3607.45  280.43  7.77
341.8  3840.90  276.96  7.21
343.2  4040.40  268.94  6.66
344.7  4222.35  269.71  6.39
346.2  4370.95  262.22  6.00
347.7  4561.70  270.22  5.92
349.2  4725.00  272.34  5.76
350.6  4994.60  255.85  5.12
352.1  5323.03  270.32  5.08
353.6  5586.70  271.82  4.87
355.1  5859.45  278.22  4.75
356.6  6161.70  284.52  4.62
358.0  6443.80  278.75  4.33
359.5  6705.30  282.22  4.21
361.0  7032.38  290.84  4.14
362.5  7406.58  304.88  4.12
364.0  7770.93  322.39  4.15
365.4  8149.00  325.96  4.00
366.9  8480.88  333.08  3.93
368.4  8809.83  341.20  3.87
369.9  9188.50  353.90  3.85
371.3  9585.30  370.75  3.87
372.8  10009.35  379.16  3.79
374.3  10427.50  396.98  3.81
375.8  10833.90  397.19  3.67
377.2  11271.10  400.94  3.56
378.7  11647.70  415.03  3.56
380.2  12051.20  418.62  3.47
381.7  12566.63  428.67  3.41
383.1  13070.75  444.29  3.40
384.6  13541.45  454.98  3.36
386.1  14025.98  459.43  3.28
387.6  14499.10  470.34  3.24
389.0  14954.40  478.32  3.20
390.5  15452.10  488.77  3.16
392.0  16002.25  499.91  3.12
393.4  16579.53  516.49  3.12
394.9  17095.50  533.43  3.12
396.4  17620.88  546.70  3.10
397.9  18168.13  556.43  3.06
399.3  18715.18  568.97  3.04
400.8  19267.03  578.85  3.00
402.2  19910.05  590.14  2.96
403.7  20511.90  611.85  2.98
405.2  21118.10  622.65  2.95
406.6  21692.00  638.99  2.95
408.1  22283.60  649.80  2.92
409.6  22871.90  664.25  2.90
411.0  23527.70  679.03  2.89
412.5  24177.83  702.00  2.90
414.0  24816.75  718.07  2.89
415.4  25519.50  737.55  2.89
416.9  26194.73  757.51  2.89
418.4  26873.33  777.95  2.89
419.8  27591.20  796.29  2.89
421.3  28306.10  811.46  2.87
422.7  29092.80  837.11  2.88
424.2  29851.88  864.96  2.90
425.7  30595.10  888.35  2.90
427.1  31365.15  914.76  2.92
428.6  32147.00  940.11  2.92
430.0  32869.05  957.61  2.91
431.5  33715.58  984.34  2.92
432.9  34588.65  1013.71  2.93
434.4  35468.70  1039.59  2.93
435.9  36288.00  1066.93  2.94
437.3  37111.25  1094.31  2.95
438.8  37942.13  1121.62  2.96
440.2  38794.53  1148.65  2.96
441.7  39744.40  1179.14  2.97
443.1  40637.75  1206.63  2.97
444.6  41592.50  1240.63  2.98
446.0  42519.08  1270.44  2.99
447.5  43440.93  1302.84  3.00
448.9  44363.10  1338.28  3.02
450.4  45350.90  1368.45  3.02
451.8  46215.00  1394.96  3.02
453.3  47122.30  1426.17  3.03
454.7  48115.10  1459.16  3.03
456.2  48958.95  1492.47  3.05
457.6  49914.00  1522.39  3.05
459.1  50874.85  1549.51  3.05
460.5  51801.38  1577.23  3.04
462.0  52855.70  1611.21  3.05
463.4  53868.40  1644.72  3.05
464.8  54834.00  1676.17  3.06
466.3  55805.48  1704.91  3.06
467.7  56778.55  1735.38  3.06
469.2  57834.18  1770.43  3.06
470.6  58785.20  1800.41  3.06
472.0  59804.68  1829.89  3.06
473.5  60794.00  1860.40  3.06
474.9  61802.25  1889.48  3.06
476.4  62928.00  1931.59  3.07
477.8  63988.50  1968.27  3.08
479.2  64989.00  1998.65  3.08
480.7  66078.38  2036.43  3.08
482.1  67192.50  2073.58  3.09
483.6  68362.95  2115.76  3.09
485.0  69422.10  2152.16  3.10
486.4  70596.60  2198.16  3.11
487.9  71647.88  2239.30  3.13
489.3  72785.68  2282.44  3.14
490.7  73860.60  2325.29  3.15
492.2  75072.90  2383.99  3.18
493.6  76165.35  2430.58  3.19
495.0  77249.25  2487.36  3.22
496.5  78393.85  2549.82  3.25
497.9  79479.80  2608.38  3.28
499.3  80624.45  2681.47  3.33
500.7  81834.90  2758.53  3.37
502.2  82971.80  2845.82  3.43
503.6  84183.60  2949.20  3.50
505.0  85219.05  3056.41  3.59
506.5  86507.63  3188.02  3.69
507.9  87704.70  3331.04  3.80
509.3  89051.60  3502.46  3.93
510.7  90280.13  3693.16  4.09
512.2  91641.23  3914.32  4.27
513.6  93088.45  4177.90  4.49
515.0  94468.23  4472.61  4.73
516.4  95808.83  4799.79  5.01
517.8  97377.75  5176.01  5.32
519.3  98651.68  5574.91  5.65
520.7  100176.50  6010.39  6.00
522.1  101458.50  6460.77  6.37
523.5  102804.40  6925.58  6.74
524.9  104192.55  7393.70  7.10
526.3  105558.60  7848.63  7.44
527.8  106994.25  8301.93  7.76
529.2  108114.40  8725.65  8.07
530.6  109646.60  9157.17  8.35
532.0  111328.00  9569.87  8.60
533.4  112591.05  9904.71  8.80
534.8  113457.28  10168.58  8.96
536.3  115106.70  10474.62  9.10
537.7  117091.80  10785.78  9.21
539.1  118492.55  11022.43  9.30
540.5  119644.45  11228.59  9.38
541.9  121364.93  11477.32  9.46
543.3  122590.83  11680.11  9.53
544.7  123838.20  11891.61  9.60
546.1  125569.68  12152.84  9.68
547.5  126784.00  12349.28  9.74
549.0  128502.00  12584.21  9.79
550.4  129943.75  12779.75  9.83
551.8  131436.20  12950.91  9.85
553.2  132927.75  13085.77  9.84
554.6  134232.80  13164.96  9.81
556.0  135719.55  13216.11  9.74
557.4  137270.88  13228.24  9.64
558.8  138865.95  13199.65  9.51
560.2  140259.63  13107.78  9.35
561.6  141884.25  13001.37  9.16
563.0  143423.70  12851.08  8.96
564.4  144967.55  12669.14  8.74
565.8  146444.38  12444.61  8.50
567.2  148124.25  12212.87  8.25
568.6  149585.63  11942.77  7.98
570.0  150972.10  11652.47  7.72
571.4  152655.75  11381.66  7.46
572.8  154348.25  11125.42  7.21
574.2  155926.40  10881.33  6.98
575.6  157410.00  10657.34  6.77
577.0  158889.30  10458.69  6.58
578.4  160569.50  10290.80  6.41
579.8  162038.48  10134.12  6.25
581.2  163705.23  10015.52  6.12
582.5  165075.30  9889.34  5.99
583.9  166545.20  9788.49  5.88
585.3  168285.60  9717.46  5.77
586.7  169696.80  9641.19  5.68
588.1  171144.38  9582.62  5.60
589.5  172749.50  9541.99  5.52
590.9  174331.60  9522.61  5.46
592.3  176076.50  9525.03  5.41
593.7  177488.03  9524.72  5.37
595.0  179062.65  9536.98  5.33
596.4  180445.30  9544.58  5.29
597.8  181873.25  9553.41  5.25
599.2  183374.40  9561.07  5.21
600.6  185070.93  9568.94  5.17
602.0  186325.58  9551.31  5.13
603.3  188060.45  9538.81  5.07
604.7  189672.25  9507.06  5.01
606.1  191102.40  9453.66  4.95
607.5  192680.23  9390.82  4.87
608.9  194325.55  9316.56  4.79
610.2  195671.70  9226.44  4.72
611.6  197212.28  9143.24  4.64
613.0  198701.95  9060.50  4.56
614.4  200047.95  8972.43  4.49
615.8  201444.75  8897.78  4.42
617.1  202933.50  8837.78  4.36
618.5  204506.40  8794.51  4.30
619.9  205965.00  8761.55  4.25
621.3  207522.45  8742.35  4.21
622.6  209062.25  8741.37  4.18
624.0  210459.90  8751.10  4.16
625.4  211863.30  8768.60  4.14
626.8  213379.08  8801.82  4.12
628.1  214640.53  8829.96  4.11
629.5  216444.45  8880.06  4.10
630.9  217974.35  8930.85  4.10
632.2  219283.05  8951.73  4.08
633.6  220826.88  8969.67  4.06
635.0  222292.80  8963.82  4.03
636.3  223775.50  8928.45  3.99
637.7  225110.50  8875.98  3.94
639.1  226695.00  8805.00  3.88
640.4  228095.88  8718.40  3.82
641.8  229265.15  8615.84  3.76
643.2  230774.08  8530.98  3.70
644.5  232085.25  8439.24  3.64
645.9  233743.05  8370.68  3.58
647.2  235442.73  8328.42  3.54
648.6  237208.50  8304.62  3.50
650.0  238593.60  8294.09  3.48
651.3  239023.40  8264.61  3.46
652.7  240250.15  8259.80  3.44
654.0  242236.20  8286.96  3.42
655.4  243692.50  8293.03  3.40
656.8  243866.10  8258.48  3.39
658.1  245091.90  8251.23  3.37
659.5  247467.15  8272.88  3.34
660.8  249187.50  8272.39  3.32
662.2  250051.20  8252.59  3.30
663.5  251601.85  8262.06  3.28
664.9  252868.20  8261.51  3.27
666.2  253568.40  8267.70  3.26
667.6  255241.73  8321.70  3.26
668.9  256334.50  8375.65  3.27
670.3  257491.50  8442.41  3.28
671.6  258951.00  8542.67  3.30
673.0  260079.38  8656.78  3.33
674.3  261288.30  8781.07  3.36
675.7  262582.13  8913.05  3.39
677.0  263639.25  9059.20  3.44
678.4  264916.70  9226.06  3.48
679.7  265973.90  9411.91  3.54
681.1  267239.95  9617.97  3.60
682.4  268360.30  9831.24  3.66
683.8  269575.80  10073.50  3.74
685.1  270544.50  10331.64  3.82
686.4  271794.60  10640.57  3.91
687.8  273029.75  11003.15  4.03
689.1  274053.25  11466.59  4.18
690.5  275374.35  12099.65  4.39
691.8  276150.33  12946.56  4.69
693.1  277462.50  14141.91  5.10
694.5  278573.75  15702.70  5.64
695.8  279734.00  17712.07  6.33
697.1  280917.00  20206.98  7.19
698.5  281934.00  23203.72  8.23
699.8  282984.00  26689.77  9.43
701.1  284072.40  30620.00  10.78
702.5  284851.60  34879.27  12.24
703.8  285772.50  39435.54  13.80
705.1  286927.88  44215.37  15.41
706.5  287921.50  49122.82  17.06
707.8  288896.10  54108.61  18.73
709.1  289733.85  59125.32  20.41
710.5  290850.10  64217.12  22.08
711.8  291684.00  69255.73  23.74
713.1  292665.20  74324.73  25.40
714.4  293557.20  79341.49  27.03
715.8  294337.70  84307.91  28.64
717.1  295645.80  89363.18  30.23
718.4  296576.00  94240.53  31.78
719.7  297658.90  99109.40  33.30
721.0  298147.50  103692.54  34.78
722.4  298900.25  108237.75  36.21
723.7  299818.05  112720.75  37.60
725.0  300833.55  117105.06  38.93
726.3  301746.50  121302.16  40.20
727.6  302294.30  125192.52  41.41
729.0  303206.05  129035.87  42.56
730.3  303953.03  132660.29  43.64
731.6  304839.20  136152.87  44.66
732.9  305624.03  139429.00  45.62
734.2  306422.88  142545.65  46.52
735.5  307401.18  145572.36  47.36
736.8  308147.40  148323.74  48.13
738.1  308979.20  150920.76  48.84
739.5  309923.50  153422.38  49.50
740.8  310587.75  155645.50  50.11
742.1  311322.65  157746.44  50.67
743.4  312050.00  159704.52  51.18
744.7  313000.78  161649.75  51.65
746.0  313833.00  163391.61  52.06
747.3  314391.43  164860.02  52.44
748.6  315077.00  166290.68  52.78
749.9  315822.00  167618.41  53.07
751.2  316545.75  168844.07  53.34
752.5  317434.85  170057.43  53.57
753.8  318036.78  171050.88  53.78
755.1  318708.00  172001.64  53.97
756.4  319258.73  172810.19  54.13
757.7  320227.08  173769.76  54.26
759.0  321990.55  175097.46  54.38
760.3  323162.40  176050.79  54.48
761.6  324679.60  177178.42  54.57
762.9  325226.50  177716.94  54.64
764.2  325597.60  178126.04  54.71
765.5  325867.45  178457.40  54.76
766.8  326291.20  178826.53  54.81
768.1  326827.20  179234.36  54.84
769.3  327403.65  179654.43  54.87
770.6  328077.10  180099.15  54.90
771.9  328802.25  180560.02  54.91
773.2  329184.40  180825.10  54.93
774.5  329786.60  181201.56  54.95
775.8  330476.75  181621.47  54.96
777.1  330998.25  181969.01  54.98
778.4  331384.35  182188.25  54.98
779.6  332176.88  182627.99  54.98
780.9  332670.00  182915.43  54.98
782.2  333082.75  183180.61  55.00
783.5  333426.00  183376.17  55.00
784.8  333896.40  183686.62  55.01
786.0  334301.80  183914.35  55.01
787.3  334736.63  184138.34  55.01
788.6  335180.90  184385.41  55.01
789.9  335620.60  184652.28  55.02
791.2  336271.73  185015.61  55.02
792.4  336938.55  185401.78  55.03
793.7  337406.80  185668.21  55.03
795.0  338013.23  186014.31  55.03
796.2  338690.60  186376.48  55.03
797.5  339436.88  186763.12  55.02
798.8  340097.38  187132.98  55.02
800.0  340767.60  187505.76  55.02
801.3  341217.20  187762.63  55.03
802.6  341811.00  188100.66  55.03
803.8  342456.10  188450.17  55.03
805.1  342951.88  188718.04  55.03
806.4  343433.40  188956.59  55.02
807.7  343966.50  189265.86  55.02
808.9  344512.75  189567.61  55.02
810.2  345034.20  189862.98  55.03
811.4  345541.70  190128.61  55.02
812.7  346165.63  190479.60  55.03
814.0  347017.95  190926.59  55.02
815.2  347610.50  191278.02  55.03
816.5  348007.80  191506.76  55.03
817.7  348456.20  191762.32  55.03
819.0  348946.95  192052.31  55.04
820.2  349140.00  192132.70  55.03
821.5  349832.75  192509.75  55.03
822.7  350202.13  192726.62  55.03
824.0  350446.50  192900.87  55.04
825.2  350942.63  193179.57  55.05
826.5  351253.25  193350.25  55.05
827.7  351831.15  193640.92  55.04
829.0  352233.03  193851.02  55.03
830.2  352578.50  194018.96  55.03
831.5  353005.85  194283.73  55.04
832.7  353317.65  194460.51  55.04
834.0  353592.10  194637.48  55.05
835.2  353965.98  194827.73  55.04
836.4  354244.00  195004.41  55.05
837.7  354576.40  195253.44  55.07
838.9  355068.53  195499.47  55.06
840.1  355422.60  195716.93  55.07
841.4  355852.60  195974.98  55.07
842.6  356221.40  196182.01  55.07
843.8  356522.40  196395.11  55.09
845.1  356990.25  196685.33  55.10
846.3  357354.60  196927.09  55.11
847.5  357787.50  197142.87  55.10
848.8  358131.00  197372.43  55.11
850.0  358545.95  197571.85  55.10
851.2  359063.55  197877.89  55.11
852.5  359437.00  198114.42  55.12
853.7  359919.00  198402.57  55.12
854.9  360311.10  198642.78  55.13
856.1  360726.60  198895.06  55.14
857.4  360964.65  198975.30  55.12
858.6  361510.90  199235.38  55.11
859.8  361860.00  199466.34  55.12
861.0  362302.20  199712.65  55.12
862.2  362695.73  199958.68  55.13
863.5  363075.38  200154.39  55.13
864.7  363580.80  200451.37  55.13
865.9  364137.40  200660.92  55.11
867.1  364373.10  200825.39  55.12
868.3  364744.05  201065.99  55.13
869.5  365162.55  201300.33  55.13
870.8  365670.00  201581.87  55.13
872.0  366211.20  201869.80  55.12
873.2  366679.80  202095.16  55.11
874.4  367154.78  202308.00  55.10
875.6  367523.43  202506.18  55.10
876.8  367925.30  202769.08  55.11
878.0  368323.15  202983.85  55.11
879.2  368866.95  203229.66  55.10
880.4  369371.63  203492.28  55.09
881.6  369931.05  203744.40  55.08
882.8  370305.60  203949.74  55.08
884.0  370973.88  204241.14  55.06
885.2  371409.50  204504.29  55.06
886.5  372014.95  204774.29  55.04
887.7  372523.45  205029.80  55.04
888.8  373132.20  205364.41  55.04
890.0  373775.35  205659.43  55.02
891.2  374425.20  205961.97  55.01
892.4  374968.65  206259.00  55.01
893.6  375475.95  206501.45  55.00
894.8  376239.75  206967.94  55.01
896.0  377150.00  207378.62  54.99
897.2  378014.00  207805.03  54.97
898.4  378714.60  208209.24  54.98
899.6  379351.50  208483.56  54.96
900.8  379846.28  208647.12  54.93
902.0  379993.35  208735.34  54.93
903.2  380380.13  208857.40  54.91
904.3  380725.80  209041.10  54.91
905.5  381264.53  209319.98  54.90
906.7  381814.00  209659.90  54.91
907.9  382413.15  209911.87  54.89
909.1  382788.45  210076.56  54.88
910.2  382986.45  210114.15  54.86
911.4  383280.30  210228.53  54.85
912.6  383490.25  210276.87  54.83
913.8  383845.88  210392.02  54.81
915.0  384096.30  210626.43  54.84
916.2  384432.75  210686.26  54.80
917.3  384397.20  210711.24  54.82
918.5  384705.70  210754.57  54.78
919.7  385046.85  210813.26  54.75
920.8  385107.38  210757.84  54.73
922.0  385250.25  210783.65  54.71
923.2  385612.50  210917.85  54.70
924.4  385789.50  211003.43  54.69
925.5  386105.60  211073.33  54.67
926.7  386690.50  211275.01  54.64
927.9  387672.60  211647.58  54.59
929.0  388917.45  212331.84  54.60
930.2  391160.60  213411.47  54.56
931.4  393481.80  214645.61  54.55
932.5  396228.05  215957.74  54.50
933.7  397675.20  216594.75  54.47
934.9  398212.50  216830.79  54.45
936.0  397839.00  216504.32  54.42
937.2  395921.85  215302.45  54.38
938.3  394306.85  214288.69  54.35
939.5  392882.40  213395.85  54.32
940.7  393135.30  213386.84  54.28
941.8  394530.83  214082.82  54.26
943.0  396142.50  214686.02  54.19
944.2  396898.45  214986.01  54.17
945.3  396620.25  214652.71  54.12
946.5  395753.85  214038.95  54.08
947.6  396083.90  214006.26  54.03
948.8  396005.03  213672.34  53.96
949.9  396181.80  213527.58  53.90
951.1  396036.88  213128.47  53.82
952.2  395760.00  212777.83  53.76
953.4  395433.00  212316.77  53.69
954.5  395717.40  212062.17  53.59
955.7  395627.40  211742.82  53.52
956.8  395270.60  211372.34  53.48
958.0  394934.50  210974.53  53.42
959.1  394793.03  210588.53  53.34
960.3  394637.10  210219.05  53.27
961.4  394513.10  210035.06  53.24
962.6  394868.25  209946.79  53.17
963.7  394727.93  209779.74  53.15
964.9  394360.28  209676.40  53.17
966.0  394506.45  209622.12  53.14
967.2  394375.95  209532.59  53.13
968.3  394000.20  209320.68  53.13
969.5  393921.18  209058.20  53.07
970.6  394109.63  209052.02  53.04
971.8  394342.73  209185.43  53.05
972.9  394340.18  209144.66  53.04
974.0  394339.00  209280.56  53.07
975.2  394340.50  209140.49  53.04
976.3  394377.50  209115.68  53.02
977.5  394058.35  208977.70  53.03
978.6  394098.50  208939.84  53.02
979.7  394144.80  209092.12  53.05
980.9  394108.45  209059.57  53.05
982.0  394038.95  208938.23  53.02
983.2  393412.25  208946.43  53.11
984.3  393711.20  208614.63  52.99
985.4  393431.00  208780.17  53.07
986.6  393654.13  208562.70  52.98
987.7  394596.13  209171.66  53.01
988.9  394336.80  209118.00  53.03
990.0  394413.40  209574.13  53.14
993.1  348446.70  183478.99  52.66
996.9  348704.75  184133.80  52.81
1000.7  349595.40  185023.16  52.92
1004.5  350049.08  185670.60  53.04
1008.4  349679.58  185925.89  53.17
1012.2  349673.00  186254.37  53.27
1016.0  349655.40  186596.34  53.37
1019.8  349676.25  186933.54  53.46
1023.7  349480.69  187111.44  53.54
1027.5  349001.30  187119.62  53.62
1031.3  349050.93  187349.12  53.67
1035.1  348868.63  187391.97  53.71
1038.9  348808.35  187472.76  53.75
1042.7  348608.83  187473.30  53.78
1046.5  348461.50  187459.67  53.80
1050.3  348482.17  187517.09  53.81
1054.2  348152.58  187408.98  53.83
1058.0  347711.06  187168.29  53.83
1061.8  347573.43  187102.78  53.83
1065.6  347305.47  186918.89  53.82
1069.4  347164.33  186816.61  53.81
1073.2  346705.92  186499.60  53.79
1077.0  346188.25  186136.41  53.77
1080.8  345734.38  185773.58  53.73
1084.6  344832.60  185137.04  53.69
1088.4  344322.11  184710.57  53.64
1092.2  343570.50  184154.75  53.60
1096.0  342972.98  183654.24  53.55
1099.8  342530.07  183195.04  53.48
1103.6  341859.37  182604.63  53.42
1107.4  340955.61  181857.62  53.34
1111.2  340710.00  181460.94  53.26
1114.9  340076.33  180812.92  53.17
1118.7  339522.98  180130.54  53.05
1122.5  338896.13  179315.38  52.91
1126.3  337894.38  178219.00  52.74
1130.1  337417.46  177245.18  52.53
1133.9  335897.10  175509.09  52.25
1137.7  334536.90  173584.73  51.89
1141.4  332811.38  171236.26  51.45
1145.2  332123.15  169244.78  50.96
1149.0  331067.92  167141.09  50.49
1152.8  329510.10  165016.53  50.08
1156.6  327931.45  163249.13  49.78
1160.3  326285.67  161769.93  49.58
1164.1  324072.37  160274.26  49.46
1167.9  322407.29  159254.85  49.40
1171.7  321181.88  158550.38  49.36
1175.4  320029.03  157934.35  49.35
1179.2  319001.65  157375.47  49.33
1183.0  318719.00  157144.79  49.31
1186.7  318267.83  156817.09  49.27
1190.5  317334.07  156268.54  49.24
1194.3  316247.67  155665.85  49.22
1198.0  315053.48  155064.72  49.22
1201.8  313615.58  154363.83  49.22
1205.6  312488.00  153856.46  49.24
1209.3  311645.92  153552.97  49.27
1213.1  310797.83  153278.03  49.32
1216.8  309899.98  153044.24  49.39
1220.6  308862.40  152742.58  49.45
1224.3  307676.67  152370.02  49.52
1228.1  306520.00  152031.95  49.60
1231.9  305294.18  151615.96  49.66
1235.6  303891.98  151082.28  49.72
1239.4  302619.00  150595.25  49.76
1243.1  301439.42  150107.82  49.80
1246.9  300289.84  149611.73  49.82
1250.6  299343.20  149184.84  49.84
1254.3  298316.88  148688.63  49.84
1258.1  297369.33  148213.21  49.84
1261.8  296129.87  147561.17  49.83
1265.6  294814.45  146831.86  49.80
1269.3  293530.28  146066.78  49.76
1273.1  293519.08  145900.78  49.71
1276.8  293691.20  145798.34  49.64
1280.6  293437.97  145454.98  49.57
1284.3  292067.60  144514.20  49.48
1288.0  290693.35  143532.51  49.38
1291.8  289588.92  142599.00  49.24
1295.5  288367.20  141560.27  49.09
1299.2  287193.14  140500.13  48.92
1302.9  285819.80  139255.82  48.72
1306.7  284327.40  137884.30  48.49
1310.4  282912.41  136413.64  48.22
1314.1  281614.85  134921.11  47.91
1317.9  280441.67  133373.70  47.56
1321.6  279101.30  131629.76  47.16
1325.3  277551.75  129666.49  46.72
1329.0  276322.67  127778.13  46.24
1332.8  274381.80  125454.02  45.72
1336.5  272677.93  123226.96  45.19
1340.2  272332.67  121616.20  44.66
1343.9  271955.42  119986.75  44.12
1347.6  271410.15  118302.86  43.59
1351.4  271684.00  117019.10  43.07
1355.1  272132.67  115830.94  42.56
