/*** Spectra Vista SIG Data ***/
name= 64_20220722_BENI_59_avg.sig
comm= Averaged Ref/Tar of files: HR.072222.0066_moc.sig,HR.072222.0067_moc.sig,HR.072222.0068_moc.sig
data=
337.3  3176.00  347.38  10.94
338.8  3318.90  336.70  10.14
340.3  3466.90  327.95  9.46
341.8  3658.00  339.89  9.29
343.2  3818.40  316.72  8.29
344.7  4009.10  305.66  7.62
346.2  4125.85  303.65  7.36
347.7  4365.08  309.36  7.09
349.2  4536.00  318.78  7.03
350.6  4737.53  304.82  6.43
352.1  5001.50  316.76  6.33
353.6  5239.70  306.52  5.85
355.1  5489.03  312.06  5.69
356.6  5801.18  319.01  5.50
358.0  6061.00  319.00  5.26
359.5  6334.50  335.78  5.30
361.0  6613.43  342.14  5.17
362.5  6967.45  351.30  5.04
364.0  7283.45  360.35  4.95
365.4  7615.10  365.30  4.80
366.9  7983.63  375.70  4.71
368.4  8346.15  386.40  4.63
369.9  8675.03  402.67  4.64
371.3  9104.70  423.64  4.65
372.8  9478.35  437.19  4.61
374.3  9890.00  446.13  4.51
375.8  10267.95  446.47  4.35
377.2  10652.40  461.78  4.34
378.7  11082.80  466.27  4.21
380.2  11459.40  473.44  4.13
381.7  11972.08  499.96  4.18
383.1  12450.90  505.76  4.06
384.6  12948.00  514.32  3.97
386.1  13431.43  522.48  3.89
387.6  13879.25  531.81  3.83
389.0  14391.60  544.04  3.78
390.5  14841.45  564.63  3.80
392.0  15420.35  574.85  3.73
393.4  15975.20  598.19  3.74
394.9  16521.30  613.35  3.71
396.4  17051.63  626.18  3.67
397.9  17604.38  638.06  3.62
399.3  18132.70  652.54  3.60
400.8  18643.90  663.01  3.56
402.2  19271.75  681.67  3.54
403.7  19837.80  699.78  3.53
405.2  20455.20  726.03  3.55
406.6  20996.00  740.85  3.53
408.1  21583.00  766.89  3.55
409.6  22169.50  783.62  3.53
411.0  22780.45  801.34  3.52
412.5  23407.30  819.81  3.50
414.0  24042.50  837.41  3.48
415.4  24724.50  865.23  3.50
416.9  25385.18  889.22  3.50
418.4  26032.95  915.70  3.52
419.8  26735.80  945.19  3.54
421.3  27397.03  970.87  3.54
422.7  28153.20  995.28  3.54
424.2  28890.00  1020.38  3.53
425.7  29633.40  1049.18  3.54
427.1  30368.18  1079.79  3.56
428.6  31124.00  1110.83  3.57
430.0  31837.15  1144.20  3.59
431.5  32670.83  1178.58  3.61
432.9  33504.55  1209.11  3.61
434.4  34365.68  1241.98  3.61
435.9  35154.00  1274.47  3.63
437.3  35970.00  1308.54  3.64
438.8  36774.68  1348.00  3.67
440.2  37595.25  1378.49  3.67
441.7  38525.00  1418.61  3.68
443.1  39392.25  1453.97  3.69
444.6  40308.70  1496.02  3.71
446.0  41208.60  1532.35  3.72
447.5  42122.58  1576.42  3.74
448.9  43021.50  1613.79  3.75
450.4  43991.15  1657.17  3.77
451.8  44811.00  1695.20  3.78
453.3  45697.13  1736.80  3.80
454.7  46652.68  1780.38  3.82
456.2  47490.98  1819.32  3.83
457.6  48427.20  1860.27  3.84
459.1  49355.80  1899.70  3.85
460.5  50263.25  1934.03  3.85
462.0  51273.28  1978.71  3.86
463.4  52251.80  2022.12  3.87
464.8  53210.63  2067.84  3.89
466.3  54150.53  2103.75  3.89
467.7  55103.63  2145.50  3.89
469.2  56117.03  2184.44  3.89
470.6  57043.00  2223.18  3.90
472.0  58031.23  2265.61  3.90
473.5  59000.13  2303.79  3.90
474.9  59978.25  2348.40  3.92
476.4  61084.80  2399.52  3.93
477.8  62103.50  2443.73  3.93
479.2  63089.50  2485.78  3.94
480.7  64138.73  2533.61  3.95
482.1  65227.30  2581.25  3.96
483.6  66368.85  2632.79  3.97
485.0  67395.60  2690.90  3.99
486.4  68545.05  2748.50  4.01
487.9  69600.38  2811.41  4.04
489.3  70709.45  2874.81  4.07
490.7  71754.93  2936.17  4.09
492.2  72926.70  3007.13  4.12
493.6  73982.50  3084.80  4.17
495.0  75040.88  3165.83  4.22
496.5  76177.93  3259.32  4.28
497.9  77234.53  3351.77  4.34
499.3  78335.15  3456.94  4.41
500.7  79534.85  3581.93  4.50
502.2  80650.40  3711.81  4.60
503.6  81833.00  3866.57  4.72
505.0  82860.40  4037.05  4.87
506.5  84099.30  4241.90  5.04
507.9  85243.75  4466.77  5.24
509.3  86565.20  4729.59  5.46
510.7  87750.00  5024.18  5.73
512.2  89093.63  5365.40  6.02
513.6  90491.10  5751.48  6.36
515.0  91850.83  6185.03  6.73
516.4  93158.10  6664.14  7.15
517.8  94694.00  7199.98  7.60
519.3  95949.28  7754.39  8.08
520.7  97422.70  8368.18  8.59
522.1  98649.53  8989.65  9.11
523.5  99954.90  9631.77  9.64
524.9  101277.00  10277.43  10.15
526.3  102588.15  10896.91  10.62
527.8  104024.25  11519.15  11.07
529.2  105179.10  12105.75  11.51
530.6  106655.45  12709.26  11.92
532.0  108276.00  13287.87  12.27
533.4  109536.68  13768.67  12.57
534.8  110415.53  14160.45  12.82
536.3  112062.30  14602.80  13.03
537.7  113967.00  15071.28  13.22
539.1  115325.03  15441.99  13.39
540.5  116463.25  15764.61  13.54
541.9  118138.58  16150.59  13.67
543.3  119349.83  16469.68  13.80
544.7  120589.20  16794.48  13.93
546.1  122288.65  17172.58  14.04
547.5  123480.00  17471.63  14.15
549.0  125158.00  17823.67  14.24
550.4  126543.75  18104.29  14.31
551.8  127973.48  18361.21  14.35
553.2  129418.63  18570.78  14.35
554.6  130707.20  18703.01  14.31
556.0  132148.80  18807.33  14.23
557.4  133677.78  18866.87  14.11
558.8  135233.10  18888.75  13.97
560.2  136597.25  18841.69  13.79
561.6  138172.95  18778.55  13.59
563.0  139684.13  18661.21  13.36
564.4  141190.65  18503.29  13.11
565.8  142630.00  18299.79  12.83
567.2  144275.75  18077.20  12.53
568.6  145703.25  17793.31  12.21
570.0  147065.00  17470.74  11.88
571.4  148699.85  17165.07  11.54
572.8  150365.50  16857.34  11.21
574.2  151905.60  16554.72  10.90
575.6  153382.50  16270.50  10.61
577.0  154821.30  16010.59  10.34
578.4  156463.13  15803.67  10.10
579.8  157884.53  15602.18  9.88
581.2  159515.08  15450.70  9.69
582.5  160851.60  15288.78  9.50
583.9  162297.20  15165.75  9.34
585.3  164004.53  15085.13  9.20
586.7  165403.88  14997.58  9.07
588.1  166815.75  14935.98  8.95
589.5  168364.00  14907.84  8.85
590.9  169917.20  14899.84  8.77
592.3  171633.80  14927.39  8.70
593.7  173001.08  14945.52  8.64
595.0  174548.25  14988.15  8.59
596.4  175899.85  15019.84  8.54
597.8  177310.08  15050.63  8.49
599.2  178780.80  15073.08  8.43
600.6  180420.50  15093.67  8.37
602.0  181653.68  15048.98  8.28
603.3  183345.05  15010.24  8.19
604.7  184927.03  14933.10  8.08
606.1  186341.40  14807.86  7.95
607.5  187876.10  14674.17  7.81
608.9  189478.30  14525.36  7.67
610.2  190795.50  14338.96  7.52
611.6  192313.13  14157.40  7.36
613.0  193774.50  13978.45  7.21
614.4  195086.40  13803.59  7.08
615.8  196472.25  13646.10  6.95
617.1  197920.80  13515.18  6.83
618.5  199459.60  13417.68  6.73
619.9  200890.50  13338.47  6.64
621.3  202442.18  13288.61  6.56
622.6  203953.50  13263.43  6.50
624.0  205345.95  13258.16  6.46
625.4  206753.25  13275.68  6.42
626.8  208267.15  13327.10  6.40
628.1  209529.65  13370.48  6.38
629.5  211288.65  13460.71  6.37
630.9  212807.65  13532.95  6.36
632.2  214088.70  13577.74  6.34
633.6  215620.88  13619.51  6.32
635.0  217081.20  13629.85  6.28
636.3  218516.30  13597.80  6.22
637.7  219828.50  13520.07  6.15
639.1  221410.00  13412.00  6.06
640.4  222828.73  13268.62  5.95
641.8  223971.13  13093.06  5.85
643.2  225492.75  12908.90  5.72
644.5  226774.50  12715.99  5.61
645.9  228411.00  12531.86  5.49
647.2  230235.25  12387.31  5.38
648.6  232085.25  12253.95  5.28
650.0  233496.00  12118.32  5.19
651.3  233842.13  11967.15  5.12
652.7  234718.15  11864.60  5.05
654.0  236648.60  11808.00  4.99
655.4  238089.85  11709.39  4.92
656.8  238395.40  11521.76  4.83
658.1  239598.50  11379.51  4.75
659.5  241868.55  11300.29  4.67
660.8  243562.50  11209.50  4.60
662.2  244406.40  11061.87  4.53
663.5  245975.75  10958.34  4.46
664.9  247276.90  10889.41  4.40
666.2  247996.20  10820.28  4.36
667.6  249660.48  10822.42  4.33
668.9  250815.88  10840.53  4.32
670.3  251785.88  10873.50  4.32
671.6  253353.38  10948.19  4.32
673.0  254481.75  11045.54  4.34
674.3  255674.90  11147.24  4.36
675.7  256930.93  11276.65  4.39
677.0  258044.90  11424.37  4.43
678.4  259344.38  11618.92  4.48
679.7  260401.58  11823.75  4.54
681.1  261654.98  12074.29  4.61
682.4  262746.90  12353.90  4.70
683.8  263984.50  12681.72  4.80
685.1  264924.75  13067.76  4.93
686.4  266178.00  13561.24  5.09
687.8  267422.75  14199.21  5.31
689.1  268424.00  15023.94  5.60
690.5  269742.15  16127.76  5.98
691.8  270531.58  17552.98  6.49
693.1  271800.00  19439.74  7.15
694.5  272931.75  21779.33  7.98
695.8  274092.00  24622.33  8.98
697.1  275229.50  27970.37  10.16
698.5  276259.00  31826.91  11.52
699.8  277337.93  36149.24  13.03
701.1  278449.00  40892.10  14.69
702.5  279214.10  45922.32  16.45
703.8  280170.00  51209.25  18.28
705.1  281254.35  56686.66  20.15
706.5  282283.00  62242.78  22.05
707.8  283263.90  67833.00  23.95
709.1  284130.28  73383.02  25.83
710.5  285268.85  78944.92  27.67
711.8  286109.00  84361.64  29.49
713.1  287090.20  89721.08  31.25
714.4  288004.50  94938.53  32.96
715.8  288807.30  99993.20  34.62
717.1  290103.00  105055.43  36.21
718.4  290998.40  109837.65  37.75
719.7  292107.58  114499.64  39.20
721.0  292657.50  118771.50  40.58
722.4  293420.60  122934.33  41.90
723.7  294359.40  126967.60  43.13
725.0  295379.55  130845.25  44.30
726.3  296314.15  134462.84  45.38
727.6  296884.78  137710.83  46.39
729.0  297795.75  140919.98  47.32
730.3  298542.15  143870.95  48.19
731.6  299422.10  146690.75  48.99
732.9  300224.23  149278.87  49.72
734.2  301023.25  151713.10  50.40
735.5  302061.00  154091.89  51.01
736.8  302838.60  156209.07  51.58
738.1  303697.30  158210.03  52.09
739.5  304629.18  160133.59  52.57
740.8  305350.10  161798.51  52.99
742.1  306070.35  163391.95  53.38
743.4  306800.00  164869.17  53.74
744.7  307789.55  166377.38  54.06
746.0  308661.60  167734.19  54.34
747.3  309184.33  168831.71  54.61
748.6  309927.00  169942.28  54.83
749.9  310622.00  170980.33  55.04
751.2  311341.90  171939.74  55.23
752.5  312231.00  172935.18  55.39
753.8  312873.93  173742.94  55.53
755.1  313586.00  174539.73  55.66
756.4  314193.60  175222.16  55.77
757.7  315194.60  176082.74  55.86
759.0  316955.35  177339.57  55.95
760.3  318146.40  178223.76  56.02
761.6  319705.40  179303.51  56.08
762.9  320277.75  179792.99  56.14
764.2  320674.90  180167.23  56.18
765.5  321002.95  180472.05  56.22
766.8  321449.60  180846.45  56.26
768.1  322004.80  181240.04  56.28
769.3  322647.85  181656.81  56.30
770.6  323325.60  182112.88  56.32
771.9  324097.03  182592.78  56.34
773.2  324498.40  182885.59  56.36
774.5  325153.40  183285.01  56.37
775.8  325860.75  183724.49  56.38
777.1  326480.00  184097.80  56.39
778.4  326852.90  184337.82  56.40
779.6  327658.68  184819.15  56.41
780.9  328170.00  185135.00  56.41
782.2  328636.00  185432.50  56.42
783.5  329003.50  185661.63  56.43
784.8  329580.90  185997.02  56.43
786.0  330034.25  186265.58  56.44
787.3  330487.50  186526.10  56.44
788.6  330948.18  186807.45  56.45
789.9  331434.60  187107.76  56.45
791.2  332134.70  187512.56  56.46
792.4  332816.68  187915.73  56.46
793.7  333332.00  188217.91  56.47
795.0  334021.88  188611.58  56.47
796.2  334686.28  189003.00  56.47
797.5  335443.50  189429.51  56.47
798.8  336152.18  189841.62  56.47
800.0  336879.03  190246.45  56.47
801.3  337354.50  190557.46  56.49
802.6  337996.80  190908.05  56.48
803.8  338664.25  191314.94  56.49
805.1  339189.38  191614.09  56.49
806.4  339699.60  191897.00  56.49
807.7  340272.90  192224.95  56.49
808.9  340851.45  192564.91  56.50
810.2  341435.15  192885.35  56.49
811.4  341972.80  193193.78  56.49
812.7  342631.25  193579.48  56.50
814.0  343479.05  194057.91  56.50
815.2  344103.50  194421.40  56.50
816.5  344541.25  194672.15  56.50
817.7  345028.20  194974.64  56.51
819.0  345557.85  195262.85  56.51
820.2  345796.00  195387.87  56.50
821.5  346484.00  195778.34  56.50
822.7  346851.78  196000.00  56.51
824.0  347279.40  196191.90  56.49
825.2  347682.38  196479.74  56.51
826.5  348038.55  196652.97  56.50
827.7  348565.45  196945.72  56.50
829.0  349017.18  197175.46  56.49
830.2  349364.25  197346.71  56.49
831.5  349846.40  197622.76  56.49
832.7  350160.30  197784.21  56.48
834.0  350488.60  197955.02  56.48
835.2  350761.95  198162.82  56.49
836.4  351096.35  198330.40  56.49
837.7  351541.20  198545.44  56.48
838.9  351984.33  198811.57  56.48
840.1  352341.23  199030.68  56.49
841.4  352780.00  199269.49  56.49
842.6  353100.20  199467.80  56.49
843.8  353416.60  199691.22  56.50
845.1  353904.05  199981.80  56.51
846.3  354289.50  200187.09  56.50
847.5  354620.70  200413.78  56.51
848.8  355102.80  200644.00  56.50
850.0  355413.45  200849.64  56.51
851.2  355954.50  201149.19  56.51
852.5  356350.60  201361.88  56.51
853.7  356852.25  201642.08  56.51
854.9  357270.50  201904.65  56.51
856.1  357713.85  202164.45  56.52
857.4  357912.53  202256.41  56.51
858.6  358353.00  202506.06  56.51
859.8  358738.13  202729.94  56.51
861.0  359213.40  202995.00  56.51
862.2  359710.58  203250.81  56.50
863.5  360058.73  203422.77  56.50
864.7  360531.60  203705.92  56.50
865.9  360981.20  203934.56  56.49
867.1  361258.80  204110.23  56.50
868.3  361750.05  204357.97  56.49
869.5  362212.20  204618.12  56.49
870.8  362763.00  204925.65  56.49
872.0  363272.85  205189.62  56.48
873.2  363631.95  205388.62  56.48
874.4  364074.75  205635.11  56.48
875.6  364491.98  205872.68  56.48
876.8  365021.90  206136.02  56.47
878.0  365547.05  206389.43  56.46
879.2  366056.85  206663.57  56.46
880.4  366528.38  206938.43  56.46
881.6  366970.93  207172.10  56.45
882.8  367395.20  207405.95  56.45
884.0  368030.33  207736.71  56.45
885.2  368603.10  208001.01  56.43
886.5  369171.75  208341.40  56.43
887.7  369732.68  208572.92  56.41
888.8  370485.23  208937.60  56.40
890.0  371001.85  209223.60  56.39
891.2  371614.20  209535.06  56.39
892.4  372117.90  209846.88  56.39
893.6  372681.80  210168.26  56.39
894.8  373698.25  210651.25  56.37
896.0  374569.50  211114.68  56.36
897.2  375495.25  211554.85  56.34
898.4  376157.10  211928.09  56.34
899.6  376754.63  212233.94  56.33
900.8  377105.23  212463.00  56.34
902.0  377533.50  212566.69  56.30
903.2  377992.58  212763.26  56.29
904.3  378303.60  212926.06  56.28
905.5  379029.03  213255.52  56.26
906.7  379657.50  213580.52  56.26
907.9  380110.15  213868.10  56.26
909.1  380452.95  214033.01  56.26
910.2  380736.38  214140.03  56.24
911.4  381001.73  214246.01  56.23
912.6  381423.90  214373.68  56.20
913.8  381751.05  214505.97  56.19
915.0  382222.05  214739.07  56.18
916.2  382531.50  214841.25  56.16
917.3  382470.08  214861.59  56.18
918.5  382754.20  214972.90  56.16
919.7  383073.60  215075.48  56.14
920.8  383245.03  215070.39  56.12
922.0  383498.50  215128.38  56.10
923.2  383838.00  215205.90  56.07
924.4  384129.00  215293.05  56.05
925.5  384422.00  215397.91  56.03
926.7  385124.38  215674.40  56.00
927.9  386082.00  216066.14  55.96
929.0  387445.95  216801.00  55.96
930.2  389809.70  217975.22  55.92
931.4  392256.00  219208.79  55.88
932.5  394975.65  220537.20  55.84
933.7  396400.60  221185.59  55.80
934.9  397241.25  221439.60  55.74
936.0  396854.25  221136.55  55.72
937.2  395094.60  219987.84  55.68
938.3  393471.10  218972.07  55.65
939.5  392036.40  218076.24  55.63
940.7  392275.80  218015.04  55.58
941.8  394004.55  218725.74  55.51
943.0  395425.50  219396.03  55.48
944.2  396350.50  219740.13  55.44
945.3  396064.50  219342.18  55.38
946.5  395378.55  218749.86  55.33
947.6  395511.80  218707.47  55.30
948.8  395616.98  218465.68  55.22
949.9  395787.00  218317.82  55.16
951.1  395635.83  217843.68  55.06
952.2  395556.00  217389.20  54.96
953.4  395433.00  216997.66  54.88
954.5  395506.80  216714.42  54.79
955.7  395627.40  216399.12  54.70
956.8  395488.50  216026.06  54.62
958.0  395156.00  215608.10  54.56
959.1  395244.48  215326.60  54.48
960.3  394867.08  214911.64  54.43
961.4  394747.65  214761.80  54.40
962.6  394868.25  214720.10  54.38
963.7  394973.25  214528.54  54.31
964.9  394862.33  214484.13  54.32
966.0  395020.80  214406.80  54.28
967.2  395432.55  214375.34  54.21
968.3  395085.60  214276.05  54.24
969.5  395039.48  214182.41  54.22
970.6  394975.80  214214.70  54.23
971.8  395241.00  214228.61  54.20
972.9  395276.85  214186.35  54.19
974.0  395642.60  214344.43  54.18
975.2  395363.88  214317.47  54.21
976.3  395453.08  214182.84  54.16
977.5  395571.05  214185.71  54.15
978.6  395298.80  214186.87  54.18
979.7  395418.98  214372.87  54.21
980.9  395461.23  214324.65  54.20
982.0  395478.80  214249.68  54.17
983.2  394945.03  214128.67  54.22
984.3  394798.80  214003.43  54.21
985.4  394588.15  214130.61  54.27
986.6  394882.38  214288.68  54.27
987.7  395900.58  214886.40  54.28
988.9  395715.60  214725.12  54.26
990.0  396596.50  215302.17  54.29
993.1  335934.73  180704.80  53.79
996.9  336711.53  181693.12  53.96
1000.7  337866.55  182796.10  54.10
1004.5  338417.25  183550.99  54.24
1008.4  338196.79  183879.72  54.37
1012.2  338188.08  184302.56  54.50
1016.0  338179.80  184711.55  54.62
1019.8  338438.10  185202.33  54.72
1023.7  338553.49  185589.56  54.82
1027.5  338523.37  185871.11  54.91
1031.3  339028.03  186352.06  54.97
1035.1  339141.37  186594.86  55.02
1038.9  339258.70  186804.97  55.06
1042.7  339175.58  186902.15  55.10
1046.5  339068.83  186937.86  55.13
1050.3  339155.70  187046.47  55.15
1054.2  338908.50  186989.89  55.17
1058.0  338471.99  186768.37  55.18
1061.8  338335.99  186725.74  55.19
1065.6  338175.33  186620.46  55.18
1069.4  338363.40  186690.98  55.17
1073.2  338193.98  186537.74  55.16
1077.0  337811.28  186251.75  55.13
1080.8  337185.42  185792.28  55.10
1084.6  335979.12  184984.99  55.06
1088.4  335175.26  184432.53  55.03
1092.2  334356.75  183807.00  54.97
1096.0  333843.21  183328.63  54.91
1099.8  333504.17  182910.76  54.85
1103.6  332950.07  182375.16  54.78
1107.4  332183.98  181683.14  54.69
1111.2  332012.20  181343.55  54.62
1114.9  331467.50  180737.63  54.53
1118.7  330919.88  180063.12  54.41
1122.5  330271.93  179243.74  54.27
1126.3  329203.76  178092.90  54.10
1130.1  328734.60  177017.71  53.85
1133.9  327298.30  175091.40  53.50
1137.7  326004.50  172970.79  53.06
1141.4  324405.90  170439.75  52.54
1145.2  323803.78  168275.06  51.97
1149.0  322812.29  166038.45  51.43
1152.8  321359.50  163813.19  50.98
1156.6  319860.57  161964.16  50.64
1160.3  318328.67  160437.39  50.40
1164.1  316123.83  158864.88  50.25
1167.9  314453.13  157768.67  50.17
1171.7  313267.50  157010.25  50.12
1175.4  312249.17  156393.70  50.09
1179.2  311365.10  155833.14  50.05
1183.0  311074.67  155539.21  50.00
1186.7  310467.27  155103.46  49.96
1190.5  309376.87  154453.00  49.92
1194.3  308232.07  153825.01  49.91
1198.0  307224.50  153314.80  49.90
1201.8  305912.03  152697.33  49.92
1205.6  304738.33  152227.90  49.95
1209.3  303830.00  151955.89  50.01
1213.1  302908.13  151699.54  50.08
1216.8  302007.11  151508.52  50.17
1220.6  301059.73  151309.48  50.26
1224.3  299984.75  151029.85  50.35
1228.1  298954.00  150814.99  50.45
1231.9  297855.40  150509.49  50.53
1235.6  296587.88  150074.69  50.60
1239.4  295429.75  149689.42  50.67
1243.1  294303.45  149274.36  50.72
1246.9  293195.09  148832.38  50.76
1250.6  292295.40  148453.84  50.79
1254.3  291328.68  148007.64  50.80
1258.1  290463.60  147587.96  50.81
1261.8  289317.87  147004.46  50.81
1265.6  287958.30  146258.81  50.79
1269.3  286455.63  145406.17  50.76
1273.1  286344.28  145185.04  50.70
1276.8  286704.80  145179.57  50.64
1280.6  286760.37  145002.95  50.57
1284.3  285606.00  144165.63  50.48
1288.0  284245.41  143153.28  50.36
1291.8  282864.87  142062.51  50.22
1295.5  281462.13  140907.51  50.06
1299.2  280304.83  139794.86  49.87
1302.9  279045.78  138534.61  49.65
1306.7  277701.78  137155.76  49.39
1310.4  276379.28  135658.15  49.08
1314.1  275208.63  134139.26  48.74
1317.9  274130.21  132540.87  48.35
1321.6  272887.91  130750.58  47.91
1325.3  271400.85  128731.48  47.43
1329.0  270163.48  126751.72  46.92
1332.8  268206.40  124332.27  46.36
1336.5  266540.73  122022.10  45.78
1340.2  266205.33  120333.78  45.20
1343.9  265856.88  118636.83  44.62
