/*** Spectra Vista SIG Data ***/
name= 29_20220721_ACSA_2_avg.sig
comm= Averaged Ref/Tar of files: HR.072122.0009_moc.sig,HR.072122.0010_moc.sig,HR.072122.0011_moc.sig
data=
337.3  3407.58  271.28  7.96
338.8  3495.27  269.36  7.71
340.3  3685.53  287.35  7.80
341.8  3840.90  280.45  7.30
343.2  4055.20  266.40  6.57
344.7  4236.57  255.90  6.04
346.2  4439.03  245.10  5.52
347.7  4614.13  241.19  5.23
349.2  4813.20  257.04  5.34
350.6  5043.57  259.52  5.15
352.1  5358.75  261.98  4.89
353.6  5621.40  259.09  4.61
355.1  5926.80  260.42  4.39
356.6  6227.25  266.57  4.28
358.0  6486.33  280.72  4.33
359.5  6777.40  284.28  4.19
361.0  7082.25  287.28  4.06
362.5  7455.37  292.75  3.93
364.0  7818.72  302.04  3.86
365.4  8167.73  310.97  3.81
366.9  8508.50  320.45  3.77
368.4  8855.28  334.57  3.78
369.9  9206.52  353.13  3.84
371.3  9612.00  363.12  3.78
372.8  10000.50  378.78  3.79
374.3  10409.58  372.67  3.58
375.8  10851.87  380.89  3.51
377.2  11262.13  383.77  3.41
378.7  11656.67  390.95  3.35
380.2  12033.27  408.88  3.40
381.7  12539.60  414.38  3.30
383.1  13007.87  424.01  3.26
384.6  13487.50  435.20  3.23
386.1  13962.92  446.81  3.20
387.6  14391.30  456.35  3.17
389.0  14847.20  471.68  3.18
390.5  15328.20  477.90  3.12
392.0  15870.00  486.68  3.07
393.4  16413.12  500.98  3.05
394.9  16947.60  511.56  3.02
396.4  17474.25  527.85  3.02
397.9  18005.83  546.67  3.04
399.3  18554.78  557.15  3.00
400.8  19075.93  568.29  2.98
402.2  19705.47  579.38  2.94
403.7  20287.20  590.64  2.91
405.2  20865.57  609.24  2.92
406.6  21436.80  624.85  2.91
408.1  22027.47  632.80  2.87
409.6  22637.77  652.65  2.88
411.0  23285.73  674.66  2.90
412.5  23907.10  691.39  2.89
414.0  24545.08  703.62  2.87
415.4  25228.00  723.45  2.87
416.9  25879.90  745.30  2.88
418.4  26568.30  764.43  2.88
419.8  27263.60  783.81  2.87
421.3  27961.48  810.44  2.90
422.7  28733.20  844.48  2.94
424.2  29486.25  866.25  2.94
425.7  30220.20  895.41  2.96
427.1  30964.25  917.85  2.96
428.6  31733.67  944.47  2.98
430.0  32444.15  971.20  2.99
431.5  33292.70  1004.95  3.02
432.9  34154.03  1035.27  3.03
434.4  35000.75  1065.78  3.05
435.9  35812.00  1092.00  3.05
437.3  36630.00  1122.00  3.06
438.8  37430.80  1151.16  3.08
440.2  38269.00  1176.82  3.08
441.7  39208.40  1211.36  3.09
443.1  40094.50  1243.73  3.10
444.6  41029.20  1278.56  3.12
446.0  41935.20  1313.07  3.13
447.5  42859.30  1344.20  3.14
448.9  43748.20  1370.84  3.13
450.4  44712.03  1405.51  3.14
451.8  45552.00  1438.67  3.16
453.3  46451.12  1471.37  3.17
454.7  47430.00  1508.98  3.18
456.2  48280.07  1537.63  3.18
457.6  49214.85  1568.22  3.19
459.1  50155.30  1600.78  3.19
460.5  51047.92  1628.18  3.19
462.0  52062.23  1666.28  3.20
463.4  53064.67  1698.80  3.20
464.8  54038.50  1731.60  3.20
466.3  54996.70  1759.67  3.20
467.7  55971.58  1792.22  3.20
469.2  56994.37  1822.24  3.20
470.6  57923.47  1856.47  3.21
472.0  58908.57  1891.68  3.21
473.5  59880.58  1926.65  3.22
474.9  60866.50  1958.90  3.22
476.4  61996.80  1996.80  3.22
477.8  63046.00  2031.93  3.22
479.2  64032.00  2064.80  3.22
480.7  65098.90  2101.77  3.23
482.1  66190.63  2146.31  3.24
483.6  67337.00  2180.99  3.24
485.0  68370.25  2219.50  3.25
486.4  69529.60  2262.04  3.25
487.9  70580.25  2310.75  3.27
489.3  71710.75  2356.00  3.29
490.7  72761.13  2399.19  3.30
492.2  73950.80  2448.04  3.31
493.6  75008.00  2498.31  3.33
495.0  76069.50  2560.35  3.37
496.5  77200.28  2619.98  3.39
497.9  78276.45  2682.59  3.43
499.3  79401.53  2747.16  3.46
500.7  80614.07  2822.57  3.50
502.2  81701.60  2900.53  3.55
503.6  82898.80  2995.92  3.61
505.0  83915.20  3090.17  3.68
506.5  85172.95  3205.19  3.76
507.9  86350.68  3328.71  3.85
509.3  87704.80  3475.04  3.96
510.7  88920.00  3628.95  4.08
512.2  90266.10  3807.89  4.22
513.6  91667.80  4014.17  4.38
515.0  93022.02  4246.64  4.57
516.4  94348.80  4501.98  4.77
517.8  95889.92  4798.73  5.00
519.3  97145.65  5104.53  5.25
520.7  98640.37  5453.27  5.53
522.1  99883.98  5815.46  5.82
523.5  101201.27  6199.40  6.13
524.9  102597.60  6593.70  6.43
526.3  103941.83  6991.32  6.73
527.8  105365.70  7385.40  7.01
529.2  106455.53  7761.91  7.29
530.6  107922.23  8159.43  7.56
532.0  109545.33  8543.73  7.80
533.4  110835.35  8870.81  8.00
534.8  111777.70  9135.83  8.17
536.3  113425.40  9442.80  8.33
537.7  115340.40  9755.76  8.46
539.1  116709.53  10002.97  8.57
540.5  117873.10  10223.22  8.67
541.9  119555.50  10476.61  8.76
543.3  120812.13  10695.30  8.85
544.7  122056.00  10906.00  8.94
546.1  123769.43  11159.24  9.02
547.5  124984.53  11358.29  9.09
549.0  126720.00  11595.47  9.15
550.4  128144.58  11793.75  9.20
551.8  129597.83  11969.03  9.24
553.2  131077.17  12116.08  9.24
554.6  132371.20  12206.83  9.22
556.0  133832.40  12279.24  9.18
557.4  135353.87  12315.66  9.10
558.8  136916.70  12323.40  9.00
560.2  138298.75  12278.47  8.88
561.6  139882.65  12222.27  8.74
563.0  141391.55  12123.07  8.57
564.4  142896.23  12001.68  8.40
565.8  144344.17  11850.42  8.21
567.2  145992.17  11690.27  8.01
568.6  147428.75  11491.25  7.79
570.0  148791.73  11279.37  7.58
571.4  150449.43  11079.47  7.36
572.8  152115.83  10887.67  7.16
574.2  153664.00  10699.73  6.96
575.6  155130.00  10527.00  6.79
577.0  156572.80  10374.91  6.63
578.4  158226.25  10252.67  6.48
579.8  159655.50  10137.78  6.35
581.2  161293.77  10053.27  6.23
582.5  162637.80  9962.16  6.13
583.9  164090.80  9893.12  6.03
585.3  165805.20  9845.28  5.94
586.7  167195.60  9794.76  5.86
588.1  168618.33  9758.20  5.79
589.5  170185.17  9744.47  5.73
590.9  171731.73  9741.44  5.67
592.3  173466.10  9760.55  5.63
593.7  174830.50  9773.27  5.59
595.0  176395.05  9803.43  5.56
596.4  177777.60  9821.28  5.52
597.8  179171.08  9841.12  5.49
599.2  180655.20  9863.04  5.46
600.6  182321.53  9885.37  5.42
602.0  183555.55  9873.64  5.38
603.3  185246.57  9875.24  5.33
604.7  186836.97  9853.29  5.27
606.1  188250.40  9814.56  5.21
607.5  189807.03  9767.92  5.15
608.9  191407.83  9705.74  5.07
610.2  192723.30  9633.33  5.00
611.6  194247.00  9565.28  4.92
613.0  195720.43  9494.61  4.85
614.4  197036.10  9424.52  4.78
615.8  198402.75  9361.95  4.72
617.1  199861.20  9313.92  4.66
618.5  201398.40  9278.61  4.61
619.9  202830.75  9255.49  4.56
621.3  204366.75  9246.00  4.52
622.6  205864.83  9251.67  4.49
624.0  207215.40  9261.76  4.47
625.4  208582.00  9285.87  4.45
626.8  210082.60  9325.68  4.44
628.1  211336.03  9356.42  4.43
629.5  213117.42  9417.05  4.42
630.9  214664.08  9470.05  4.41
632.2  215989.90  9501.47  4.40
633.6  217544.58  9528.35  4.38
635.0  219013.33  9535.68  4.35
636.3  220448.13  9515.00  4.32
637.7  221739.75  9472.85  4.27
639.1  223288.33  9419.67  4.22
640.4  224684.60  9348.90  4.16
641.8  225830.87  9254.74  4.10
643.2  227343.32  9166.31  4.03
644.5  228623.83  9076.33  3.97
645.9  230219.10  9013.44  3.92
647.2  231952.00  8972.88  3.87
648.6  233725.50  8947.80  3.83
650.0  235080.00  8916.48  3.79
651.3  235477.92  8865.23  3.76
652.7  236431.53  8848.13  3.74
654.0  238327.93  8854.67  3.72
655.4  239835.93  8836.70  3.68
656.8  240196.27  8768.25  3.65
658.1  241497.73  8719.83  3.61
659.5  243719.70  8719.97  3.58
660.8  245370.00  8697.00  3.54
662.2  246250.67  8637.44  3.51
663.5  247740.37  8606.01  3.47
664.9  249022.80  8580.69  3.45
666.2  249720.40  8554.40  3.43
667.6  251334.85  8572.80  3.41
668.9  252445.18  8601.55  3.41
670.3  253583.33  8633.77  3.40
671.6  255027.50  8702.50  3.41
673.0  256133.75  8776.25  3.43
674.3  257332.40  8866.52  3.45
675.7  258586.55  8980.11  3.47
677.0  259660.07  9094.86  3.50
678.4  260937.52  9241.69  3.54
679.7  261980.03  9385.59  3.58
681.1  263237.02  9571.72  3.64
682.4  264345.47  9774.09  3.70
683.8  265553.60  10006.88  3.77
685.1  266488.25  10266.00  3.85
686.4  267761.60  10576.08  3.95
687.8  268987.67  10961.83  4.08
689.1  269996.33  11442.43  4.24
690.5  271269.40  12066.02  4.45
691.8  272037.40  12858.70  4.73
693.1  273294.90  13937.30  5.10
694.5  274425.67  15318.33  5.58
695.8  275593.50  17065.53  6.19
697.1  276746.17  19219.20  6.94
698.5  277757.20  21801.08  7.85
699.8  278781.57  24815.52  8.90
701.1  279885.08  28243.98  10.09
702.5  280597.17  31972.89  11.39
703.8  281535.00  35994.00  12.78
705.1  282644.70  40242.41  14.24
706.5  283655.33  44621.72  15.73
707.8  284590.00  49101.46  17.25
709.1  285432.57  53606.79  18.78
710.5  286519.05  58190.86  20.31
711.8  287342.93  62737.33  21.83
713.1  288294.40  67328.16  23.35
714.4  289156.67  71883.31  24.86
715.8  289959.47  76399.80  26.35
717.1  291205.60  81002.36  27.82
718.4  292096.00  85454.51  29.26
719.7  293148.92  89894.01  30.66
721.0  293670.00  94089.00  32.04
722.4  294412.80  98260.87  33.38
723.7  295356.00  102381.02  34.66
725.0  296364.30  106419.66  35.91
726.3  297272.80  110281.27  37.10
727.6  297790.17  113869.36  38.24
729.0  298682.18  117443.25  39.32
730.3  299401.75  120798.36  40.35
731.6  300286.37  124046.96  41.31
732.9  301054.37  127103.22  42.22
734.2  301849.17  129999.28  43.07
735.5  302813.80  132828.42  43.86
736.8  303565.40  135402.84  44.60
738.1  304342.60  137836.08  45.29
739.5  305249.67  140169.87  45.92
740.8  305921.18  142258.49  46.50
742.1  306664.95  144256.57  47.04
743.4  307400.00  146126.67  47.54
744.7  308376.97  147978.65  47.99
746.0  309236.20  149652.88  48.39
747.3  309754.38  151053.55  48.77
748.6  310442.00  152426.27  49.10
749.9  311185.33  153718.93  49.40
751.2  311952.07  154923.06  49.66
752.5  312858.60  156129.45  49.90
753.8  313473.65  157110.57  50.12
755.1  314149.33  158052.27  50.31
756.4  314695.78  158863.10  50.48
757.7  315629.18  159791.08  50.63
759.0  317339.98  161066.96  50.76
760.3  318472.00  161993.92  50.87
761.6  319998.00  163079.28  50.96
762.9  320500.67  163620.83  51.05
764.2  320917.00  164043.37  51.12
765.5  321201.13  164398.48  51.18
766.8  321630.93  164792.11  51.24
768.1  322132.67  165203.73  51.28
769.3  322712.37  165619.81  51.32
770.6  323325.60  166049.09  51.36
771.9  324050.07  166521.76  51.39
773.2  324441.60  166806.45  51.41
774.5  325067.60  167195.60  51.43
775.8  325716.50  167606.96  51.46
777.1  326285.67  167954.53  51.47
778.4  326617.50  168181.53  51.49
779.6  327371.33  168612.09  51.50
780.9  327840.00  168892.00  51.52
782.2  328313.33  169170.10  51.53
783.5  328607.00  169380.73  51.55
784.8  329108.25  169681.35  51.56
786.0  329504.70  169912.87  51.57
787.3  329899.97  170141.26  51.57
788.6  330301.07  170399.54  51.59
789.9  330801.33  170660.00  51.59
791.2  331418.05  171014.41  51.60
792.4  332058.25  171377.67  51.61
793.7  332530.40  171635.92  51.62
795.0  333131.15  171975.32  51.62
796.2  333785.02  172338.85  51.63
797.5  334494.35  172708.26  51.63
798.8  335154.13  173081.56  51.64
800.0  335820.67  173442.34  51.65
801.3  336283.53  173693.95  51.65
802.6  336847.65  174005.76  51.66
803.8  337474.65  174365.62  51.67
805.1  337972.83  174650.23  51.68
806.4  338429.60  174889.16  51.68
807.7  338990.40  175184.37  51.68
808.9  339566.10  175487.93  51.68
810.2  340050.90  175754.93  51.68
811.4  340529.20  176028.31  51.69
812.7  341141.67  176355.83  51.70
814.0  341929.07  176796.86  51.71
815.2  342600.50  177125.77  51.70
816.5  343019.35  177357.72  51.70
817.7  343485.60  177621.82  51.71
819.0  343950.20  177907.47  51.72
820.2  344109.33  178018.13  51.73
821.5  344817.07  178385.68  51.73
822.7  345206.78  178594.78  51.74
824.0  345565.80  178777.44  51.73
825.2  346052.25  179028.09  51.73
826.5  346305.13  179216.37  51.75
827.7  346868.57  179511.05  51.75
829.0  347246.83  179736.78  51.76
830.2  347567.57  179912.29  51.76
831.5  348041.00  180158.86  51.76
832.7  348360.95  180335.61  51.77
834.0  348695.47  180506.46  51.77
835.2  349011.12  180707.01  51.78
836.4  349300.23  180884.95  51.78
837.7  349734.53  181121.95  51.79
838.9  350166.85  181380.33  51.80
840.1  350567.10  181610.64  51.80
841.4  350997.13  181859.99  51.81
842.6  351346.93  182046.88  51.81
843.8  351678.13  182261.63  51.83
845.1  352143.33  182528.95  51.83
846.3  352506.53  182760.09  51.85
847.5  352895.20  182992.32  51.85
848.8  353331.20  183224.64  51.86
850.0  353680.13  183414.14  51.86
851.2  354262.50  183708.90  51.86
852.5  354593.07  183915.15  51.87
853.7  355003.50  184179.00  51.88
854.9  355441.73  184427.81  51.89
856.1  355906.20  184657.03  51.88
857.4  356126.47  184773.39  51.88
858.6  356613.87  185016.33  51.88
859.8  356957.50  185222.00  51.89
861.0  357458.40  185487.12  51.89
862.2  357838.93  185733.19  51.90
863.5  358215.22  185921.41  51.90
864.7  358740.80  186165.76  51.89
865.9  359170.67  186367.49  51.89
867.1  359479.20  186541.63  51.89
868.3  359978.60  186765.72  51.88
869.5  360396.60  187037.06  51.90
870.8  360927.00  187302.60  51.89
872.0  361417.05  187549.21  51.89
873.2  361782.40  187757.98  51.90
874.4  362232.00  187960.50  51.89
875.6  362603.97  188130.72  51.88
876.8  363140.07  188376.89  51.87
878.0  363614.67  188622.39  51.87
879.2  364155.90  188849.74  51.86
880.4  364605.00  189115.15  51.87
881.6  365025.70  189335.23  51.87
882.8  365454.93  189506.99  51.86
884.0  366096.82  189807.03  51.85
885.2  366644.47  190051.75  51.84
886.5  367246.67  190352.24  51.83
887.7  367722.12  190564.92  51.82
888.8  368385.90  190886.45  51.82
890.0  368937.13  191149.62  51.81
891.2  369490.33  191410.36  51.80
892.4  370154.05  191747.78  51.80
893.6  370690.57  192019.13  51.80
894.8  371580.33  192424.13  51.79
896.0  372452.17  192836.13  51.77
897.2  373245.17  193225.07  51.77
898.4  374008.80  193565.24  51.75
899.6  374573.25  193830.75  51.75
900.8  375031.87  194010.11  51.73
902.0  375251.90  194164.16  51.74
903.2  375641.20  194274.22  51.72
904.3  375954.80  194436.60  51.72
905.5  376607.23  194726.95  51.71
906.7  377274.00  195008.13  51.69
907.9  377768.77  195279.05  51.69
909.1  378195.30  195450.21  51.68
910.2  378328.40  195495.99  51.67
911.4  378643.20  195589.68  51.66
912.6  378911.87  195695.50  51.65
913.8  379204.40  195845.60  51.65
915.0  379681.40  196004.90  51.62
916.2  379912.00  196124.50  51.62
917.3  380029.05  196104.24  51.60
918.5  380325.67  196208.15  51.59
919.7  380530.30  196342.76  51.60
920.8  380717.55  196344.90  51.57
922.0  380893.33  196321.77  51.54
923.2  381199.00  196414.40  51.53
924.4  381453.75  196455.60  51.50
925.5  381709.53  196588.36  51.50
926.7  382229.42  196857.17  51.50
927.9  383190.00  197253.68  51.48
929.0  384552.00  197828.46  51.44
930.2  386657.60  198832.47  51.42
931.4  388987.20  199927.98  51.40
932.5  391792.47  201156.31  51.34
933.7  393107.88  201811.67  51.34
934.9  393680.00  202084.75  51.33
936.0  393352.92  201829.98  51.31
937.2  391565.00  200768.06  51.27
938.3  390016.67  199866.83  51.25
939.5  388821.60  198956.64  51.17
940.7  389067.00  198991.44  51.15
941.8  390613.00  199680.43  51.12
943.0  391840.50  200282.00  51.11
944.2  392697.50  200598.41  51.08
945.3  392359.50  200242.90  51.04
946.5  391688.10  199759.68  51.00
947.6  392079.20  199675.61  50.93
948.8  392059.85  199457.70  50.87
949.9  392168.00  199374.00  50.84
951.1  391959.53  199027.75  50.78
952.2  391816.00  198668.80  50.70
953.4  391702.50  198296.80  50.62
954.5  391575.60  198132.48  50.60
955.7  391700.40  197863.68  50.51
956.8  391638.93  197504.56  50.43
958.0  391316.67  197164.53  50.38
959.1  391106.18  196922.49  50.35
960.3  390957.50  196674.62  50.31
961.4  390916.67  196459.08  50.26
962.6  391272.00  196467.13  50.21
963.7  391048.05  196260.00  50.19
964.9  390929.60  196067.26  50.15
966.0  390906.00  195967.35  50.13
967.2  390942.00  195999.30  50.14
968.3  390744.00  195914.70  50.14
969.5  390659.47  195739.78  50.10
970.6  390741.17  195755.55  50.10
971.8  391049.05  195744.10  50.06
972.9  390905.70  195702.63  50.06
974.0  391297.27  195757.27  50.03
975.2  391156.67  195714.78  50.03
976.3  391031.27  195659.04  50.04
977.5  391032.95  195642.53  50.03
978.6  391031.07  195568.88  50.01
979.7  391313.30  195600.02  49.99
980.9  391102.28  195581.20  50.01
982.0  391639.20  195563.63  49.93
983.2  391368.55  195377.72  49.92
984.3  391173.47  195405.47  49.95
985.4  390730.98  195404.06  50.01
986.6  390992.92  195619.28  50.03
987.7  392204.63  196102.32  50.00
988.9  392038.80  195789.60  49.94
990.0  392958.00  196187.92  49.93
993.1  342466.13  170513.60  49.79
996.9  342950.78  171123.81  49.90
1000.7  343857.09  171969.09  50.01
1004.5  344290.75  172527.89  50.11
1008.4  344120.04  172791.15  50.21
1012.2  344167.83  173114.44  50.30
1016.0  344268.00  173429.23  50.38
1019.8  344380.58  173746.65  50.45
1023.7  344282.68  173919.18  50.52
1027.5  343941.75  173952.15  50.58
1031.3  344073.80  174169.95  50.62
1035.1  343920.85  174215.53  50.66
1038.9  343853.03  174270.57  50.68
1042.7  343616.67  174272.00  50.72
1046.5  343475.67  174265.21  50.74
1050.3  343535.36  174317.60  50.74
1054.2  343236.83  174228.67  50.76
1058.0  342757.22  173996.63  50.76
1061.8  342654.79  173955.95  50.77
1065.6  342380.00  173794.32  50.76
1069.4  342291.33  173719.29  50.75
1073.2  341871.61  173441.93  50.73
1077.0  341414.28  173119.86  50.71
1080.8  340961.46  172778.72  50.67
1084.6  339997.93  172187.52  50.64
1088.4  339419.88  171813.03  50.62
1092.2  338685.75  171296.36  50.58
1096.0  338148.07  170873.57  50.53
1099.8  337676.52  170450.03  50.48
1103.6  337040.50  169937.09  50.42
1107.4  336153.42  169274.28  50.36
1111.2  335834.80  168910.64  50.30
1114.9  335141.33  168307.00  50.22
1118.7  334486.35  167663.22  50.13
1122.5  333791.47  166937.95  50.01
1126.3  332749.32  165944.32  49.87
1130.1  332297.48  165064.80  49.67
1133.9  330846.60  163454.90  49.41
1137.7  329551.10  161726.43  49.07
1141.4  327914.49  159635.51  48.68
1145.2  327236.78  157853.18  48.24
1149.0  326208.75  155999.79  47.82
1152.8  324722.85  154100.35  47.46
1156.6  323225.47  152496.85  47.18
1160.3  321686.67  151162.14  46.99
1164.1  319468.03  149751.61  46.88
1167.9  317831.25  148791.52  46.81
1171.7  316645.88  148128.75  46.78
1175.4  315576.70  147563.04  46.76
1179.2  314597.75  147011.95  46.73
1183.0  314340.67  146800.95  46.70
1186.7  313860.87  146466.83  46.67
1190.5  312913.40  145948.48  46.64
1194.3  311825.27  145379.82  46.62
1198.0  310716.73  144850.71  46.62
1201.8  309335.83  144237.23  46.63
1205.6  308177.67  143801.14  46.66
1209.3  307308.63  143576.97  46.72
1213.1  306462.83  143349.16  46.78
1216.8  305554.70  143145.17  46.85
1220.6  304529.87  142873.87  46.92
1224.3  303358.75  142537.16  46.99
1228.1  302213.20  142207.54  47.06
1231.9  301051.60  141834.09  47.11
1235.6  299694.00  141346.17  47.16
1239.4  298447.00  140916.75  47.22
1243.1  297301.29  140480.80  47.25
1246.9  296196.72  140021.26  47.27
1250.6  295272.33  139634.06  47.29
1254.3  294283.18  139200.56  47.30
1258.1  293370.35  138771.52  47.30
1261.8  292182.40  138196.26  47.30
1265.6  290879.47  137525.58  47.28
1269.3  289569.83  136819.28  47.25
1273.1  289549.68  136679.47  47.20
1276.8  289738.80  136612.00  47.15
1280.6  289526.33  136334.33  47.09
1284.3  288197.20  135501.49  47.02
1288.0  286860.32  134617.89  46.93
1291.8  285707.16  133750.13  46.81
1295.5  284462.93  132811.90  46.69
1299.2  283295.60  131845.99  46.54
1302.9  281933.33  130708.64  46.36
1306.7  280479.27  129459.98  46.16
1310.4  279106.55  128131.30  45.91
1314.1  277810.68  126787.44  45.64
1317.9  276670.00  125388.36  45.32
1321.6  275333.77  123809.91  44.97
1325.3  273836.85  122021.85  44.56
1329.0  272608.82  120308.22  44.13
1332.8  270670.40  118184.00  43.66
1336.5  268968.13  116146.62  43.18
1340.2  268541.00  114657.83  42.70
1343.9  267925.21  113086.99  42.21
1347.6  266914.20  111356.98  41.72
1351.4  266538.00  109945.93  41.25
1355.1  266157.10  108573.77  40.79
1358.8  265824.00  107161.14  40.31
