/*** Spectra Vista SIG Data ***/
name= 2_20221020_CECA_04_avg.sig
comm= Averaged Ref/Tar of files: HR.102022.0005_moc.sig,HR.102022.0006_moc.sig,HR.102022.0007_moc.sig
data=
337.3  666.39  97.04  14.56
338.8  659.66  89.25  13.53
340.3  696.06  88.50  12.71
341.8  718.54  83.83  11.67
343.2  735.77  80.41  10.93
344.7  767.70  74.40  9.69
346.2  793.66  77.62  9.78
347.7  820.21  76.47  9.32
349.2  842.40  73.08  8.68
350.6  891.89  64.88  7.27
352.1  928.85  60.73  6.54
353.6  971.60  61.30  6.31
355.1  1010.25  63.98  6.33
356.6  1058.16  65.19  6.16
358.0  1102.83  60.96  5.53
359.5  1156.54  60.43  5.22
361.0  1222.65  60.85  4.98
362.5  1279.74  58.55  4.58
364.0  1343.63  59.58  4.43
365.4  1405.00  64.32  4.58
366.9  1468.07  67.22  4.58
368.4  1535.19  68.19  4.44
369.9  1629.22  72.07  4.42
371.3  1716.43  77.13  4.49
372.8  1828.16  83.19  4.55
374.3  1888.93  79.73  4.22
375.8  1955.80  76.36  3.90
377.2  2044.40  81.00  3.96
378.7  2113.57  81.90  3.87
380.2  2213.49  78.01  3.52
381.7  2316.43  75.37  3.25
383.1  2410.10  75.46  3.13
384.6  2497.11  73.13  2.93
386.1  2594.40  77.47  2.99
387.6  2695.00  78.16  2.90
389.0  2794.86  77.12  2.76
390.5  2890.16  76.70  2.65
392.0  3015.30  76.12  2.52
393.4  3137.99  77.08  2.46
394.9  3258.77  80.04  2.46
396.4  3371.14  81.65  2.42
397.9  3485.00  81.72  2.34
399.3  3617.86  82.73  2.29
400.8  3738.75  83.64  2.24
402.2  3885.91  84.56  2.18
403.7  4017.09  83.73  2.08
405.2  4160.04  90.23  2.17
406.6  4288.69  89.45  2.09
408.1  4429.60  89.65  2.02
409.6  4571.87  89.26  1.95
411.0  4721.40  91.10  1.93
412.5  4879.00  92.56  1.90
414.0  5035.54  93.27  1.85
415.4  5201.57  97.39  1.87
416.9  5352.94  101.09  1.89
418.4  5522.46  105.41  1.91
419.8  5699.20  109.81  1.93
421.3  5877.16  112.69  1.92
422.7  6070.11  118.32  1.95
424.2  6253.39  122.06  1.95
425.7  6445.49  130.22  2.02
427.1  6632.94  138.38  2.09
428.6  6837.71  143.98  2.11
430.0  7032.53  152.76  2.17
431.5  7249.29  162.02  2.23
432.9  7467.31  172.87  2.32
434.4  7698.66  183.52  2.38
435.9  7916.00  191.96  2.42
437.3  8136.07  201.52  2.48
438.8  8366.08  209.96  2.51
440.2  8597.05  220.84  2.57
441.7  8847.83  233.16  2.64
443.1  9093.29  246.30  2.71
444.6  9345.91  256.91  2.75
446.0  9601.50  267.43  2.79
447.5  9859.93  278.75  2.83
448.9  10117.29  290.25  2.87
450.4  10389.60  301.74  2.90
451.8  10641.43  315.03  2.96
453.3  10904.55  329.63  3.02
454.7  11183.69  346.50  3.10
456.2  11430.18  359.43  3.14
457.6  11708.55  373.62  3.19
459.1  11984.89  387.91  3.24
460.5  12259.14  404.67  3.30
462.0  12562.79  422.73  3.36
463.4  12858.43  442.05  3.44
464.8  13153.50  460.03  3.50
466.3  13439.96  474.98  3.53
467.7  13729.16  490.28  3.57
469.2  14042.83  505.60  3.60
470.6  14335.01  523.60  3.65
472.0  14654.09  539.54  3.68
473.5  14956.36  555.58  3.71
474.9  15276.00  569.84  3.73
476.4  15617.83  583.84  3.74
477.8  15945.86  599.01  3.76
479.2  16252.43  613.03  3.77
480.7  16584.21  632.56  3.81
482.1  16923.01  653.30  3.86
483.6  17290.46  678.67  3.93
485.0  17626.41  703.32  3.99
486.4  17992.11  735.10  4.09
487.9  18331.39  772.69  4.22
489.3  18688.13  814.45  4.36
490.7  19024.70  861.41  4.53
492.2  19399.80  913.36  4.71
493.6  19756.57  972.92  4.92
495.0  20115.64  1040.33  5.17
496.5  20490.49  1117.26  5.45
497.9  20855.27  1202.70  5.77
499.3  21228.44  1296.62  6.11
500.7  21631.77  1400.87  6.48
502.2  22008.46  1515.16  6.88
503.6  22408.91  1645.91  7.34
505.0  22770.29  1789.09  7.86
506.5  23200.97  1947.35  8.39
507.9  23592.93  2117.18  8.97
509.3  24030.97  2301.73  9.58
510.7  24444.64  2498.44  10.22
512.2  24901.14  2708.43  10.88
513.6  25387.20  2934.42  11.56
515.0  25865.11  3170.91  12.26
516.4  26320.95  3413.02  12.97
517.8  26857.68  3678.94  13.70
519.3  27305.50  3939.12  14.43
520.7  27827.03  4215.62  15.15
522.1  28281.41  4487.37  15.87
523.5  28745.20  4763.68  16.57
524.9  29255.14  5048.35  17.26
526.3  29757.80  5330.07  17.91
527.8  30272.79  5619.57  18.56
529.2  30655.69  5893.12  19.22
530.6  31191.36  6192.95  19.85
532.0  31764.00  6493.20  20.44
533.4  32242.56  6767.89  20.99
534.8  32612.85  7010.57  21.50
536.3  33175.11  7294.38  21.99
537.7  33836.40  7593.18  22.44
539.1  34358.58  7857.60  22.87
540.5  34807.29  8101.88  23.28
541.9  35425.93  8377.00  23.65
543.3  35918.88  8617.97  23.99
544.7  36418.11  8857.04  24.32
546.1  37052.87  9124.73  24.63
547.5  37520.00  9345.65  24.91
549.0  38122.86  9588.58  25.15
550.4  38665.89  9809.35  25.37
551.8  39240.21  10023.19  25.54
553.2  39796.02  10220.23  25.68
554.6  40307.43  10392.14  25.78
556.0  40870.67  10563.21  25.85
557.4  41468.15  10732.15  25.88
558.8  42086.06  10899.47  25.90
560.2  42656.07  11045.92  25.90
561.6  43287.58  11199.81  25.87
563.0  43899.23  11342.21  25.84
564.4  44524.01  11488.60  25.80
565.8  45131.96  11626.82  25.76
567.2  45813.43  11770.06  25.69
568.6  46426.93  11884.44  25.60
570.0  47007.49  11966.78  25.46
571.4  47682.33  12052.11  25.28
572.8  48365.14  12130.45  25.08
574.2  49004.80  12195.31  24.89
575.6  49631.79  12252.75  24.69
577.0  50252.71  12311.10  24.50
578.4  50930.75  12390.79  24.33
579.8  51548.98  12457.01  24.17
581.2  52233.01  12544.34  24.02
582.5  52830.51  12611.43  23.87
583.9  53454.00  12689.46  23.74
585.3  54170.16  12792.88  23.62
586.7  54789.34  12876.24  23.50
588.1  55411.25  12963.51  23.40
589.5  56087.50  13068.17  23.30
590.9  56753.03  13175.28  23.22
592.3  57482.59  13302.86  23.14
593.7  58098.58  13406.07  23.07
595.0  58767.81  13524.11  23.01
596.4  59392.40  13633.04  22.95
597.8  60025.46  13740.52  22.89
599.2  60682.29  13851.05  22.83
600.6  61405.41  13971.86  22.75
602.0  61977.47  14050.01  22.67
603.3  62713.27  14156.14  22.57
604.7  63416.84  14240.39  22.46
606.1  64063.54  14298.33  22.32
607.5  64767.16  14355.75  22.17
608.9  65481.03  14405.00  22.00
610.2  66087.90  14421.65  21.82
611.6  66779.06  14445.17  21.63
613.0  67456.73  14459.80  21.44
614.4  68085.69  14454.94  21.23
615.8  68733.32  14456.33  21.03
617.1  69405.00  14466.43  20.84
618.5  70105.49  14490.19  20.67
619.9  70778.61  14518.54  20.51
621.3  71489.96  14569.82  20.38
622.6  72184.79  14637.80  20.28
624.0  72840.13  14717.33  20.20
625.4  73493.36  14813.40  20.16
626.8  74174.10  14932.87  20.13
628.1  74774.07  15043.64  20.12
629.5  75542.86  15195.66  20.12
630.9  76220.81  15325.83  20.11
632.2  76824.00  15427.45  20.08
633.6  77517.54  15518.29  20.02
635.0  78181.37  15557.97  19.90
636.3  78863.29  15549.43  19.72
637.7  79512.96  15468.58  19.45
639.1  80235.00  15345.17  19.13
640.4  80916.15  15150.22  18.72
641.8  81500.99  14880.11  18.26
643.2  82204.30  14593.04  17.75
644.5  82860.21  14262.38  17.21
645.9  83557.41  13931.39  16.67
647.2  84044.45  13594.75  16.18
648.6  84731.79  13333.95  15.74
650.0  85375.54  13115.76  15.36
651.3  85926.34  12936.70  15.06
652.7  86898.50  12852.68  14.79
654.0  87785.51  12758.10  14.53
655.4  88432.07  12615.07  14.27
656.8  88659.71  12381.59  13.97
658.1  89360.17  12173.25  13.62
659.5  90338.70  11951.71  13.23
660.8  90977.14  11630.25  12.78
662.2  91507.20  11232.11  12.27
663.5  92226.27  10836.28  11.75
664.9  92763.17  10424.57  11.24
666.2  93220.97  10022.56  10.75
667.6  94001.01  9693.27  10.31
668.9  94514.90  9391.17  9.94
670.3  95413.39  9177.98  9.62
671.6  95940.32  8997.01  9.38
673.0  96547.18  8889.33  9.21
674.3  97183.17  8839.02  9.10
675.7  97849.01  8843.49  9.04
677.0  98420.29  8886.60  9.03
678.4  99074.74  8998.68  9.08
679.7  99641.10  9192.01  9.23
681.1  100283.57  9511.63  9.48
682.4  100870.71  9984.78  9.90
683.8  101483.20  10656.87  10.50
685.1  102040.50  11549.25  11.32
686.4  102709.89  12697.17  12.36
687.8  103341.71  14090.19  13.63
689.1  103920.21  15701.83  15.11
690.5  104610.77  17531.59  16.76
691.8  105125.21  19507.55  18.56
693.1  105866.10  21647.61  20.45
694.5  106528.50  23832.14  22.37
695.8  107204.50  26007.30  24.26
697.1  107854.50  28123.30  26.08
698.5  108454.11  30155.94  27.81
699.8  109053.79  32093.44  29.43
701.1  109714.61  33938.43  30.93
702.5  110205.07  35620.98  32.32
703.8  110764.29  37195.00  33.58
705.1  111407.40  38676.15  34.72
706.5  111990.07  40029.37  35.74
707.8  112554.60  41273.75  36.67
709.1  113079.31  42407.08  37.50
710.5  113698.04  43499.27  38.26
711.8  114207.86  44478.59  38.95
713.1  114774.91  45418.16  39.57
714.4  115322.86  46284.64  40.13
715.8  115819.83  47094.38  40.66
717.1  116520.13  47924.61  41.13
718.4  117081.60  48665.49  41.57
719.7  117698.36  49387.57  41.96
721.0  118086.43  49982.00  42.33
722.4  118561.46  50574.89  42.66
723.7  119132.53  51174.66  42.96
725.0  119715.30  51752.40  43.23
726.3  120274.71  52293.09  43.48
727.6  120665.99  52733.36  43.70
729.0  121194.65  53211.73  43.91
730.3  121683.84  53653.11  44.09
731.6  122212.16  54091.52  44.26
732.9  122712.45  54491.17  44.41
734.2  123199.61  54875.93  44.54
735.5  123788.55  55281.66  44.66
736.8  124282.80  55636.54  44.77
738.1  124792.14  55987.87  44.86
739.5  125350.83  56345.21  44.95
740.8  125801.50  56647.93  45.03
742.1  126260.48  56943.41  45.10
743.4  126700.00  57225.00  45.17
744.7  127227.26  57535.51  45.22
746.0  127756.76  57835.18  45.27
747.3  128150.09  58075.05  45.32
748.6  128610.21  58338.92  45.36
749.9  129049.14  58579.73  45.39
751.2  129487.33  58816.87  45.42
752.5  129980.44  59079.82  45.45
753.8  130382.45  59293.10  45.48
755.1  130832.00  59527.87  45.50
756.4  131247.96  59737.88  45.52
757.7  131820.30  60025.23  45.54
759.0  132728.47  60437.84  45.53
760.3  133372.80  60733.49  45.54
761.6  134162.80  61101.97  45.54
762.9  134537.21  61289.01  45.56
764.2  134845.86  61453.05  45.57
765.5  135132.72  61597.18  45.58
766.8  135456.00  61767.57  45.60
768.1  135817.89  61954.75  45.62
769.3  136211.80  62151.67  45.63
770.6  136643.56  62354.59  45.63
771.9  137091.50  62566.66  45.64
773.2  137415.43  62716.35  45.64
774.5  137819.31  62908.56  45.65
775.8  138240.96  63109.38  45.65
777.1  138612.41  63285.62  45.66
778.4  138894.41  63422.32  45.66
779.6  139359.29  63639.24  45.67
780.9  139705.71  63807.33  45.67
782.2  140057.50  63970.68  45.67
783.5  140326.14  64095.07  45.68
784.8  140685.30  64266.70  45.68
786.0  140984.90  64408.16  45.68
787.3  141295.77  64549.28  45.68
788.6  141603.06  64700.58  45.69
789.9  141946.80  64858.67  45.69
791.2  142352.75  65048.66  45.70
792.4  142762.91  65243.61  45.70
793.7  143114.23  65400.54  45.70
795.0  143514.64  65591.94  45.70
796.2  143950.35  65781.21  45.70
797.5  144376.63  65977.12  45.70
798.8  144804.94  66172.90  45.70
800.0  145207.44  66368.18  45.71
801.3  145524.26  66517.86  45.71
802.6  145935.06  66700.82  45.71
803.8  146373.91  66890.63  45.70
805.1  146726.75  67052.35  45.70
806.4  147076.89  67206.71  45.69
807.7  147436.20  67380.41  45.70
808.9  147809.69  67555.75  45.70
810.2  148176.90  67717.07  45.70
811.4  148541.86  67874.15  45.69
812.7  148989.29  68068.09  45.69
814.0  149492.07  68292.54  45.68
815.2  149930.21  68489.95  45.68
816.5  150245.35  68641.92  45.69
817.7  150611.63  68796.15  45.68
819.0  150994.96  68965.29  45.67
820.2  151246.86  69069.73  45.67
821.5  151695.19  69278.94  45.67
822.7  152020.51  69413.62  45.66
824.0  152335.54  69547.17  45.65
825.2  152686.16  69710.36  45.66
826.5  152981.90  69837.26  45.65
827.7  153405.57  70014.58  45.64
829.0  153748.26  70165.63  45.64
830.2  154072.07  70296.47  45.63
831.5  154447.67  70466.88  45.63
832.7  154782.90  70604.12  45.61
834.0  155101.11  70739.69  45.61
835.2  155443.99  70875.48  45.60
836.4  155736.27  70997.59  45.59
837.7  156096.00  71161.59  45.59
838.9  156460.21  71333.75  45.59
840.1  156805.97  71489.14  45.59
841.4  157174.06  71645.95  45.58
842.6  157529.77  71792.74  45.57
843.8  157885.14  71941.92  45.57
845.1  158294.93  72131.36  45.57
846.3  158646.83  72290.95  45.57
847.5  158983.80  72446.64  45.57
848.8  159373.37  72617.06  45.56
850.0  159757.50  72761.71  45.55
851.2  160184.06  72958.34  45.55
852.5  160529.54  73108.39  45.54
853.7  160943.79  73298.95  45.54
854.9  161321.77  73461.34  45.54
856.1  161712.94  73626.40  45.53
857.4  162004.86  73751.40  45.52
858.6  162425.90  73928.43  45.52
859.8  162773.57  74093.27  45.52
861.0  163164.86  74270.82  45.52
862.2  163553.73  74439.22  45.51
863.5  163925.17  74587.07  45.50
864.7  164345.66  74765.90  45.49
865.9  164709.60  74922.64  45.49
867.1  165036.71  75065.34  45.48
868.3  165418.50  75250.03  45.49
869.5  165824.80  75414.65  45.48
870.8  166267.29  75602.40  45.47
872.0  166668.51  75774.20  45.46
873.2  167040.04  75929.67  45.46
874.4  167449.56  76096.80  45.44
875.6  167778.22  76239.20  45.44
876.8  168166.77  76416.77  45.44
878.0  168572.26  76587.70  45.43
879.2  168960.21  76762.57  45.43
880.4  169352.57  76930.36  45.43
881.6  169754.11  77091.05  45.41
882.8  170099.43  77238.78  45.41
884.0  170503.28  77425.95  45.41
885.2  170939.83  77581.37  45.39
886.5  171378.96  77756.59  45.37
887.7  171767.70  77933.64  45.37
888.8  172196.81  78133.43  45.37
890.0  172643.77  78291.80  45.35
891.2  173050.51  78468.54  45.34
892.4  173488.50  78653.25  45.34
893.6  173870.46  78820.73  45.33
894.8  174441.86  79054.77  45.32
896.0  175020.29  79280.90  45.30
897.2  175535.29  79509.66  45.30
898.4  175985.23  79699.66  45.29
899.6  176379.75  79854.48  45.27
900.8  176722.42  79985.95  45.26
902.0  176986.97  80077.03  45.24
903.2  177267.84  80199.98  45.24
904.3  177512.66  80320.40  45.25
905.5  177945.80  80489.18  45.23
906.7  178357.14  80649.32  45.22
907.9  178745.70  80802.03  45.21
909.1  178999.39  80893.94  45.19
910.2  179193.94  80969.81  45.19
911.4  179442.06  81077.29  45.18
912.6  179650.90  81158.94  45.18
913.8  179873.29  81250.46  45.17
915.0  180249.30  81375.77  45.15
916.2  180455.79  81436.88  45.13
917.3  180562.44  81457.43  45.11
918.5  180764.66  81549.57  45.11
919.7  180975.21  81632.62  45.11
920.8  181104.04  81674.40  45.10
922.0  181296.50  81707.91  45.07
923.2  181545.00  81769.57  45.04
924.4  181745.68  81825.75  45.02
925.5  181989.14  81891.55  45.00
926.7  182402.71  82023.82  44.97
927.9  182857.03  82242.05  44.98
929.0  183643.20  82574.04  44.96
930.2  184794.54  83018.64  44.92
931.4  185971.37  83516.14  44.91
932.5  187457.44  84063.87  44.84
933.7  188185.59  84357.28  44.83
934.9  188607.50  84504.15  44.80
936.0  188509.29  84398.55  44.77
937.2  187573.03  83953.01  44.76
938.3  186825.94  83550.86  44.72
939.5  186216.69  83205.04  44.68
940.7  186388.71  83241.62  44.66
941.8  187253.66  83535.44  44.61
943.0  188007.64  83831.24  44.59
944.2  188442.61  83970.29  44.56
945.3  188372.79  83835.92  44.51
946.5  188078.91  83610.59  44.46
947.6  188193.66  83583.81  44.41
948.8  188259.69  83516.99  44.36
949.9  188376.00  83471.69  44.31
951.1  188321.62  83289.17  44.23
952.2  188262.86  83154.93  44.17
953.4  188183.00  83038.17  44.13
954.5  188276.40  82929.60  44.05
955.7  188251.20  82804.96  43.99
956.8  188265.60  82647.05  43.90
958.0  188085.14  82454.61  43.84
959.1  188061.17  82324.42  43.78
960.3  187922.43  82187.95  43.74
961.4  187975.07  82108.14  43.68
962.6  188032.50  82106.38  43.67
963.7  188059.14  81971.26  43.59
964.9  187981.86  81926.19  43.58
966.0  187958.19  81881.66  43.56
967.2  188074.80  81904.11  43.55
968.3  188006.79  81836.15  43.53
969.5  187954.28  81760.16  43.50
970.6  188083.71  81786.17  43.48
971.8  188038.90  81779.62  43.49
972.9  188048.66  81761.32  43.48
974.0  188183.97  81793.66  43.46
975.2  188106.07  81756.29  43.46
976.3  188071.97  81683.95  43.43
977.5  187898.95  81643.78  43.45
978.6  187818.37  81624.85  43.46
979.7  187728.45  81646.30  43.49
980.9  187584.80  81597.39  43.50
982.0  187317.63  81474.18  43.50
983.2  187144.53  81350.61  43.47
984.3  186911.83  81183.30  43.43
985.4  186797.07  81154.79  43.45
986.6  186694.00  81194.15  43.49
987.7  186909.05  81303.47  43.50
988.9  186728.91  81272.60  43.52
990.0  186499.11  81316.43  43.60
993.1  198407.92  84562.07  42.62
996.9  197530.03  84479.45  42.77
1000.7  197498.70  84737.79  42.91
1004.5  197702.78  85044.83  43.02
1008.4  197684.14  85289.61  43.14
1012.2  197743.06  85524.66  43.25
1016.0  197625.60  85694.70  43.36
1019.8  197354.85  85765.68  43.46
1023.7  196765.48  85679.87  43.54
1027.5  195994.77  85509.99  43.63
1031.3  195629.62  85472.68  43.69
1035.1  195330.53  85465.24  43.75
1038.9  195434.19  85589.15  43.79
1042.7  195667.00  85774.50  43.84
1046.5  195959.33  85971.85  43.87
1050.3  196338.93  86162.69  43.88
1054.2  196506.33  86294.60  43.91
1058.0  196694.87  86385.27  43.92
1061.8  197065.24  86585.94  43.94
1065.6  197038.69  86568.08  43.93
1069.4  196849.51  86491.32  43.94
1073.2  196377.71  86264.23  43.93
1077.0  196323.47  86204.78  43.91
1080.8  196837.50  86350.52  43.87
1084.6  197415.56  86513.34  43.82
1088.4  198082.11  86757.57  43.80
1092.2  198237.00  86752.58  43.76
1096.0  198254.62  86660.55  43.71
1099.8  198172.43  86529.43  43.66
1103.6  198003.12  86344.57  43.61
1107.4  197694.85  86084.14  43.54
1111.2  197870.33  86022.35  43.47
1114.9  197930.06  85879.97  43.39
1118.7  198143.55  85753.31  43.28
1122.5  198311.82  85573.02  43.15
1126.3  198195.82  85218.70  43.00
1130.1  198359.77  84859.77  42.78
1133.9  197772.40  84024.78  42.49
1137.7  197273.20  83108.66  42.13
1141.4  196447.48  81947.07  41.71
1145.2  196206.75  80933.41  41.25
1149.0  195821.11  79935.77  40.82
1152.8  195139.77  78920.89  40.44
1156.6  194465.21  78087.63  40.16
1160.3  193839.33  77448.13  39.95
1164.1  192913.49  76829.36  39.83
1167.9  192369.44  76460.63  39.75
1171.7  191929.50  76200.07  39.70
1175.4  191356.60  75909.94  39.67
1179.2  190788.82  75611.22  39.63
1183.0  190879.56  75546.37  39.58
1186.7  191267.07  75599.51  39.53
1190.5  191500.18  75600.38  39.48
1194.3  191330.22  75457.20  39.44
1198.0  190740.92  75201.53  39.43
1201.8  190035.92  74927.16  39.43
1205.6  189714.22  74865.80  39.46
1209.3  189768.99  74990.97  39.52
1213.1  189901.90  75147.23  39.57
1216.8  189960.59  75309.70  39.64
1220.6  189632.18  75308.05  39.71
1224.3  189211.78  75268.32  39.78
1228.1  188632.67  75188.58  39.86
1231.9  187941.63  75026.99  39.92
1235.6  187183.25  74821.85  39.97
1239.4  186560.42  74680.66  40.03
1243.1  185988.79  74528.55  40.07
1246.9  185482.23  74380.27  40.10
1250.6  185095.91  74274.49  40.13
1254.3  184653.82  74128.08  40.14
1258.1  184141.14  73937.15  40.15
1261.8  183528.09  73684.88  40.15
1265.6  183139.97  73498.27  40.13
1269.3  183049.52  73408.80  40.10
1273.1  183533.16  73521.77  40.06
1276.8  183483.20  73411.32  40.01
1280.6  182826.58  73054.25  39.96
1284.3  181788.53  72502.76  39.88
1288.0  181343.62  72137.36  39.78
1291.8  181451.90  71937.59  39.65
1295.5  181381.69  71643.29  39.50
1299.2  180983.81  71188.20  39.33
1302.9  180265.84  70544.99  39.13
1306.7  179424.39  69806.38  38.91
1310.4  178592.86  69001.60  38.64
1314.1  177872.69  68187.41  38.33
1317.9  177237.92  67325.77  37.99
1321.6  176496.78  66358.72  37.60
1325.3  175696.50  65290.89  37.16
1329.0  175147.00  64283.23  36.70
1332.8  174235.60  63079.94  36.20
1336.5  173510.76  61936.87  35.70
1340.2  173658.33  61120.15  35.20
1343.9  173831.25  60311.69  34.70
1347.6  174049.40  59531.94  34.20
1351.4  175057.00  59058.10  33.74
1355.1  176407.98  58700.88  33.28
1358.8  177621.33  58252.80  32.80
1362.5  177978.92  57422.87  32.26
1366.2  177079.37  56032.43  31.64
1369.9  175397.58  54189.32  30.90
1373.6  173860.05  52093.20  29.96
1377.3  173098.00  49813.11  28.78
1381.0  173015.67  47206.67  27.28
1384.8  172141.67  43863.63  25.48
1388.4  170392.99  40023.87  23.49
1392.2  169218.11  36166.59  21.37
1395.9  168518.90  32455.43  19.26
1399.6  167663.82  28991.52  17.29
