/*** Spectra Vista SIG Data ***/
name= 31_20220721_TITO_37_avg.sig
comm= Averaged Ref/Tar of files: HR.072122.0015_moc.sig,HR.072122.0016_moc.sig,HR.072122.0017_moc.sig
data=
337.3  3374.50  304.37  9.02
338.8  3511.30  295.01  8.40
340.3  3654.30  287.35  7.86
341.8  3886.63  280.45  7.22
343.2  4040.40  272.32  6.74
344.7  4222.35  272.96  6.46
346.2  4370.95  277.78  6.36
347.7  4601.03  277.90  6.04
349.2  4762.80  277.20  5.82
350.6  5031.33  274.21  5.45
352.1  5323.03  276.27  5.19
353.6  5586.70  268.35  4.80
355.1  5893.13  273.89  4.65
356.6  6161.70  275.31  4.47
358.0  6411.90  289.23  4.51
359.5  6736.20  296.64  4.40
361.0  7032.38  291.27  4.14
362.5  7377.30  304.46  4.13
364.0  7713.58  313.51  4.06
365.4  8064.70  322.21  4.00
366.9  8398.00  331.50  3.95
368.4  8755.28  338.21  3.86
369.9  9134.45  345.92  3.79
371.3  9531.90  359.56  3.77
372.8  9929.70  371.70  3.74
374.3  10293.13  369.08  3.59
375.8  10726.10  380.89  3.55
377.2  11136.60  390.95  3.51
378.7  11513.20  401.71  3.49
380.2  11916.70  408.88  3.43
381.7  12404.48  417.99  3.37
383.1  12855.15  416.83  3.24
384.6  13352.63  428.00  3.21
386.1  13782.75  436.00  3.16
387.6  14229.60  449.17  3.16
389.0  14686.40  471.68  3.21
390.5  15160.05  474.36  3.13
392.0  15684.85  490.21  3.13
393.4  16237.95  486.96  3.00
394.9  16756.20  504.60  3.01
396.4  17284.50  517.50  2.99
397.9  17809.38  533.00  2.99
399.3  18360.63  553.77  3.02
400.8  18893.15  558.32  2.96
402.2  19492.70  572.83  2.94
403.7  20078.55  574.59  2.86
405.2  20668.28  593.45  2.87
406.6  21228.00  606.29  2.86
408.1  21809.00  626.77  2.87
409.6  22410.95  635.09  2.83
411.0  23036.65  651.89  2.83
412.5  23657.20  658.07  2.78
414.0  24287.00  673.73  2.77
415.4  24982.88  691.65  2.77
416.9  25616.48  717.03  2.80
418.4  26313.08  729.57  2.77
419.8  26990.60  749.84  2.78
421.3  27682.23  767.66  2.77
422.7  28449.00  786.48  2.76
424.2  29210.63  812.25  2.78
425.7  29943.10  832.39  2.78
427.1  30653.03  858.77  2.80
428.6  31418.50  880.40  2.80
430.0  32125.48  898.36  2.80
431.5  32969.33  921.37  2.79
432.9  33812.20  941.51  2.78
434.4  34680.83  968.37  2.79
435.9  35476.00  991.20  2.79
437.3  36272.50  1013.83  2.80
438.8  37086.90  1042.56  2.81
440.2  37918.65  1067.22  2.81
441.7  38846.60  1095.23  2.82
443.1  39723.50  1118.30  2.82
444.6  40649.30  1145.81  2.82
446.0  41545.95  1174.67  2.83
447.5  42458.63  1204.61  2.84
448.9  43369.80  1231.52  2.84
450.4  44327.85  1260.47  2.84
451.8  45162.00  1287.87  2.85
453.3  46050.15  1319.70  2.87
454.7  47021.58  1350.88  2.87
456.2  47861.28  1377.16  2.88
457.6  48812.18  1403.61  2.88
459.1  49742.23  1428.44  2.87
460.5  50651.13  1453.42  2.87
462.0  51651.98  1487.75  2.88
463.4  52635.40  1516.13  2.88
464.8  53599.13  1544.75  2.88
466.3  54557.25  1570.80  2.88
467.7  55511.80  1597.04  2.88
469.2  56539.28  1628.95  2.88
470.6  57464.50  1654.15  2.88
472.0  58467.55  1683.37  2.88
473.5  59423.88  1715.72  2.89
474.9  60405.75  1744.20  2.89
476.4  61531.20  1779.84  2.89
477.8  62567.50  1809.60  2.89
479.2  63553.50  1838.60  2.89
480.7  64616.40  1868.24  2.89
482.1  65689.70  1901.62  2.89
483.6  66845.70  1936.30  2.90
485.0  67887.75  1972.46  2.91
486.4  69039.75  2009.84  2.91
487.9  70083.00  2041.65  2.91
489.3  71210.10  2081.13  2.92
490.7  72240.85  2118.44  2.93
492.2  73441.20  2157.96  2.94
493.6  74495.25  2201.41  2.96
495.0  75567.38  2246.40  2.97
496.5  76691.55  2289.30  2.99
497.9  77762.83  2336.26  3.00
499.3  78892.80  2391.05  3.03
500.7  80091.55  2451.43  3.06
502.2  81190.60  2513.15  3.10
503.6  82373.20  2579.33  3.13
505.0  83402.45  2654.58  3.18
506.5  84645.98  2746.18  3.24
507.9  85821.93  2840.47  3.31
509.3  87172.00  2956.05  3.39
510.7  88393.50  3075.15  3.48
512.2  89730.53  3215.38  3.58
513.6  91136.85  3380.86  3.71
515.0  92490.95  3565.73  3.86
516.4  93781.80  3772.44  4.02
517.8  95329.63  4011.50  4.21
519.3  96596.73  4261.91  4.41
520.7  98083.05  4540.96  4.63
522.1  99334.30  4831.62  4.86
523.5  100649.90  5135.59  5.10
524.9  102044.25  5451.66  5.34
526.3  103391.75  5761.05  5.57
527.8  104796.45  6068.70  5.79
529.2  105894.30  6361.31  6.01
530.6  107363.50  6666.27  6.21
532.0  108990.00  6947.73  6.37
533.4  110283.30  7182.08  6.51
534.8  111222.25  7370.73  6.63
536.3  112836.30  7586.92  6.72
537.7  114697.80  7812.00  6.81
539.1  116052.20  7984.96  6.88
540.5  117210.35  8132.95  6.94
541.9  118868.63  8305.30  6.99
543.3  120125.35  8454.38  7.04
544.7  121353.00  8598.64  7.09
546.1  123044.08  8776.46  7.13
547.5  124230.40  8918.19  7.18
549.0  125928.00  9087.47  7.22
550.4  127372.50  9229.58  7.25
551.8  128826.00  9347.60  7.26
553.2  130309.00  9442.86  7.25
554.6  131580.80  9495.89  7.22
556.0  133038.90  9528.90  7.16
557.4  134576.05  9536.17  7.09
558.8  136143.90  9512.34  6.99
560.2  137531.00  9449.55  6.87
561.6  139132.05  9379.72  6.74
563.0  140626.88  9278.06  6.60
564.4  142129.60  9150.37  6.44
565.8  143596.88  9004.33  6.27
567.2  145243.25  8853.70  6.10
568.6  146703.75  8673.90  5.91
570.0  148063.73  8484.41  5.73
571.4  149727.50  8316.97  5.55
572.8  151389.00  8158.33  5.39
574.2  152936.00  8004.27  5.23
575.6  154406.25  7866.00  5.09
577.0  155860.90  7742.76  4.97
578.4  157521.00  7650.07  4.86
579.8  158951.70  7559.73  4.76
581.2  160591.55  7491.34  4.66
582.5  161939.70  7425.60  4.59
583.9  163406.40  7374.21  4.51
585.3  165125.48  7347.39  4.45
586.7  166522.20  7312.80  4.39
588.1  167943.38  7292.78  4.34
589.5  169515.50  7284.67  4.30
590.9  171070.40  7282.93  4.26
592.3  172813.50  7304.10  4.23
593.7  174192.53  7317.70  4.20
595.0  175740.98  7344.45  4.18
596.4  177117.15  7364.23  4.16
597.8  178526.05  7381.27  4.13
599.2  180008.40  7400.80  4.11
600.6  181673.05  7422.91  4.09
602.0  182915.63  7419.55  4.06
603.3  184632.30  7425.40  4.02
604.7  186226.15  7417.32  3.98
606.1  187652.40  7389.44  3.94
607.5  189198.98  7363.54  3.89
608.9  190813.05  7330.35  3.84
610.2  192142.13  7285.95  3.79
611.6  193659.68  7246.54  3.74
613.0  195147.25  7207.66  3.69
614.4  196468.65  7164.42  3.65
615.8  197847.00  7125.30  3.60
617.1  199302.60  7105.00  3.56
618.5  200836.00  7090.19  3.53
619.9  202278.53  7084.40  3.50
621.3  203829.08  7087.26  3.48
622.6  205341.25  7104.47  3.46
624.0  206721.00  7119.36  3.44
625.4  208101.30  7141.53  3.43
626.8  209620.78  7172.62  3.42
628.1  210876.33  7206.06  3.42
629.5  212660.23  7255.58  3.41
630.9  214216.75  7300.48  3.41
632.2  215531.58  7337.73  3.40
633.6  217093.63  7368.32  3.39
635.0  218560.40  7384.53  3.38
636.3  220004.10  7392.87  3.36
637.7  221305.38  7380.90  3.34
639.1  222880.00  7371.00  3.31
640.4  224295.75  7343.37  3.27
641.8  225450.60  7315.38  3.24
643.2  226970.80  7291.71  3.21
644.5  228252.75  7263.50  3.18
645.9  229887.00  7249.62  3.15
647.2  231780.33  7253.59  3.13
648.6  233624.25  7268.40  3.11
650.0  235029.60  7280.64  3.10
651.3  235394.23  7264.44  3.09
652.7  236216.40  7271.51  3.08
654.0  238137.10  7312.73  3.07
655.4  239661.33  7333.55  3.06
656.8  240097.90  7306.37  3.04
658.1  241346.40  7303.35  3.03
659.5  243516.53  7332.36  3.01
660.8  245137.50  7362.00  3.00
662.2  245974.40  7365.12  2.99
663.5  247481.95  7392.19  2.99
664.9  248801.80  7410.87  2.98
666.2  249550.20  7423.68  2.97
667.6  251156.25  7477.39  2.98
668.9  252257.48  7544.37  2.99
670.3  253285.00  7607.50  3.00
671.6  254813.63  7705.40  3.02
673.0  255919.88  7805.70  3.05
674.3  257111.40  7911.80  3.08
675.7  258387.88  8029.41  3.11
677.0  259498.55  8149.25  3.14
678.4  260820.05  8301.96  3.18
679.7  261855.23  8460.54  3.23
681.1  263067.78  8626.91  3.28
682.4  264161.30  8801.69  3.33
683.8  265398.90  8987.33  3.39
685.1  266362.88  9162.70  3.44
686.4  267665.40  9368.40  3.50
687.8  268913.50  9606.07  3.57
689.1  269914.75  9884.93  3.66
690.5  271194.90  10248.22  3.78
691.8  271992.45  10719.08  3.94
693.1  273249.60  11376.34  4.16
694.5  274410.50  12248.60  4.46
695.8  275570.75  13386.10  4.86
697.1  276731.00  14820.87  5.36
698.5  277734.50  16613.37  5.98
699.8  278789.13  18765.83  6.73
701.1  279877.53  21308.45  7.61
702.5  280634.75  24167.59  8.61
703.8  281565.00  27369.00  9.72
705.1  282667.13  30889.69  10.93
706.5  283692.63  34672.30  12.22
707.8  284649.60  38698.28  13.60
709.1  285514.43  42917.58  15.03
710.5  286608.35  47376.63  16.53
711.8  287447.00  51967.92  18.08
713.1  288428.20  56763.91  19.68
714.4  289320.20  61681.80  21.32
715.8  290123.00  66709.71  22.99
717.1  291421.65  71949.12  24.69
718.4  292320.00  77172.48  26.40
719.7  293388.65  82501.23  28.12
721.0  293895.00  87702.00  29.84
722.4  294660.85  92963.13  31.55
723.7  295582.50  98246.64  33.24
725.0  296606.70  103501.77  34.90
726.3  297523.88  108613.52  36.51
727.6  298094.50  113485.90  38.07
729.0  298987.85  118341.91  39.58
730.3  299739.45  122981.13  41.03
731.6  300625.90  127497.85  42.41
732.9  301411.25  131792.36  43.73
734.2  302192.00  135899.13  44.97
735.5  303213.73  139898.47  46.14
736.8  303976.20  143580.92  47.23
738.1  304796.70  147077.41  48.25
739.5  305717.05  150429.74  49.21
740.8  306378.05  153471.30  50.09
742.1  307135.68  156369.89  50.91
743.4  307875.00  159076.67  51.67
744.7  308872.08  161740.98  52.37
746.0  309726.30  164139.56  53.00
747.3  310281.90  166211.99  53.57
748.6  310982.75  168212.73  54.09
749.9  311740.00  170074.67  54.56
751.2  312518.65  171822.93  54.98
752.5  313433.90  173517.45  55.36
753.8  314021.23  174931.96  55.71
755.1  314704.00  176269.60  56.01
756.4  315284.55  177430.03  56.28
757.7  316237.60  178697.19  56.51
759.0  317978.13  180333.59  56.71
760.3  319123.20  181558.08  56.89
761.6  320689.60  182951.25  57.05
762.9  321214.00  183708.30  57.19
764.2  321616.40  184315.21  57.31
765.5  321894.78  184832.98  57.42
766.8  322374.40  185380.69  57.50
768.1  322909.00  185947.36  57.59
769.3  323505.00  186515.84  57.65
770.6  324164.10  187101.03  57.72
771.9  324885.93  187701.85  57.77
773.2  325293.60  188087.52  57.82
774.5  325925.60  188580.77  57.86
775.8  326639.70  189109.83  57.90
777.1  327237.90  189556.62  57.93
778.4  327588.53  189861.87  57.96
779.6  328372.08  190406.46  57.98
780.9  328830.00  190776.00  58.02
782.2  329301.50  191123.53  58.04
783.5  329644.00  191393.60  58.06
784.8  330197.40  191772.60  58.08
786.0  330626.10  192091.67  58.10
787.3  331022.58  192387.79  58.12
788.6  331489.20  192706.74  58.13
789.9  332014.20  193036.85  58.14
791.2  332655.90  193460.75  58.16
792.4  333311.30  193914.98  58.18
793.7  333799.60  194245.49  58.19
795.0  334461.60  194660.62  58.20
796.2  335131.20  195091.63  58.21
797.5  335894.93  195566.57  58.22
798.8  336610.10  195996.60  58.23
800.0  337271.45  196431.31  58.24
801.3  337751.60  196764.25  58.26
802.6  338363.55  197150.13  58.27
803.8  339036.00  197577.69  58.28
805.1  339565.63  197902.48  58.28
806.4  340042.50  198211.44  58.29
807.7  340580.70  198582.30  58.31
808.9  341163.05  198956.60  58.32
810.2  341672.45  199300.36  58.33
811.4  342213.40  199639.19  58.34
812.7  342834.38  200037.50  58.35
814.0  343725.95  200565.10  58.35
815.2  344312.25  200967.80  58.37
816.5  344752.63  201262.82  58.38
817.7  345199.60  201583.54  58.40
819.0  345731.65  201944.01  58.41
820.2  345928.00  202100.80  58.42
821.5  346617.95  202556.21  58.44
822.7  346987.60  202813.89  58.45
824.0  347325.30  203049.36  58.46
825.2  347775.53  203389.92  58.48
826.5  348085.83  203629.18  58.50
827.7  348661.50  203971.78  58.50
829.0  349114.63  204261.70  58.51
830.2  349413.70  204479.05  58.52
831.5  349896.55  204812.60  58.54
832.7  350211.23  205030.84  58.54
834.0  350540.33  205279.28  58.56
835.2  350919.53  205547.83  58.57
836.4  351203.05  205781.62  58.59
837.7  351595.40  206082.85  58.61
838.9  352039.40  206384.38  58.63
840.1  352397.25  206672.49  58.65
841.4  352893.80  206987.03  58.65
842.6  353215.80  207263.09  58.68
843.8  353592.40  207537.76  58.69
845.1  354022.75  207891.18  58.72
846.3  354469.80  208170.37  58.73
847.5  354925.20  208472.88  58.74
848.8  355288.20  208752.16  58.76
850.0  355601.40  209008.75  58.78
851.2  356081.40  209368.08  58.80
852.5  356543.50  209669.44  58.81
853.7  356982.75  210009.30  58.83
854.9  357468.80  210303.76  58.83
856.1  357914.70  210615.77  58.85
857.4  358116.00  210763.93  58.85
858.6  358558.95  211085.02  58.87
859.8  359015.63  211371.75  58.88
861.0  359424.00  211704.48  58.90
862.2  359923.80  212021.46  58.91
863.5  360274.20  212247.66  58.91
864.7  360822.00  212563.12  58.91
865.9  361201.40  212820.85  58.92
867.1  361481.25  213047.78  58.94
868.3  361899.75  213362.42  58.96
869.5  362363.50  213716.29  58.98
870.8  362992.50  214036.80  58.96
872.0  363504.83  214344.90  58.97
873.2  363944.55  214620.74  58.97
874.4  364390.65  214906.77  58.98
875.6  364731.30  215158.49  58.99
876.8  365263.85  215475.29  58.99
878.0  365710.35  215784.62  59.00
879.2  366304.80  216113.22  59.00
880.4  366779.25  216421.50  59.01
881.6  367224.65  216714.98  59.01
882.8  367652.00  216990.29  59.02
884.0  368290.05  217337.88  59.01
885.2  368778.50  217659.71  59.02
886.5  369527.15  218037.90  59.00
887.7  370002.75  218340.63  59.01
888.8  370667.78  218731.41  59.01
890.0  371186.75  219081.85  59.02
891.2  371707.90  219457.89  59.04
892.4  372402.98  219811.83  59.03
893.6  372970.85  220179.02  59.03
894.8  373893.75  220719.50  59.03
896.0  374867.25  221208.40  59.01
897.2  375596.00  221703.73  59.03
898.4  376361.70  222113.76  59.02
899.6  376962.38  222458.70  59.01
900.8  377316.08  222727.88  59.03
902.0  377640.45  222912.32  59.03
903.2  378101.10  223112.93  59.01
904.3  378413.70  223326.84  59.02
905.5  379029.03  223699.03  59.02
906.7  379657.50  224064.13  59.02
907.9  380340.45  224419.67  59.00
909.1  380686.50  224643.96  59.01
910.2  380973.23  224754.86  58.99
911.4  381241.58  224931.33  59.00
912.6  381423.90  225061.98  59.01
913.8  381751.05  225238.87  59.00
915.0  382222.05  225493.10  59.00
916.2  382404.75  225682.60  59.02
917.3  382598.55  225704.88  58.99
918.5  382884.30  225818.91  58.98
919.7  383205.15  225967.82  58.97
920.8  383245.03  226036.08  58.98
922.0  383498.50  226110.50  58.96
923.2  383701.50  226262.40  58.97
924.4  383990.63  226399.95  58.96
925.5  384281.70  226556.44  58.96
926.7  385124.38  226831.85  58.90
927.9  385792.80  227272.64  58.91
929.0  387298.80  228062.88  58.89
930.2  389359.40  229252.73  58.88
931.4  391643.10  230572.98  58.87
932.5  394349.45  232069.72  58.85
933.7  395763.30  232826.93  58.83
934.9  396593.75  233143.17  58.79
936.0  396197.75  232904.32  58.78
937.2  394432.80  231674.12  58.74
938.3  392969.65  230667.00  58.70
939.5  391528.80  229818.72  58.70
940.7  391760.10  229818.84  58.66
941.8  393127.43  230625.40  58.66
943.0  394529.25  231352.00  58.64
944.2  395619.90  231673.26  58.56
945.3  395323.50  231340.20  58.52
946.5  394815.60  230809.50  58.46
947.6  394939.70  230772.43  58.43
948.8  394840.88  230579.31  58.40
949.9  394997.40  230484.24  58.35
951.1  394833.73  230175.96  58.30
952.2  394944.00  229785.60  58.18
953.4  394811.25  229494.83  58.13
954.5  394875.00  229160.88  58.03
955.7  394770.60  228908.40  57.99
956.8  394616.90  228591.63  57.93
958.0  394270.00  228174.53  57.87
959.1  394115.85  227952.15  57.84
960.3  393947.18  227644.59  57.79
961.4  393809.45  227482.23  57.76
962.6  394149.00  227506.77  57.72
963.7  393991.95  227367.21  57.71
964.9  394109.25  227227.83  57.66
966.0  393992.10  227171.25  57.66
967.2  393847.65  227204.22  57.69
968.3  394000.20  227065.68  57.63
969.5  393921.18  227089.45  57.65
970.6  394109.63  227053.34  57.61
971.8  394043.30  227163.77  57.65
972.9  394027.95  227174.91  57.65
974.0  394664.90  227174.03  57.56
975.2  394340.50  227143.77  57.60
976.3  394736.03  227257.05  57.57
977.5  394436.53  227257.96  57.62
978.6  394898.70  227256.80  57.55
979.7  394994.25  227199.56  57.52
980.9  394559.38  227206.08  57.58
982.0  394998.85  227368.31  57.56
983.2  394434.10  227327.56  57.63
984.3  394255.00  227380.91  57.67
985.4  394588.15  227572.83  57.67
986.6  394882.38  227553.78  57.63
987.7  395900.58  228278.75  57.66
988.9  395715.60  227961.60  57.61
990.0  396596.50  228400.77  57.59
993.1  343253.05  197341.21  57.49
996.9  343990.65  198331.12  57.66
1000.7  345055.20  199460.52  57.81
1004.5  345615.17  200262.04  57.94
1008.4  345419.00  200628.44  58.08
1012.2  345496.67  201138.96  58.22
1016.0  345625.80  201664.93  58.35
1019.8  345916.73  202205.85  58.46
1023.7  345952.12  202591.64  58.56
1027.5  345735.92  202804.63  58.66
1031.3  345961.68  203226.88  58.74
1035.1  345906.69  203416.01  58.81
1038.9  345887.67  203616.48  58.87
1042.7  345691.33  203684.72  58.92
1046.5  345598.67  203772.26  58.96
1050.3  345614.91  203921.93  59.00
1054.2  345339.17  203878.24  59.04
1058.0  344884.63  203705.21  59.06
1061.8  344754.21  203710.06  59.09
1065.6  344482.33  203579.28  59.10
1069.4  344506.33  203648.74  59.11
1073.2  344125.64  203449.58  59.12
1077.0  343756.23  203189.19  59.11
1080.8  343287.50  202865.74  59.09
1084.6  342294.40  202189.79  59.07
1088.4  341691.64  201728.90  59.04
1092.2  340908.75  201175.00  59.01
1096.0  340401.62  200732.88  58.97
1099.8  339947.18  200310.64  58.92
1103.6  339309.85  199796.19  58.88
1107.4  338429.60  199101.27  58.83
1111.2  338161.60  198756.73  58.78
1114.9  337499.17  198137.20  58.71
1118.7  336827.70  197478.05  58.63
1122.5  336128.87  196699.82  58.52
1126.3  335068.59  195571.46  58.37
1130.1  334593.55  194571.10  58.15
1133.9  333125.80  192701.76  57.85
1137.7  331864.10  190636.89  57.44
1141.4  330261.97  188123.34  56.96
1145.2  329592.26  186021.93  56.44
1149.0  328588.75  183810.93  55.94
1152.8  327128.75  181588.17  55.51
1156.6  325615.03  179710.59  55.19
1160.3  324022.67  178130.81  54.97
1164.1  321770.20  176467.13  54.84
1167.9  320131.25  175305.79  54.76
1171.7  318984.75  174520.50  54.71
1175.4  317943.47  173854.50  54.68
1179.2  317010.53  173240.89  54.65
1183.0  316778.33  172977.04  54.61
1186.7  316288.23  172560.37  54.56
1190.5  315286.60  171899.30  54.52
1194.3  314174.67  171240.04  54.50
1198.0  313067.70  170649.85  54.51
1201.8  311700.95  169973.65  54.53
1205.6  310589.67  169514.96  54.58
1209.3  309686.43  169249.45  54.65
1213.1  308738.70  169016.83  54.74
1216.8  307779.82  168814.98  54.85
1220.6  306747.47  168587.79  54.96
1224.3  305567.92  168276.02  55.07
1228.1  304444.20  168021.24  55.19
1231.9  303296.55  167699.03  55.29
1235.6  301971.83  167228.75  55.38
1239.4  300737.88  166793.08  55.46
1243.1  299618.64  166358.75  55.52
1246.9  298488.87  165895.87  55.58
1250.6  297603.67  165520.68  55.62
1254.3  296636.18  165075.05  55.65
1258.1  295748.60  164637.53  55.67
1261.8  294592.80  164027.52  55.68
1265.6  293285.13  163295.13  55.68
1269.3  291939.33  162472.48  55.65
1273.1  291891.46  162333.54  55.61
1276.8  292116.80  162327.20  55.57
1280.6  292014.07  162095.47  55.51
1284.3  290739.20  161179.20  55.44
1288.0  289394.02  160135.61  55.33
1291.8  288192.13  159088.93  55.20
1295.5  286915.20  157948.92  55.05
1299.2  285681.85  156774.86  54.88
1302.9  284305.79  155431.25  54.67
1306.7  282853.32  153952.92  54.43
1310.4  281479.43  152371.30  54.13
1314.1  280184.48  150743.06  53.80
1317.9  279072.92  149058.57  53.41
1321.6  277779.63  147163.36  52.98
1325.3  276272.85  145019.82  52.49
1329.0  275023.58  142933.13  51.97
1332.8  273072.80  140376.14  51.41
1336.5  271334.47  137898.71  50.82
1340.2  270922.17  136085.44  50.23
1343.9  270312.92  134184.81  49.64
1347.6  269293.50  132124.97  49.06
1351.4  268894.00  130410.11  48.50
1355.1  268506.33  128722.57  47.94
1358.8  268096.00  126951.11  47.35
1362.5  267405.10  124903.35  46.71
