/*** Spectra Vista SIG Data ***/
name= 28_20220926_ACRU_27_avg.sig
comm= Averaged Ref/Tar of files: HR.092722.0003_moc.sig,HR.092722.0004_moc.sig,HR.092722.0005_moc.sig
data=
337.3  6317.33  427.84  6.77
338.8  6541.60  410.45  6.27
340.3  6994.85  403.31  5.77
341.8  7167.28  387.09  5.40
343.2  7638.95  390.83  5.12
344.7  8072.25  400.75  4.96
346.2  8389.50  394.80  4.71
347.7  8785.65  379.92  4.32
349.2  9072.00  383.04  4.22
350.6  9496.50  389.60  4.10
352.1  10046.50  415.07  4.13
353.6  10664.00  403.63  3.78
355.1  11176.20  399.15  3.57
356.6  11778.58  399.13  3.39
358.0  12285.05  430.61  3.51
359.5  12804.75  447.15  3.49
361.0  13520.40  458.59  3.39
362.5  14130.38  469.09  3.32
364.0  14822.65  490.32  3.31
365.4  15546.33  494.24  3.18
366.9  16198.33  512.86  3.17
368.4  16943.65  527.37  3.11
369.9  17649.00  565.33  3.20
371.3  18541.33  595.28  3.21
372.8  19273.45  616.47  3.20
374.3  20093.20  631.20  3.14
375.8  20918.70  640.94  3.06
377.2  21744.45  652.86  3.00
378.7  22544.90  667.22  2.96
380.2  23409.90  681.91  2.91
381.7  24265.00  682.23  2.81
383.1  25308.00  703.00  2.78
384.6  26287.50  701.00  2.67
386.1  27206.10  731.12  2.69
387.6  28075.05  743.06  2.65
389.0  29095.88  768.90  2.64
390.5  30070.45  804.65  2.68
392.0  31101.75  821.10  2.64
393.4  32212.13  835.70  2.59
394.9  33237.70  848.33  2.55
396.4  34357.40  883.81  2.57
397.9  35470.80  915.16  2.58
399.3  36401.85  933.89  2.57
400.8  37577.10  960.52  2.56
402.2  38758.50  976.14  2.52
403.7  40001.40  1001.60  2.50
405.2  41121.20  1020.35  2.48
406.6  42355.50  1063.04  2.51
408.1  43408.65  1097.69  2.53
409.6  44571.55  1129.26  2.53
411.0  45760.55  1173.77  2.57
412.5  47159.65  1205.69  2.56
414.0  48504.23  1244.72  2.57
415.4  49768.20  1279.68  2.57
416.9  51071.53  1320.88  2.59
418.4  52380.65  1375.51  2.63
419.8  53696.65  1423.43  2.65
421.3  55162.80  1469.16  2.66
422.7  56615.00  1514.24  2.67
424.2  58110.08  1560.09  2.68
425.7  59518.25  1614.98  2.71
427.1  61031.60  1665.99  2.73
428.6  62512.05  1721.43  2.75
430.0  63999.38  1765.50  2.76
431.5  65659.75  1808.78  2.75
432.9  67305.50  1861.40  2.77
434.4  68979.80  1925.96  2.79
435.9  70622.60  1987.33  2.81
437.3  72313.50  2034.15  2.81
438.8  73937.85  2087.99  2.82
440.2  75617.50  2145.10  2.84
441.7  77489.83  2205.35  2.85
443.1  79284.15  2264.04  2.86
444.6  81065.33  2323.15  2.87
446.0  82847.80  2390.48  2.89
447.5  84800.00  2456.67  2.90
448.9  86564.53  2519.09  2.91
450.4  88425.00  2590.00  2.93
451.8  90249.00  2659.90  2.95
453.3  92076.83  2719.59  2.95
454.7  93869.10  2786.58  2.97
456.2  95633.65  2851.38  2.98
457.6  97546.95  2913.84  2.99
459.1  99375.68  2977.24  3.00
460.5  101208.18  3037.02  3.00
462.0  103251.60  3104.16  3.01
463.4  105224.35  3163.95  3.01
464.8  107180.33  3234.42  3.02
466.3  109085.18  3299.54  3.02
467.7  111084.80  3365.55  3.03
469.2  112998.30  3424.52  3.03
470.6  115037.13  3493.70  3.04
472.0  117097.08  3550.87  3.03
473.5  119082.65  3622.12  3.04
474.9  121247.55  3695.37  3.05
476.4  123320.80  3765.97  3.05
477.8  125412.00  3834.13  3.06
479.2  127457.70  3912.29  3.07
480.7  129580.20  3983.64  3.07
482.1  131778.08  4058.43  3.08
483.6  134003.70  4136.64  3.09
485.0  136238.25  4222.36  3.10
486.4  138353.60  4312.32  3.12
487.9  140572.00  4407.00  3.14
489.3  142721.93  4513.89  3.16
490.7  144895.85  4624.07  3.19
492.2  147124.38  4744.30  3.22
493.6  149367.40  4886.47  3.27
495.0  151667.10  5044.26  3.33
496.5  153827.10  5205.06  3.38
497.9  156147.63  5379.90  3.45
499.3  158417.63  5591.77  3.53
500.7  160715.70  5833.57  3.63
502.2  163084.05  6096.60  3.74
503.6  165364.80  6403.28  3.87
505.0  167627.35  6760.23  4.03
506.5  170100.90  7164.15  4.21
507.9  172537.48  7639.02  4.43
509.3  174793.28  8157.21  4.67
510.7  177397.35  8765.25  4.94
512.2  180019.13  9451.82  5.25
513.6  182846.38  10236.07  5.60
515.0  185566.15  11099.90  5.98
516.4  188429.80  12066.96  6.40
517.8  191240.50  13119.97  6.86
519.3  194153.60  14267.31  7.35
520.7  196800.20  15465.07  7.86
522.1  199453.15  16720.90  8.38
523.5  201965.43  18004.94  8.91
524.9  204899.25  19321.38  9.43
526.3  207534.83  20590.20  9.92
527.8  210307.88  21854.23  10.39
529.2  212803.20  23089.92  10.85
530.6  215555.40  24295.32  11.27
532.0  218389.60  25446.42  11.65
533.4  220836.75  26463.80  11.98
534.8  223295.33  27409.58  12.28
536.3  226169.45  28341.39  12.53
537.7  229162.50  29203.47  12.74
539.1  232030.50  30013.71  12.94
540.5  234825.00  30779.90  13.11
541.9  237724.70  31527.32  13.26
543.3  240260.20  32227.96  13.41
544.7  243188.00  32964.80  13.56
546.1  245969.50  33684.19  13.69
547.5  248875.20  34387.20  13.82
549.0  251856.00  35090.24  13.93
550.4  254688.53  35730.24  14.03
551.8  257593.88  36303.06  14.09
553.2  260439.08  36774.99  14.12
554.6  263236.45  37124.58  14.10
556.0  266113.05  37367.68  14.04
557.4  269187.30  37520.79  13.94
558.8  272016.10  37546.67  13.80
560.2  275160.00  37525.33  13.64
561.6  278018.68  37376.97  13.44
563.0  280770.10  37127.05  13.22
564.4  283915.80  36856.68  12.98
565.8  286893.05  36485.53  12.72
567.2  290028.90  36054.44  12.43
568.6  292970.93  35527.86  12.13
570.0  295792.25  34898.50  11.80
571.4  299105.23  34292.46  11.47
572.8  302232.20  33649.36  11.13
574.2  305052.30  33002.13  10.82
575.6  308069.75  32420.20  10.52
577.0  311036.83  31898.09  10.26
578.4  314387.50  31465.00  10.01
579.8  317416.43  31055.11  9.78
581.2  320400.00  30696.10  9.58
582.5  323257.50  30372.00  9.40
583.9  326267.10  30091.12  9.22
585.3  329118.80  29843.28  9.07
586.7  332062.50  29635.76  8.92
588.1  334984.10  29472.95  8.80
589.5  338248.65  29390.40  8.69
590.9  341150.18  29317.46  8.59
592.3  344055.83  29284.83  8.51
593.7  346996.13  29293.79  8.44
595.0  349885.80  29329.76  8.38
596.4  353125.50  29408.88  8.33
597.8  355742.30  29433.93  8.27
599.2  358778.55  29487.12  8.22
600.6  361911.83  29506.73  8.15
602.0  364863.60  29460.16  8.07
603.3  367718.00  29341.87  7.98
604.7  370690.38  29176.19  7.87
606.1  373641.68  28938.94  7.75
607.5  376902.68  28667.02  7.61
608.9  379941.10  28326.25  7.46
610.2  383082.98  27958.26  7.30
611.6  385962.50  27555.00  7.14
613.0  388732.23  27133.53  6.98
614.4  391424.73  26714.92  6.83
615.8  394608.30  26346.56  6.68
617.1  397295.10  25997.11  6.54
618.5  400508.25  25726.52  6.42
619.9  403191.45  25490.86  6.32
621.3  406078.08  25322.87  6.24
622.6  408944.25  25213.50  6.17
624.0  411580.13  25145.70  6.11
625.4  414644.03  25158.74  6.07
626.8  417557.40  25218.01  6.04
628.1  420306.95  25306.26  6.02
629.5  422987.95  25416.02  6.01
630.9  425698.15  25527.10  6.00
632.2  428589.28  25608.29  5.98
633.6  430926.60  25590.37  5.94
635.0  433753.15  25509.46  5.88
636.3  436715.70  25328.01  5.80
637.7  439390.13  25024.85  5.70
639.1  442323.20  24625.70  5.57
640.4  444948.13  24141.58  5.43
641.8  447712.20  23616.24  5.27
643.2  450255.60  23033.33  5.12
644.5  453075.00  22451.33  4.96
645.9  455590.80  21855.73  4.80
647.2  457845.85  21320.79  4.66
648.6  460323.20  20900.27  4.54
650.0  463017.60  20573.04  4.44
651.3  465993.95  20328.86  4.36
652.7  470067.75  20142.60  4.29
654.0  472922.25  19907.90  4.21
655.4  475054.65  19637.80  4.13
656.8  476579.78  19329.87  4.06
658.1  479194.28  19033.56  3.97
659.5  482371.20  18673.92  3.87
660.8  485173.50  18281.90  3.77
662.2  487842.63  17885.42  3.67
663.5  490560.28  17513.04  3.57
664.9  492282.08  17178.31  3.49
666.2  494423.48  16910.79  3.42
667.6  496883.25  16723.80  3.37
668.9  499478.40  16629.12  3.33
670.3  502623.63  16595.48  3.30
671.6  504560.00  16620.80  3.29
673.0  506807.20  16705.60  3.30
674.3  509174.05  16849.65  3.31
675.7  511660.80  17066.64  3.34
677.0  513836.03  17306.62  3.37
678.4  515979.40  17622.72  3.42
679.7  518227.43  18004.74  3.47
681.1  520682.15  18464.99  3.55
682.4  522822.75  19040.50  3.64
683.8  525026.25  19769.35  3.77
685.1  527186.55  20692.96  3.93
686.4  529292.40  21894.90  4.14
687.8  531645.15  23522.46  4.42
689.1  534006.20  25694.01  4.81
690.5  535967.80  28589.52  5.33
691.8  538435.43  32461.84  6.03
693.1  540792.00  37427.40  6.92
694.5  543059.90  43472.76  8.01
695.8  545419.70  50534.68  9.27
697.1  547648.40  58505.56  10.68
698.5  549893.13  67263.93  12.23
699.8  552150.40  76608.11  13.87
701.1  553968.98  86266.88  15.57
702.5  555937.38  96095.87  17.29
703.8  558242.63  105978.73  18.98
705.1  560043.85  115572.96  20.64
706.5  562257.98  125015.14  22.23
707.8  564014.73  134134.74  23.78
709.1  566209.00  143066.73  25.27
710.5  568274.20  151734.83  26.70
711.8  570137.00  160114.80  28.08
713.1  571943.00  168290.53  29.42
714.4  573953.50  176322.19  30.72
715.8  576171.20  184251.88  31.98
717.1  578339.45  191988.73  33.20
718.4  580490.85  199538.14  34.37
719.7  582589.80  206870.91  35.51
721.0  584236.08  213841.23  36.60
722.4  586001.25  220647.84  37.65
723.7  587853.10  227254.09  38.66
725.0  589484.88  233524.84  39.62
726.3  591661.20  239758.48  40.52
727.6  593304.00  245504.90  41.38
729.0  595096.60  251029.89  42.18
730.3  596947.35  256339.19  42.94
731.6  598382.30  261156.36  43.64
732.9  600240.23  265912.10  44.30
734.2  601763.25  270253.50  44.91
735.5  603493.00  274405.19  45.47
736.8  605412.85  278389.88  45.98
738.1  607192.58  282034.97  46.45
739.5  608847.60  285418.44  46.88
740.8  610672.70  288634.35  47.26
742.1  612063.38  291484.44  47.62
743.4  613671.10  294228.71  47.95
744.7  615440.00  296848.53  48.23
746.0  616858.45  299106.80  48.49
747.3  618367.40  301235.01  48.71
748.6  619854.00  303186.84  48.91
749.9  621478.20  305077.01  49.09
751.2  622557.68  306604.43  49.25
752.5  623934.00  308147.27  49.39
753.8  625099.05  309493.44  49.51
755.1  626555.20  310883.38  49.62
756.4  627609.88  311968.81  49.71
757.7  629527.25  313417.13  49.79
759.0  632983.58  315565.52  49.85
760.3  635559.95  317211.21  49.91
761.6  638262.10  318840.27  49.95
762.9  639540.00  319721.23  49.99
764.2  640164.10  320253.71  50.03
765.5  640925.73  320809.75  50.05
766.8  641361.05  321188.99  50.08
768.1  642332.25  321778.38  50.10
769.3  643465.25  322447.89  50.11
770.6  644706.05  323134.52  50.12
771.9  645809.45  323708.82  50.12
773.2  647115.30  324402.39  50.13
774.5  647845.05  324838.24  50.14
775.8  648831.08  325354.07  50.14
777.1  649856.90  325916.88  50.15
778.4  651047.25  326495.57  50.15
779.6  652189.20  327099.52  50.15
780.9  652728.38  327411.45  50.16
782.2  653547.88  327869.60  50.17
783.5  654382.00  328282.43  50.17
784.8  655068.75  328609.05  50.16
786.0  655774.65  328957.30  50.16
787.3  656468.70  329328.05  50.17
788.6  657245.38  329730.88  50.17
789.9  657754.40  330038.24  50.18
791.2  658995.85  330657.87  50.18
792.4  660015.13  331147.12  50.17
793.7  661409.35  331862.28  50.18
795.0  662239.35  332325.03  50.18
796.2  663509.15  332929.70  50.18
797.5  664559.38  333458.25  50.18
798.8  665812.00  334104.17  50.18
800.0  666820.00  334590.67  50.18
801.3  667855.13  335163.15  50.19
802.6  668808.00  335616.00  50.18
803.8  669764.55  336122.85  50.19
805.1  670711.13  336544.95  50.18
806.4  671554.38  336981.87  50.18
807.7  672541.93  337477.64  50.18
808.9  673573.05  338005.82  50.18
810.2  674358.30  338399.04  50.18
811.4  675316.00  338892.53  50.18
812.7  676489.20  339490.26  50.18
814.0  677684.70  340076.66  50.18
815.2  679045.80  340726.30  50.18
816.5  680128.75  341278.00  50.18
817.7  680824.25  341650.60  50.18
819.0  681406.60  341964.37  50.19
820.2  682100.55  342334.10  50.19
821.5  683171.80  342829.73  50.18
822.7  684185.08  343330.68  50.18
824.0  685124.05  343775.73  50.18
825.2  685725.30  344115.20  50.18
826.5  686429.85  344483.51  50.18
827.7  687291.28  344965.84  50.19
829.0  688261.88  345381.16  50.18
830.2  689202.40  345860.91  50.18
831.5  690140.93  346305.15  50.18
832.7  691110.45  346769.46  50.18
834.0  691764.98  347102.19  50.18
835.2  692645.95  347610.45  50.19
836.4  693373.20  347973.55  50.19
837.7  694260.00  348369.75  50.18
838.9  695468.65  348954.83  50.18
840.1  696465.00  349396.96  50.17
841.4  697383.00  349881.88  50.17
842.6  698177.90  350347.85  50.18
843.8  699059.40  350756.12  50.18
845.1  699854.10  351231.32  50.19
846.3  700865.55  351694.42  50.18
847.5  701779.00  352156.13  50.18
848.8  702763.90  352643.13  50.18
850.0  704050.60  353242.67  50.17
851.2  704843.05  353704.27  50.18
852.5  706040.50  354270.07  50.18
853.7  706766.85  354664.08  50.18
854.9  707992.35  355246.06  50.18
856.1  709131.30  355774.45  50.17
857.4  710054.10  356225.68  50.17
858.6  711184.60  356737.55  50.16
859.8  712312.40  357291.21  50.16
861.0  713369.30  357786.99  50.15
862.2  714474.60  358316.00  50.15
863.5  715391.75  358805.23  50.16
864.7  716450.00  359298.33  50.15
865.9  717425.63  359774.05  50.15
867.1  718218.75  360059.17  50.13
868.3  719524.58  360647.29  50.12
869.5  720809.65  361259.54  50.12
870.8  721854.00  361816.68  50.12
872.0  722844.90  362321.66  50.12
873.2  723654.68  362731.07  50.12
874.4  724669.95  363133.38  50.11
875.6  725936.30  363706.53  50.10
876.8  727427.25  364337.82  50.09
878.0  728576.80  364850.17  50.08
879.2  729530.35  365350.29  50.08
880.4  730566.00  365886.13  50.08
881.6  731540.30  366290.64  50.07
882.8  732915.50  366877.21  50.06
884.0  733947.83  367300.57  50.04
885.2  735335.00  367899.83  50.03
886.5  736670.90  368500.25  50.02
887.7  737528.85  368967.21  50.03
888.8  738864.40  369601.55  50.02
890.0  739777.50  369999.00  50.01
891.2  740803.05  370463.60  50.01
892.4  742286.33  371099.08  49.99
893.6  743893.00  371920.94  50.00
894.8  745617.15  372665.96  49.98
896.0  747253.63  373291.19  49.96
897.2  748774.13  374059.62  49.96
898.4  750838.20  374970.96  49.94
899.6  751874.60  375509.71  49.94
900.8  752460.80  375698.53  49.93
902.0  753131.75  375990.64  49.92
903.2  753108.50  375956.37  49.92
904.3  754430.63  376418.25  49.89
905.5  755568.00  376863.30  49.88
906.7  756722.63  377494.12  49.89
907.9  757662.03  377951.17  49.88
909.1  758636.73  378332.31  49.87
910.2  758835.00  378472.50  49.88
911.4  759141.45  378374.85  49.84
912.6  759752.50  378494.00  49.82
913.8  760540.55  378884.19  49.82
915.0  760919.40  379021.49  49.81
916.2  761201.78  379057.74  49.80
917.3  761554.73  379331.43  49.81
918.5  761913.45  379388.36  49.79
919.7  761712.25  379305.90  49.80
920.8  762242.70  379314.08  49.76
922.0  762175.98  379176.49  49.75
923.2  762678.90  379375.47  49.74
924.4  763208.38  379529.50  49.73
925.5  763793.20  379782.75  49.72
926.7  764352.38  379984.19  49.71
927.9  765759.68  380538.33  49.69
929.0  768711.60  381883.68  49.68
930.2  773315.20  383895.76  49.64
931.4  778087.35  386243.62  49.64
932.5  782687.95  388308.36  49.61
933.7  785164.13  389407.43  49.60
934.9  786388.75  389881.33  49.58
936.0  785233.80  389290.38  49.58
937.2  782281.00  387516.37  49.54
938.3  778293.75  385408.83  49.52
939.5  775979.10  384178.08  49.51
940.7  775982.90  383856.55  49.47
941.8  778904.75  384986.42  49.43
943.0  780520.35  385736.46  49.42
944.2  782508.00  386447.20  49.39
945.3  781797.00  385859.84  49.36
946.5  779966.25  384778.33  49.33
947.6  780810.00  384995.47  49.31
948.8  779706.30  384198.59  49.27
949.9  779773.23  384144.25  49.26
951.1  779772.40  383764.02  49.21
952.2  778982.28  383003.03  49.17
953.4  778948.50  382503.98  49.11
954.5  777630.00  381433.15  49.05
955.7  777168.80  380847.10  49.00
956.8  777577.20  380674.24  48.96
958.0  776167.20  379954.02  48.95
959.1  775656.00  379330.56  48.90
960.3  775612.50  378880.00  48.85
961.4  775988.90  378784.60  48.81
962.6  775216.80  378265.92  48.79
963.7  775399.80  378293.63  48.79
964.9  775812.98  378139.24  48.74
966.0  775979.75  378076.02  48.72
967.2  776630.40  378073.92  48.68
968.3  777330.25  378612.02  48.71
969.5  777272.30  378589.77  48.71
970.6  777930.15  378292.19  48.63
971.8  777821.45  378111.02  48.61
972.9  778571.50  378495.13  48.61
974.0  779276.45  378745.11  48.60
975.2  777667.50  378040.50  48.61
976.3  778472.53  378385.71  48.61
977.5  777756.08  378052.41  48.61
978.6  777825.68  377561.08  48.54
979.7  777884.80  377271.25  48.50
980.9  778257.08  377670.10  48.53
982.0  776856.20  377237.21  48.56
983.2  777029.40  377107.17  48.53
984.3  775551.35  376159.00  48.50
985.4  774268.60  375759.53  48.53
986.6  775635.50  375974.71  48.47
987.7  774905.63  375133.80  48.41
988.9  776259.93  375636.81  48.39
990.0  775336.60  375436.53  48.42
993.1  858958.80  413657.40  48.16
996.9  858032.50  413852.32  48.23
1000.7  857073.43  413985.60  48.30
1004.5  855819.20  413877.67  48.36
1008.4  856416.11  414779.52  48.43
1012.2  857447.33  415756.02  48.49
1016.0  856986.48  416070.60  48.55
1019.8  855340.35  415676.88  48.60
1023.7  853575.10  415137.69  48.64
1027.5  850636.47  414048.89  48.68
1031.3  848599.63  413271.50  48.70
1035.1  847197.23  412728.76  48.72
1038.9  846539.49  412497.57  48.73
1042.7  845968.43  412371.82  48.75
1046.5  845137.13  412043.13  48.75
1050.3  843436.98  411229.55  48.76
1054.2  841300.90  410263.90  48.77
1058.0  840430.80  409745.31  48.75
1061.8  839135.25  409180.64  48.76
1065.6  837090.46  408026.55  48.74
1069.4  834507.17  406676.66  48.73
1073.2  832212.88  405413.13  48.72
1077.0  830649.60  404491.58  48.70
1080.8  830347.83  404034.71  48.66
1084.6  830144.33  403666.48  48.63
1088.4  829599.32  403210.56  48.60
1092.2  828303.70  402298.33  48.57
1096.0  826811.27  401275.76  48.53
1099.8  825216.25  400110.36  48.49
1103.6  823212.42  398778.15  48.44
1107.4  821535.38  397536.07  48.39
1111.2  820002.12  396366.45  48.34
1114.9  818934.00  395383.50  48.28
1118.7  818516.67  394537.25  48.20
1122.5  818474.37  393806.96  48.11
1126.3  815994.90  391820.85  48.02
1130.1  815386.90  390410.55  47.88
1133.9  811890.13  387174.10  47.69
1137.7  809257.80  384014.94  47.45
1141.4  805380.73  379980.66  47.18
1145.2  804328.35  376985.03  46.87
1149.0  802267.05  373706.04  46.58
1152.8  798923.60  370017.85  46.31
1156.6  795323.47  366675.11  46.10
1160.3  792059.40  363935.55  45.95
1164.1  787391.53  360881.58  45.83
1167.9  784351.71  358805.87  45.75
1171.7  781805.50  357106.01  45.68
1175.4  779257.92  355533.10  45.62
1179.2  777077.25  354097.29  45.57
1183.0  777308.50  353704.77  45.50
1186.7  777576.33  353410.33  45.45
1190.5  776422.13  352520.93  45.40
1194.3  773649.45  350975.82  45.37
1198.0  770411.23  349321.73  45.34
1201.8  767844.00  348040.00  45.33
1205.6  766260.46  347361.12  45.33
1209.3  765257.25  347141.36  45.36
1213.1  764081.79  346844.22  45.39
1216.8  762228.80  346404.23  45.45
1220.6  759917.67  345737.05  45.50
1224.3  757533.33  345020.24  45.55
1228.1  755227.27  344376.39  45.60
1231.9  752718.20  343534.84  45.64
1235.6  750208.80  342587.46  45.67
1239.4  747724.32  341747.16  45.70
1243.1  745495.20  340907.79  45.73
1246.9  743409.52  340052.61  45.74
1250.6  741303.63  339139.00  45.75
1254.3  739255.20  338243.66  45.75
1258.1  737042.67  337231.24  45.75
1261.8  734511.87  336029.43  45.75
1265.6  732279.95  334880.32  45.73
1269.3  730345.40  333812.92  45.71
1273.1  730938.94  333815.54  45.67
1276.8  730709.80  333428.58  45.63
1280.6  729580.31  332602.07  45.59
1284.3  726770.48  330912.56  45.53
1288.0  724974.79  329591.45  45.46
1291.8  723643.20  328395.60  45.38
1295.5  722209.19  327047.24  45.28
1299.2  719881.50  325230.19  45.18
1302.9  716915.83  322939.65  45.05
1306.7  713704.95  320415.30  44.89
1310.4  710608.83  317708.16  44.71
1314.1  708046.88  315118.39  44.51
1317.9  705491.15  312302.47  44.27
1321.6  702604.18  309166.00  44.00
1325.3  699723.23  305830.25  43.71
1329.0  697070.73  302522.73  43.40
1332.8  693426.25  298539.46  43.05
