/*** Spectra Vista SIG Data ***/
name= 8_20220926_BENI_QUPA_34_avg.sig
comm= Averaged Ref/Tar of files: HR.092622.0020_moc.sig,HR.092622.0021_moc.sig,HR.092622.0022_moc.sig
data=
337.3  6417.60  445.03  6.93
338.8  6541.60  402.21  6.15
340.3  6900.33  395.21  5.73
341.8  7167.28  376.72  5.26
343.2  7550.13  397.60  5.27
344.7  7814.63  392.57  5.02
346.2  8142.75  381.48  4.68
347.7  8548.20  367.10  4.29
349.2  8920.80  362.88  4.07
350.6  9350.40  357.60  3.82
352.1  9834.25  351.05  3.57
353.6  10388.80  357.11  3.44
355.1  10777.05  356.07  3.30
356.6  11453.20  369.38  3.23
358.0  12031.75  375.73  3.12
359.5  12499.88  393.14  3.15
361.0  13164.60  387.99  2.95
362.5  13784.33  392.19  2.85
364.0  14426.63  401.41  2.78
365.4  15103.73  419.42  2.78
366.9  15764.93  428.24  2.72
368.4  16409.15  429.64  2.62
369.9  17172.00  461.86  2.69
371.3  18068.60  494.74  2.74
372.8  18857.85  517.52  2.74
374.3  19619.80  512.47  2.61
375.8  20496.10  518.19  2.53
377.2  21217.95  506.44  2.39
378.7  22070.83  522.24  2.37
380.2  22935.38  536.29  2.34
381.7  23843.00  558.65  2.34
383.1  24833.48  568.43  2.29
384.6  25761.75  565.31  2.19
386.1  26731.58  573.95  2.15
387.6  27654.45  594.35  2.15
389.0  28676.48  604.64  2.11
390.5  29706.28  633.72  2.13
392.0  30843.00  647.12  2.10
393.4  31903.88  665.43  2.09
394.9  32932.30  682.54  2.07
396.4  34155.00  703.10  2.06
397.9  35220.30  736.71  2.09
399.3  36155.23  744.57  2.06
400.8  37333.73  766.28  2.05
402.2  38567.10  793.40  2.06
403.7  39813.60  825.42  2.07
405.2  40982.90  855.26  2.09
406.6  42219.60  883.13  2.09
408.1  43320.60  896.85  2.07
409.6  44528.78  925.16  2.08
411.0  45760.55  957.45  2.09
412.5  47159.65  988.65  2.10
414.0  48504.23  1032.85  2.13
415.4  49845.60  1060.01  2.13
416.9  51184.10  1094.66  2.14
418.4  52525.95  1127.80  2.15
419.8  53873.40  1164.87  2.16
421.3  55336.05  1214.73  2.20
422.7  56817.80  1253.82  2.21
424.2  58339.50  1295.08  2.22
425.7  59771.25  1329.45  2.22
427.1  61338.60  1376.82  2.24
428.6  62812.30  1421.47  2.26
430.0  64352.48  1460.60  2.27
431.5  66006.85  1506.86  2.28
432.9  67674.38  1552.52  2.29
434.4  69395.68  1592.21  2.29
435.9  71056.20  1642.26  2.31
437.3  72766.13  1694.36  2.33
438.8  74410.80  1740.91  2.34
440.2  76112.93  1794.21  2.36
441.7  78008.33  1852.53  2.37
443.1  79822.80  1900.05  2.38
444.6  81622.48  1954.61  2.39
446.0  83474.68  2005.04  2.40
447.5  85450.00  2067.62  2.42
448.9  87212.58  2133.11  2.45
450.4  89100.00  2194.28  2.46
451.8  90927.38  2252.40  2.48
453.3  92759.25  2314.95  2.50
454.7  94581.00  2373.73  2.51
456.2  96425.70  2429.20  2.52
457.6  98342.10  2490.74  2.53
459.1  100198.88  2552.17  2.55
460.5  102034.58  2606.36  2.55
462.0  104086.80  2666.18  2.56
463.4  106069.95  2727.56  2.57
464.8  108063.90  2787.92  2.58
466.3  110032.80  2843.65  2.58
467.7  112064.00  2906.00  2.59
469.2  113948.55  2960.38  2.60
470.6  115986.50  3024.31  2.61
472.0  118048.20  3089.67  2.62
473.5  120064.55  3150.39  2.62
474.9  122266.90  3216.79  2.63
476.4  124349.40  3291.78  2.65
477.8  126476.00  3361.60  2.66
479.2  128550.68  3436.13  2.67
480.7  130727.18  3497.14  2.68
482.1  132923.00  3564.83  2.68
483.6  135147.60  3641.88  2.69
485.0  137413.20  3723.87  2.71
486.4  139532.75  3807.77  2.73
487.9  141843.25  3899.84  2.75
489.3  144029.48  3993.85  2.77
490.7  146233.00  4094.63  2.80
492.2  148458.00  4209.23  2.84
493.6  150725.80  4325.86  2.87
495.0  153052.58  4460.45  2.91
496.5  155272.95  4609.17  2.97
497.9  157594.75  4772.14  3.03
499.3  159893.13  4949.41  3.10
500.7  162215.60  5147.64  3.17
502.2  164579.98  5372.97  3.26
503.6  166887.60  5631.14  3.37
505.0  169185.23  5925.59  3.50
506.5  171671.15  6271.75  3.65
507.9  174143.28  6662.98  3.83
509.3  176450.63  7090.68  4.02
510.7  179093.85  7590.63  4.24
512.2  181753.58  8143.92  4.48
513.6  184620.78  8783.81  4.76
515.0  187406.98  9483.85  5.06
516.4  190265.60  10267.43  5.40
517.8  193066.25  11105.28  5.75
519.3  196030.40  12012.04  6.13
520.7  198697.20  12962.06  6.52
522.1  201368.38  13943.76  6.92
523.5  203950.48  14956.09  7.33
524.9  206837.85  15992.94  7.73
526.3  209499.75  16997.46  8.11
527.8  212283.00  18000.76  8.48
529.2  214905.60  18986.06  8.83
530.6  217703.70  19964.18  9.17
532.0  220682.48  20929.77  9.48
533.4  223164.10  21806.61  9.77
534.8  225699.38  22629.00  10.03
536.3  228761.65  23456.09  10.25
537.7  231757.25  24234.99  10.46
539.1  234687.70  24982.20  10.64
540.5  237591.75  25704.98  10.82
541.9  240536.40  26425.88  10.99
543.3  243114.60  27094.92  11.14
544.7  246070.00  27811.98  11.30
546.1  248899.00  28496.65  11.45
547.5  251834.40  29181.19  11.59
549.0  255014.80  29861.92  11.71
550.4  257903.10  30472.07  11.82
551.8  260817.60  31033.30  11.90
553.2  263707.43  31530.84  11.96
554.6  266584.80  31937.93  11.98
556.0  269524.50  32264.09  11.97
557.4  272649.90  32522.67  11.93
558.8  275542.83  32686.11  11.86
560.2  278760.00  32828.95  11.78
561.6  281712.48  32874.06  11.67
563.0  284518.00  32839.51  11.54
564.4  287711.90  32801.13  11.40
565.8  290737.65  32694.68  11.25
567.2  293915.80  32531.42  11.07
568.6  296988.53  32293.45  10.87
570.0  299869.38  31955.28  10.66
571.4  303317.68  31614.45  10.42
572.8  306469.40  31222.19  10.19
574.2  309378.83  30812.12  9.96
575.6  312438.00  30446.15  9.74
577.0  315490.45  30111.68  9.54
578.4  318937.50  29852.08  9.36
579.8  322030.10  29599.84  9.19
581.2  325117.00  29387.17  9.04
582.5  328027.50  29192.57  8.90
583.9  331102.20  29042.16  8.77
585.3  334019.40  28912.45  8.66
586.7  337029.00  28828.58  8.55
588.1  340040.20  28770.17  8.46
589.5  343382.55  28781.01  8.38
590.9  346344.03  28801.02  8.32
592.3  349328.25  28856.53  8.26
593.7  352274.65  28953.70  8.22
595.0  355224.00  29067.36  8.18
596.4  358573.13  29223.39  8.15
597.8  361264.30  29317.52  8.12
599.2  364380.90  29416.38  8.07
600.6  367589.48  29493.58  8.02
602.0  370591.20  29490.38  7.96
603.3  373490.00  29423.58  7.88
604.7  376512.33  29296.07  7.78
606.1  379545.60  29103.09  7.67
607.5  382915.80  28875.47  7.54
608.9  385977.90  28572.13  7.40
610.2  389181.38  28246.07  7.26
611.6  392122.50  27886.31  7.11
613.0  394914.90  27506.10  6.97
614.4  397735.78  27137.52  6.82
615.8  401015.10  26837.37  6.69
617.1  403730.40  26534.19  6.57
618.5  406989.15  26321.82  6.47
619.9  409723.65  26122.80  6.38
621.3  412701.90  26008.53  6.30
622.6  415642.50  25947.26  6.24
624.0  418364.25  25922.72  6.20
625.4  421501.13  25975.64  6.16
626.8  424461.70  26075.73  6.14
628.1  427315.70  26199.23  6.13
629.5  430083.15  26350.58  6.13
630.9  432996.20  26512.12  6.12
632.2  436048.95  26670.24  6.12
633.6  438542.00  26755.50  6.10
635.0  441469.30  26792.03  6.07
636.3  444511.83  26744.74  6.02
637.7  447254.83  26568.28  5.94
639.1  450274.55  26304.80  5.84
640.4  452976.50  25943.41  5.73
641.8  455851.80  25497.89  5.59
643.2  458478.50  24986.23  5.45
644.5  461370.00  24466.00  5.30
645.9  464039.45  23931.61  5.16
647.2  466989.60  23439.35  5.02
648.6  469829.20  23008.40  4.90
650.0  472622.40  22620.96  4.79
651.3  475070.90  22260.76  4.69
652.7  478342.50  21952.64  4.59
654.0  481297.60  21633.08  4.49
655.4  483682.50  21264.19  4.40
656.8  485294.78  20818.48  4.29
658.1  487865.70  20349.11  4.17
659.5  491140.80  19880.23  4.05
660.8  494343.15  19381.11  3.92
662.2  497114.43  18875.55  3.80
663.5  499893.78  18398.31  3.68
664.9  501932.18  17963.14  3.58
666.2  504002.85  17596.05  3.49
667.6  506630.25  17349.17  3.42
668.9  509371.20  17205.94  3.38
670.3  512227.63  17100.18  3.34
671.6  514566.40  17062.57  3.32
673.0  516898.40  17096.89  3.31
674.3  519338.05  17182.00  3.31
675.7  521897.40  17334.94  3.32
677.0  524223.38  17529.81  3.34
678.4  526487.20  17773.03  3.38
679.7  528910.35  18098.04  3.42
681.1  531475.03  18507.71  3.48
682.4  533713.13  19043.73  3.57
683.8  536086.13  19758.05  3.69
685.1  538308.45  20707.11  3.85
686.4  540532.20  21991.81  4.07
687.8  543082.05  23727.71  4.37
689.1  545449.80  26044.97  4.77
690.5  547408.75  29016.39  5.30
691.8  550135.85  32871.80  5.98
693.1  552580.50  37588.97  6.80
694.5  554946.30  43148.97  7.78
695.8  557349.80  49409.72  8.87
697.1  559665.90  56256.47  10.05
698.5  561977.25  63597.36  11.32
699.8  564358.40  71266.90  12.63
701.1  566257.13  79072.86  13.96
702.5  568386.00  86911.52  15.29
703.8  570850.20  94738.16  16.60
705.1  572686.80  102302.48  17.86
706.5  575051.25  109706.28  19.08
707.8  576922.23  116803.04  20.25
709.1  579202.55  123707.94  21.36
710.5  581396.83  130354.28  22.42
711.8  583381.00  136697.41  23.43
713.1  585359.00  142823.48  24.40
714.4  587506.38  148768.57  25.32
715.8  589782.90  154539.56  26.20
717.1  592061.15  160098.01  27.04
718.4  594338.85  165418.07  27.83
719.7  596529.23  170520.46  28.59
721.0  598294.65  175271.45  29.30
722.4  600187.50  179835.50  29.96
723.7  602192.05  184208.42  30.59
725.0  603952.65  188289.22  31.18
726.3  606291.40  192339.04  31.72
727.6  607950.75  195996.31  32.24
729.0  609809.55  199487.79  32.71
730.3  611824.13  202816.42  33.15
731.6  613423.80  205813.05  33.55
732.9  615464.20  208760.99  33.92
734.2  617100.00  211443.61  34.26
735.5  618922.70  214015.89  34.58
736.8  620923.28  216510.37  34.87
738.1  622791.38  218777.59  35.13
739.5  624622.80  220896.17  35.36
740.8  626610.33  222945.97  35.58
742.1  628202.00  224782.26  35.78
743.4  630017.50  226595.95  35.97
744.7  631855.00  228374.07  36.14
746.0  633333.00  229911.34  36.30
747.3  634967.20  231354.92  36.44
748.6  636553.95  232740.90  36.56
749.9  638403.65  234130.57  36.67
751.2  639685.28  235290.89  36.78
752.5  641265.50  236473.03  36.88
753.8  642642.30  237522.77  36.96
755.1  644308.95  238600.26  37.03
756.4  645447.48  239461.09  37.10
757.7  647537.00  240610.65  37.16
759.0  651201.88  242311.19  37.21
760.3  653963.30  243647.39  37.26
761.6  656851.25  245004.41  37.30
762.9  658245.50  245806.39  37.34
764.2  659134.65  246348.90  37.37
765.5  660048.38  246905.06  37.41
766.8  660654.50  247318.09  37.44
768.1  661717.35  247914.57  37.47
769.3  663031.35  248552.27  37.49
770.6  664434.70  249236.79  37.51
771.9  665636.45  249835.41  37.53
773.2  667177.88  250519.93  37.55
774.5  668154.90  251007.15  37.57
775.8  669256.93  251549.64  37.59
777.1  670556.98  252127.62  37.60
778.4  671849.88  252735.57  37.62
779.6  673257.60  253350.70  37.63
780.9  673928.10  253716.05  37.65
782.2  674928.10  254192.01  37.66
783.5  675892.00  254644.26  37.68
784.8  676743.38  255062.53  37.69
786.0  677621.60  255472.73  37.70
787.3  678548.35  255887.81  37.71
788.6  679450.88  256326.20  37.73
789.9  680218.00  256705.82  37.74
791.2  681598.75  257306.38  37.75
792.4  682827.75  257829.13  37.76
793.7  684474.15  258497.37  37.77
795.0  685594.55  258985.53  37.78
796.2  686944.50  259592.95  37.79
797.5  688266.88  260142.13  37.80
798.8  689660.13  260766.49  37.81
800.0  690830.00  261284.00  37.82
801.3  692165.25  261820.35  37.83
802.6  693216.00  262295.31  37.84
803.8  694357.13  262805.22  37.85
805.1  695459.25  263277.13  37.86
806.4  696545.93  263737.46  37.86
807.7  697708.40  264228.92  37.87
808.9  698979.35  264740.06  37.88
810.2  699843.90  265149.40  37.89
811.4  700926.00  265643.05  37.90
812.7  702200.90  266229.79  37.91
814.0  703556.70  266802.69  37.92
815.2  705055.65  267404.86  37.93
816.5  706230.00  267911.88  37.94
817.7  707194.50  268295.33  37.94
819.0  707880.60  268631.80  37.95
820.2  708671.40  269034.49  37.96
821.5  709687.40  269529.27  37.98
822.7  710818.50  269969.36  37.98
824.0  711777.30  270408.09  37.99
825.2  712487.10  270744.57  38.00
826.5  713321.30  271098.96  38.01
827.7  714419.95  271551.42  38.01
829.0  715312.73  271948.29  38.02
830.2  716279.60  272365.65  38.03
831.5  717205.28  272782.68  38.03
832.7  718104.60  273205.26  38.05
834.0  718775.10  273507.49  38.05
835.2  719776.05  273947.93  38.06
836.4  720514.80  274324.53  38.07
837.7  721299.38  274670.79  38.08
838.9  722522.50  275164.92  38.08
840.1  723439.20  275571.67  38.09
841.4  724447.30  276007.73  38.10
842.6  725333.70  276442.57  38.11
843.8  726133.20  276833.74  38.12
845.1  727032.90  277186.94  38.13
846.3  728036.40  277573.20  38.13
847.5  728835.25  277972.19  38.14
848.8  729736.95  278394.89  38.15
850.0  730915.20  278878.95  38.15
851.2  731918.65  279270.25  38.16
852.5  732985.70  279793.10  38.17
853.7  733712.18  280101.23  38.18
854.9  734906.25  280605.09  38.18
856.1  735866.00  281054.68  38.19
857.4  736754.93  281413.53  38.20
858.6  737665.60  281836.73  38.21
859.8  738811.30  282307.11  38.21
861.0  739908.75  282740.75  38.21
862.2  741066.90  283191.58  38.21
863.5  741987.83  283573.62  38.22
864.7  742900.00  283991.13  38.23
865.9  744029.25  284383.96  38.22
867.1  744656.25  284656.34  38.23
868.3  745926.43  285182.36  38.23
869.5  747050.90  285641.90  38.24
870.8  748241.10  286117.33  38.24
872.0  749208.20  286527.90  38.24
873.2  750146.85  286938.81  38.25
874.4  750970.35  287255.83  38.25
875.6  752201.65  287720.86  38.25
876.8  753675.45  288297.30  38.25
878.0  754666.85  288728.34  38.26
879.2  755778.35  289170.15  38.26
880.4  756960.00  289571.98  38.25
881.6  757900.60  289972.89  38.26
882.8  759273.25  290539.33  38.27
884.0  760252.35  290862.72  38.26
885.2  761472.50  291369.23  38.26
886.5  762980.58  291920.52  38.26
887.7  764009.75  292349.82  38.27
888.8  765537.55  292894.86  38.26
890.0  766421.25  293270.25  38.26
891.2  767433.23  293671.50  38.27
892.4  769113.68  294262.38  38.26
893.6  770734.50  294920.53  38.26
894.8  772454.70  295550.14  38.26
896.0  773906.00  296182.63  38.27
897.2  775838.25  296924.48  38.27
898.4  777726.60  297656.14  38.27
899.6  779185.40  298123.20  38.26
900.8  779754.30  298334.95  38.26
902.0  780402.15  298610.88  38.26
903.2  780769.30  298703.71  38.26
904.3  781852.50  299127.22  38.26
905.5  782966.25  299634.82  38.27
906.7  784548.30  300120.86  38.25
907.9  785664.08  300522.55  38.25
909.1  786587.73  300983.47  38.26
910.2  787185.00  301126.50  38.25
911.4  787364.10  301223.83  38.26
912.6  787882.50  301404.40  38.25
913.8  789082.35  301797.90  38.25
915.0  789600.40  301907.01  38.24
916.2  790040.93  301989.51  38.22
917.3  790559.00  302328.93  38.24
918.5  791027.85  302500.10  38.24
919.7  791140.25  302587.90  38.25
920.8  791477.95  302644.32  38.24
922.0  791521.50  302652.49  38.24
923.2  792411.38  302834.81  38.22
924.4  793083.88  303051.91  38.21
925.5  794098.00  303355.32  38.20
926.7  795097.28  303696.71  38.20
927.9  796401.63  304170.22  38.19
929.0  799318.80  305315.23  38.20
930.2  803635.40  306878.74  38.19
931.4  809051.43  308861.17  38.18
932.5  813982.95  310583.50  38.16
933.7  816698.10  311529.58  38.15
934.9  818116.25  312048.75  38.14
936.0  817076.48  311554.86  38.13
937.2  814102.60  310367.93  38.12
938.3  810764.50  308792.53  38.09
939.5  808551.90  307938.98  38.09
940.7  808717.53  307895.81  38.07
941.8  810904.90  308882.66  38.09
943.0  813191.63  309506.90  38.06
944.2  815082.00  310047.32  38.04
945.3  815223.00  309758.21  38.00
946.5  813452.50  309012.33  37.99
947.6  814874.75  309327.61  37.96
948.8  813555.83  308695.81  37.94
949.9  814227.40  308658.11  37.91
951.1  814008.28  308464.28  37.89
952.2  813813.15  308041.53  37.85
953.4  813522.15  307759.04  37.83
954.5  812285.25  306946.50  37.79
955.7  811986.65  306593.58  37.76
956.8  812165.38  306523.37  37.74
958.0  811771.20  305897.70  37.68
959.1  811490.40  305674.56  37.67
960.3  810762.50  305351.31  37.66
961.4  811883.70  305380.18  37.61
962.6  811396.80  304991.66  37.59
963.7  811476.40  304949.64  37.58
964.9  812250.38  304999.35  37.55
966.0  812313.25  305275.55  37.58
967.2  812901.60  305516.28  37.58
968.3  814686.05  306014.11  37.56
969.5  815229.48  305961.27  37.53
970.6  815392.55  306020.98  37.53
971.8  814831.68  305806.74  37.53
972.9  815948.00  306209.77  37.53
974.0  816321.85  306506.58  37.55
975.2  815720.63  306092.09  37.52
976.3  817068.45  306561.92  37.52
977.5  816144.83  306408.03  37.54
978.6  816026.10  306524.55  37.56
979.7  815830.40  306365.55  37.55
980.9  815840.75  306640.88  37.59
982.0  815894.20  306578.43  37.58
983.2  815516.80  306759.93  37.62
984.3  814273.60  306174.46  37.60
985.4  813099.70  306233.37  37.66
986.6  814417.28  306501.13  37.63
987.7  813319.75  306215.45  37.65
988.9  814160.50  306573.54  37.66
990.0  815287.15  306484.84  37.59
993.1  843664.20  315857.35  37.44
996.9  844210.80  316905.18  37.54
1000.7  844085.33  317621.57  37.63
1004.5  843332.07  317910.65  37.70
1008.4  844076.83  318983.78  37.79
1012.2  845301.58  320098.35  37.87
1016.0  845175.48  320805.04  37.96
1019.8  844164.78  321103.73  38.04
1023.7  843413.49  321349.58  38.10
1027.5  841822.00  321218.57  38.16
1031.3  841015.24  321186.47  38.19
1035.1  840435.45  321207.11  38.22
1038.9  840166.18  321272.33  38.24
1042.7  839817.53  321366.74  38.27
1046.5  839109.25  321219.34  38.28
1050.3  837472.28  320752.76  38.30
1054.2  835526.18  320181.17  38.32
1058.0  834548.40  319858.92  38.33
1061.8  833337.42  319503.96  38.34
1065.6  831626.33  318903.49  38.35
1069.4  829867.33  318241.43  38.35
1073.2  828481.88  317697.51  38.35
1077.0  827073.87  317199.35  38.35
1080.8  826006.50  316719.65  38.34
1084.6  824853.33  316158.57  38.33
1088.4  823500.80  315615.95  38.33
1092.2  822009.30  314887.66  38.31
1096.0  820723.20  314196.05  38.28
1099.8  819299.13  313425.84  38.26
1103.6  817621.73  312536.25  38.23
1107.4  816301.48  311735.71  38.19
1111.2  814784.32  310912.55  38.16
1114.9  813583.50  310127.81  38.12
1118.7  812774.83  309368.76  38.06
1122.5  812500.54  308707.97  37.99
1126.3  809950.05  307065.56  37.91
1130.1  809281.58  305861.54  37.79
1133.9  805954.58  303261.72  37.63
1137.7  803420.00  300663.22  37.42
1141.4  799868.70  297421.24  37.18
1145.2  799131.12  294930.08  36.91
1149.0  797175.60  292228.45  36.66
1152.8  793933.10  289260.47  36.43
1156.6  790584.15  286640.48  36.26
1160.3  787490.25  284486.60  36.13
1164.1  782837.60  282108.72  36.04
1167.9  779736.92  280536.68  35.98
1171.7  777198.77  279340.22  35.94
1175.4  774949.39  278336.03  35.92
1179.2  773190.00  277426.42  35.88
1183.0  773321.75  277188.41  35.84
1186.7  773122.00  276798.87  35.80
1190.5  771338.13  275949.23  35.78
1194.3  768463.50  274762.56  35.75
1198.0  765530.28  273739.70  35.76
1201.8  763070.00  272919.53  35.77
1205.6  761368.46  272458.92  35.79
1209.3  760081.50  272211.43  35.81
1213.1  758542.46  271880.94  35.84
1216.8  756532.67  271507.94  35.89
1220.6  754344.50  271113.48  35.94
1224.3  752079.17  270670.06  35.99
1228.1  749994.95  270392.32  36.05
1231.9  747840.60  269974.54  36.10
1235.6  745502.73  269462.58  36.15
1239.4  743317.63  269016.71  36.19
1243.1  741180.60  268476.29  36.22
1246.9  739220.35  267948.08  36.25
1250.6  737213.28  267354.25  36.27
1254.3  735379.20  266792.95  36.28
1258.1  733423.33  266152.29  36.29
1261.8  730999.97  265347.40  36.30
1265.6  728464.75  264470.01  36.31
1269.3  725805.93  263420.44  36.29
1273.1  726139.98  263394.81  36.27
1276.8  726613.00  263349.46  36.24
1280.6  726469.09  263086.43  36.21
1284.3  724140.43  262041.74  36.19
1288.0  722025.74  260975.80  36.14
1291.8  719938.80  259759.98  36.08
1295.5  717927.54  258463.04  36.00
1299.2  715620.75  256974.57  35.91
1302.9  712876.36  255218.40  35.80
1306.7  709901.33  253246.39  35.67
1310.4  707043.18  251100.48  35.51
1314.1  704698.13  249050.81  35.34
1317.9  702354.68  246784.94  35.14
1321.6  699574.63  244234.52  34.91
1325.3  696789.68  241440.87  34.65
1329.0  694052.33  238621.97  34.38
1332.8  690236.25  235187.93  34.07
1336.5  686588.42  231814.64  33.76
