/*** Spectra Vista SIG Data ***/
name= 41_20220926_LIST_57_avg.sig
comm= Averaged Ref/Tar of files: HR.092722.0038_moc.sig,HR.092722.0039_moc.sig,HR.092722.0040_moc.sig
data=
337.3  3225.63  211.73  6.56
338.8  3318.90  205.23  6.18
340.3  3466.90  206.14  5.95
341.8  3612.28  219.48  6.08
343.2  3818.40  219.04  5.74
344.7  4009.10  216.09  5.39
346.2  4207.55  212.42  5.05
347.7  4365.08  214.98  4.92
349.2  4573.80  216.72  4.74
350.6  4847.70  225.25  4.65
352.1  5108.68  238.17  4.66
353.6  5378.50  240.59  4.47
355.1  5657.40  237.97  4.21
356.6  5997.83  244.72  4.08
358.0  6252.40  259.45  4.15
359.5  6550.80  267.80  4.09
361.0  6852.83  271.32  3.96
362.5  7230.93  288.85  3.99
364.0  7598.88  294.40  3.87
365.4  7952.30  299.73  3.77
366.9  8342.75  316.77  3.80
368.4  8700.73  323.66  3.72
369.9  9080.40  342.32  3.77
371.3  9505.20  363.12  3.82
372.8  9929.70  375.24  3.78
374.3  10373.75  390.58  3.77
375.8  10780.00  395.27  3.67
377.2  11190.40  405.29  3.62
378.7  11674.60  419.64  3.59
380.2  12078.10  430.40  3.56
381.7  12593.65  443.21  3.52
383.1  13043.80  449.17  3.44
384.6  13568.43  467.57  3.45
386.1  14053.00  475.64  3.38
387.6  14526.05  492.29  3.39
389.0  15008.00  503.84  3.36
390.5  15478.65  523.92  3.38
392.0  16055.15  536.05  3.34
393.4  16632.08  553.53  3.33
394.9  17199.90  567.24  3.30
396.4  17724.38  583.05  3.29
397.9  18296.25  601.33  3.29
399.3  18841.80  617.93  3.28
400.8  19416.58  648.05  3.34
402.2  20081.90  664.49  3.31
403.7  20680.43  677.31  3.28
405.2  21307.50  694.47  3.26
406.6  21877.60  714.56  3.27
408.1  22464.40  732.24  3.26
409.6  23069.45  755.08  3.27
411.0  23762.55  779.99  3.28
412.5  24448.55  799.68  3.27
414.0  25102.00  823.15  3.28
415.4  25797.75  842.70  3.27
416.9  26483.85  866.09  3.27
418.4  27190.80  883.95  3.25
419.8  27918.80  905.15  3.24
421.3  28644.78  931.65  3.25
422.7  29440.80  960.48  3.26
424.2  30223.13  978.75  3.24
425.7  30986.30  1008.43  3.25
427.1  31760.78  1025.46  3.23
428.6  32565.50  1056.07  3.24
430.0  33339.48  1082.48  3.25
431.5  34223.03  1106.44  3.23
432.9  35116.05  1132.93  3.23
434.4  36013.05  1161.28  3.22
435.9  36876.00  1185.33  3.21
437.3  37730.00  1210.00  3.21
438.8  38607.30  1239.85  3.21
440.2  39495.23  1268.45  3.21
441.7  40481.40  1302.48  3.22
443.1  41406.25  1332.07  3.22
444.6  42391.60  1364.15  3.22
446.0  43349.48  1396.11  3.22
447.5  44332.75  1425.20  3.21
448.9  45291.90  1455.12  3.21
450.4  46322.15  1493.57  3.22
451.8  47216.00  1525.33  3.23
453.3  48168.30  1562.03  3.24
454.7  49195.45  1593.30  3.24
456.2  50069.85  1624.03  3.24
457.6  51068.93  1654.95  3.24
459.1  52074.10  1686.06  3.24
460.5  53031.88  1719.13  3.24
462.0  54140.58  1758.25  3.25
463.4  55197.30  1791.96  3.25
464.8  56207.63  1824.10  3.25
466.3  57179.93  1855.04  3.24
467.7  58171.98  1889.80  3.25
469.2  59269.83  1923.58  3.25
470.6  60288.55  1953.89  3.24
472.0  61367.00  1991.14  3.24
473.5  62404.25  2026.47  3.25
474.9  63483.75  2067.20  3.26
476.4  64656.00  2106.24  3.26
477.8  65728.50  2146.00  3.26
479.2  66743.50  2184.67  3.27
480.7  67873.28  2219.50  3.27
482.1  69027.65  2265.76  3.28
483.6  70255.90  2313.93  3.29
485.0  71376.23  2358.46  3.30
486.4  72589.95  2405.60  3.31
487.9  73695.38  2451.15  3.33
489.3  74861.90  2505.21  3.35
490.7  75936.83  2556.26  3.37
492.2  77175.00  2616.60  3.39
493.6  78304.25  2676.07  3.42
495.0  79443.00  2743.65  3.45
496.5  80639.13  2817.60  3.49
497.9  81783.78  2899.78  3.55
499.3  82972.45  2991.74  3.61
500.7  84266.80  3097.99  3.68
502.2  85453.80  3217.84  3.77
503.6  86753.20  3356.05  3.87
505.0  87856.05  3512.09  4.00
506.5  89181.90  3701.63  4.15
507.9  90373.20  3913.80  4.33
509.3  91715.60  4163.73  4.54
510.7  92971.13  4446.00  4.78
512.2  94391.48  4770.96  5.05
513.6  95915.40  5148.78  5.37
515.0  97384.35  5564.82  5.71
516.4  98813.93  6021.54  6.09
517.8  100485.25  6537.05  6.51
519.3  101832.63  7065.65  6.94
520.7  103422.05  7639.45  7.39
522.1  104742.63  8211.71  7.84
523.5  106112.60  8795.92  8.29
524.9  107624.25  9391.14  8.73
526.3  109117.40  9955.07  9.12
527.8  110632.50  10503.90  9.49
529.2  111660.60  10992.23  9.84
530.6  113201.30  11496.42  10.16
532.0  114884.00  11970.93  10.42
533.4  116256.30  12367.73  10.64
534.8  117199.95  12678.37  10.82
536.3  118796.10  13022.12  10.96
537.7  120758.40  13374.48  11.08
539.1  122214.70  13647.88  11.17
540.5  123428.15  13881.60  11.25
541.9  125203.58  14166.11  11.31
543.3  126526.33  14400.84  11.38
544.7  127873.80  14636.08  11.45
546.1  129707.60  14923.59  11.51
547.5  130950.40  15140.91  11.56
549.0  132605.00  15394.13  11.61
550.4  134119.38  15617.33  11.64
551.8  135719.88  15829.60  11.66
553.2  137232.98  16004.40  11.66
554.6  138569.60  16113.07  11.63
556.0  140107.95  16197.06  11.56
557.4  141731.28  16240.54  11.46
558.8  143409.60  16248.12  11.33
560.2  144886.88  16180.85  11.17
561.6  146585.93  16092.03  10.98
563.0  148189.83  15945.74  10.76
564.4  149810.00  15756.07  10.52
565.8  151331.88  15521.00  10.26
567.2  153101.50  15273.60  9.98
568.6  154599.00  14968.35  9.68
570.0  156042.55  14645.04  9.39
571.4  157771.90  14342.90  9.09
572.8  159565.88  14053.10  8.81
574.2  161201.60  13771.52  8.54
575.6  162765.00  13507.50  8.30
577.0  164313.30  13273.73  8.08
578.4  166029.50  13073.67  7.87
579.8  167592.38  12884.13  7.69
581.2  169319.10  12727.87  7.52
582.5  170761.50  12570.48  7.36
583.9  172291.80  12440.35  7.22
585.3  174093.08  12341.58  7.09
586.7  175601.08  12236.64  6.97
588.1  177097.75  12147.63  6.86
589.5  178764.25  12086.67  6.76
590.9  180420.00  12037.92  6.67
592.3  182238.55  12021.23  6.60
593.7  183711.45  11999.00  6.53
595.0  185334.08  12000.78  6.48
596.4  186803.75  11995.15  6.42
597.8  188306.15  11994.13  6.37
599.2  189855.60  11996.16  6.32
600.6  191626.83  12006.71  6.27
602.0  192944.10  11973.31  6.21
603.3  194754.15  11960.13  6.14
604.7  196455.05  11922.78  6.07
606.1  197961.00  11855.12  5.99
607.5  199614.88  11778.69  5.90
608.9  201322.45  11693.35  5.81
610.2  202716.68  11578.14  5.71
611.6  204346.13  11467.64  5.61
613.0  205926.95  11353.85  5.51
614.4  207322.95  11236.48  5.42
615.8  208801.13  11122.80  5.33
617.1  210357.00  11025.00  5.24
618.5  211995.20  10953.97  5.17
619.9  213531.98  10893.26  5.10
621.3  215180.55  10858.02  5.05
622.6  216778.75  10837.67  5.00
624.0  218262.15  10833.54  4.96
625.4  219747.83  10847.10  4.94
626.8  221357.50  10882.08  4.92
628.1  222623.23  10911.85  4.90
629.5  224442.55  10970.40  4.89
630.9  225925.70  11006.64  4.87
632.2  227176.43  11008.85  4.85
633.6  228687.25  10996.53  4.81
635.0  230153.20  10939.20  4.75
636.3  231681.60  10850.56  4.68
637.7  233068.25  10714.58  4.60
639.1  234710.00  10551.33  4.50
640.4  236208.70  10366.98  4.39
641.8  237446.83  10143.61  4.27
643.2  239047.55  9949.80  4.16
644.5  240407.25  9764.97  4.06
645.9  241990.20  9613.68  3.97
647.2  243034.58  9476.46  3.90
648.6  244599.75  9393.30  3.84
650.0  246024.00  9342.72  3.80
651.3  247034.98  9303.47  3.77
652.7  249193.55  9312.20  3.74
654.0  251258.80  9330.99  3.71
655.4  252665.85  9334.71  3.69
656.8  252923.40  9307.00  3.68
658.1  254376.20  9303.97  3.66
659.5  256655.18  9312.94  3.63
660.8  258052.50  9300.00  3.60
662.2  259078.40  9273.60  3.58
663.5  260616.90  9279.37  3.56
664.9  261664.00  9293.79  3.55
666.2  262537.20  9318.08  3.55
667.6  264261.03  9400.31  3.56
668.9  265231.88  9484.53  3.58
670.3  267090.38  9609.32  3.60
671.6  268155.00  9740.90  3.63
673.0  269371.88  9900.20  3.68
674.3  270636.60  10077.60  3.72
675.7  271986.08  10284.01  3.78
677.0  273065.95  10492.71  3.84
678.4  274387.45  10733.52  3.91
679.7  275444.65  10986.07  3.99
681.1  276710.13  11267.08  4.07
682.4  277797.00  11559.77  4.16
683.8  278968.30  11883.91  4.26
685.1  279991.88  12239.55  4.37
686.4  281296.20  12671.76  4.50
687.8  282508.25  13207.60  4.68
689.1  283598.50  13928.50  4.91
690.5  284940.15  14923.84  5.24
691.8  285769.63  16259.91  5.69
693.1  287088.75  18068.66  6.29
694.5  288265.25  20344.57  7.06
695.8  289493.75  23107.93  7.98
697.1  290654.00  26362.70  9.07
698.5  291740.40  30066.91  10.31
699.8  292824.95  34172.74  11.67
701.1  294004.05  38620.06  13.14
702.5  294796.15  43256.91  14.67
703.8  295717.50  48054.00  16.25
705.1  296884.58  52958.88  17.84
706.5  297900.75  57870.70  19.43
707.8  298886.55  62749.86  20.99
709.1  299757.78  67546.52  22.53
710.5  300874.03  72330.02  24.04
711.8  301719.00  76973.65  25.51
713.1  302677.90  81561.51  26.95
714.4  303592.20  86033.40  28.34
715.8  304439.60  90392.31  29.69
717.1  305748.00  94787.84  31.00
718.4  306723.20  98948.27  32.26
719.7  307817.60  103031.39  33.47
721.0  308340.00  106779.00  34.63
722.4  309115.40  110467.94  35.74
723.7  310078.50  114083.52  36.79
725.0  311105.25  117570.06  37.79
726.3  312063.40  120869.03  38.73
727.6  312588.38  123851.49  39.62
729.0  313499.38  126814.99  40.45
730.3  314314.28  129572.42  41.22
731.6  315210.40  132220.45  41.95
732.9  316004.68  134647.43  42.61
734.2  316801.38  136946.33  43.23
735.5  317799.23  139195.86  43.80
736.8  318599.10  141204.60  44.32
738.1  319495.20  143110.01  44.79
739.5  320463.80  144927.51  45.22
740.8  321185.43  146494.30  45.61
742.1  321876.80  147946.39  45.96
743.4  322500.00  149263.33  46.28
744.7  323372.88  150610.28  46.57
746.0  324226.50  151863.40  46.84
747.3  324831.15  152877.73  47.06
748.6  325557.25  153871.70  47.26
749.9  326222.00  154724.27  47.43
751.2  326822.70  155494.87  47.58
752.5  327554.90  156265.43  47.71
753.8  328075.65  156884.58  47.82
755.1  328770.00  157528.80  47.91
756.4  329337.03  158083.85  48.00
757.7  330344.18  158807.18  48.07
759.0  332165.85  159874.59  48.13
760.3  333326.40  160592.96  48.18
761.6  334867.40  161483.28  48.22
762.9  335418.25  161837.50  48.25
764.2  335765.80  162095.81  48.28
765.5  336001.83  162272.51  48.30
766.8  336355.20  162503.68  48.31
768.1  336855.60  162770.61  48.32
769.3  337440.60  163057.58  48.32
770.6  338083.20  163384.52  48.33
771.9  338776.20  163726.80  48.33
773.2  339124.40  163898.29  48.33
774.5  339682.20  164167.81  48.33
775.8  340314.60  164475.77  48.33
777.1  340850.95  164732.48  48.33
778.4  341153.45  164870.24  48.33
779.6  341926.68  165227.40  48.32
780.9  342330.00  165444.00  48.33
782.2  342762.75  165657.07  48.33
783.5  343033.50  165789.87  48.33
784.8  343452.15  166023.45  48.34
786.0  343802.55  166191.48  48.34
787.3  344179.13  166364.26  48.34
788.6  344569.28  166555.08  48.34
789.9  344958.60  166765.95  48.34
791.2  345555.60  167061.97  48.35
792.4  346171.55  167372.31  48.35
793.7  346591.80  167587.84  48.35
795.0  347179.80  167884.75  48.36
796.2  347794.45  168177.09  48.36
797.5  348430.65  168504.22  48.36
798.8  349044.53  168812.29  48.36
800.0  349650.68  169113.77  48.37
801.3  350025.60  169313.81  48.37
802.6  350576.33  169590.09  48.37
803.8  351192.23  169894.71  48.38
805.1  351643.25  170105.13  48.37
806.4  352044.00  170317.16  48.38
807.7  352507.95  170557.11  48.38
808.9  353042.80  170824.31  48.39
810.2  353458.35  171061.66  48.40
811.4  353962.70  171285.81  48.39
812.7  354534.38  171583.75  48.40
814.0  355330.25  171957.62  48.39
815.2  355918.75  172271.63  48.40
816.5  356335.98  172453.82  48.40
817.7  356726.25  172696.93  48.41
819.0  357159.00  172931.00  48.42
820.2  357280.00  173002.13  48.42
821.5  357959.05  173307.49  48.42
822.7  358261.08  173487.76  48.42
824.0  358570.80  173630.52  48.42
825.2  359046.68  173873.79  48.43
826.5  359290.00  174003.52  48.43
827.7  359803.30  174279.52  48.44
829.0  360175.20  174448.49  48.43
830.2  360441.05  174598.06  48.44
831.5  360879.40  174829.59  48.45
832.7  361211.03  174985.09  48.44
834.0  361506.03  175133.95  48.45
835.2  361844.73  175314.44  48.45
836.4  362139.80  175464.59  48.45
837.7  362489.60  175658.59  48.46
838.9  362889.18  175887.52  48.47
840.1  363210.08  176067.90  48.48
841.4  363647.90  176276.20  48.47
842.6  364024.40  176467.25  48.48
843.8  364257.60  176636.03  48.49
845.1  364765.10  176886.74  48.49
846.3  365107.50  177086.65  48.50
847.5  365460.90  177283.96  48.51
848.8  365856.00  177506.08  48.52
850.0  366251.90  177683.75  48.51
851.2  366741.00  177930.72  48.52
852.5  367024.40  178102.43  48.53
853.7  367488.00  178358.70  48.53
854.9  367912.60  178584.57  48.54
856.1  368358.90  178792.21  48.54
857.4  368561.05  178877.13  48.53
858.6  368993.75  179112.43  48.54
859.8  369352.50  179311.25  48.55
861.0  369813.60  179496.72  48.54
862.2  370158.60  179715.51  48.55
863.5  370473.35  179868.95  48.55
864.7  370986.00  180115.76  48.55
865.9  371330.60  180289.97  48.55
867.1  371639.80  180431.67  48.55
868.3  371929.65  180647.98  48.57
869.5  372424.95  180864.02  48.56
870.8  372861.00  181070.40  48.56
872.0  373325.10  181301.35  48.56
873.2  373635.15  181485.14  48.57
874.4  374104.58  181695.15  48.57
875.6  374463.85  181865.73  48.57
876.8  374861.20  182075.44  48.57
878.0  375345.05  182275.46  48.56
879.2  375809.55  182491.20  48.56
880.4  376228.88  182715.05  48.56
881.6  376612.48  182918.81  48.57
882.8  376982.40  183069.87  48.56
884.0  377553.58  183331.22  48.56
885.2  377987.00  183515.17  48.55
886.5  378589.85  183789.19  48.55
887.7  378915.23  183963.09  48.55
888.8  379521.45  184241.63  48.55
890.0  379969.50  184480.89  48.55
891.2  380515.70  184701.44  48.54
892.4  380955.23  184982.00  48.56
893.6  381546.00  185210.39  48.54
894.8  382398.00  185581.63  48.53
896.0  383105.00  185901.87  48.53
897.2  383857.50  186280.03  48.53
898.4  384443.40  186608.84  48.54
899.6  384960.75  186836.50  48.53
900.8  385222.95  186967.72  48.53
902.0  385340.85  187019.90  48.53
903.2  385589.33  187082.63  48.52
904.3  385900.50  187199.36  48.51
905.5  386406.18  187424.32  48.50
906.7  386921.50  187623.07  48.49
907.9  387249.45  187832.68  48.50
909.1  387459.45  187898.76  48.50
910.2  387486.60  187932.58  48.50
911.4  387597.60  187978.44  48.50
912.6  387744.50  187981.13  48.48
913.8  387912.30  188024.92  48.47
915.0  388219.65  188141.38  48.46
916.2  388362.00  188130.80  48.44
917.3  388122.98  188104.53  48.47
918.5  388348.50  188072.56  48.43
919.7  388467.15  188116.50  48.43
920.8  388433.00  188132.82  48.43
922.0  388484.25  188039.13  48.40
923.2  388615.50  188060.60  48.39
924.4  388695.38  188060.85  48.38
925.5  388771.30  188076.83  48.38
926.7  389110.88  188219.75  48.37
927.9  389986.20  188500.56  48.34
929.0  391419.00  189117.18  48.32
930.2  393412.10  190066.63  48.31
931.4  395780.18  191122.65  48.29
932.5  398419.75  192306.02  48.27
933.7  399746.43  192825.74  48.24
934.9  400316.88  193019.75  48.22
936.0  399644.38  192617.10  48.20
937.2  397410.90  191458.74  48.18
938.3  395644.05  190439.57  48.13
939.5  394066.80  189571.68  48.11
940.7  394166.70  189456.72  48.07
941.8  395407.95  190020.36  48.06
943.0  396859.50  190554.70  48.02
944.2  397446.40  190759.66  48.00
945.3  396990.75  190387.60  47.96
946.5  395941.50  189826.74  47.94
947.6  396083.90  189632.08  47.88
948.8  395811.00  189316.66  47.83
949.9  395984.40  189109.20  47.76
951.1  395234.78  188707.39  47.75
952.2  394944.00  188387.20  47.70
953.4  394811.25  187989.57  47.62
954.5  394453.80  187714.80  47.59
955.7  394342.20  187382.16  47.52
956.8  393963.20  187016.31  47.47
958.0  393384.00  186591.60  47.43
959.1  393212.95  186238.17  47.36
960.3  392567.33  185850.46  47.34
961.4  392402.15  185669.78  47.32
962.6  392231.00  185566.50  47.31
963.7  392029.35  185302.15  47.27
964.9  392101.05  185122.57  47.21
966.0  391677.53  184891.68  47.21
967.2  391734.45  184834.56  47.18
968.3  391015.35  184626.54  47.22
969.5  390845.85  184482.22  47.20
970.6  390933.65  184553.02  47.21
971.8  391049.05  184525.65  47.19
972.9  390905.70  184379.27  47.17
974.0  391405.90  184459.40  47.13
975.2  391270.38  184434.92  47.14
976.3  390792.25  184425.26  47.19
977.5  390654.78  184448.55  47.22
978.6  390497.60  184366.08  47.21
979.7  390747.00  184274.02  47.16
980.9  390501.05  184097.65  47.14
982.0  390679.30  183916.84  47.08
983.2  389324.85  183864.88  47.23
984.3  388817.00  183659.39  47.24
985.4  388802.40  183523.99  47.20
986.6  388741.13  183336.78  47.16
987.7  390030.55  183579.60  47.07
988.9  389511.00  183380.40  47.08
990.0  389319.50  183574.45  47.15
993.1  391963.19  184298.38  47.02
996.9  390646.38  184159.11  47.14
1000.7  390583.32  184566.74  47.25
1004.5  390645.33  184956.75  47.35
1008.4  390155.13  185165.48  47.46
1012.2  389870.21  185420.46  47.56
1016.0  389425.80  185583.38  47.66
1019.8  388686.38  185572.57  47.74
1023.7  387460.30  185282.41  47.82
1027.5  385817.60  184743.92  47.88
1031.3  384851.90  184453.29  47.93
1035.1  383805.98  184110.55  47.97
1038.9  383331.48  184001.49  48.00
1042.7  383002.92  183967.16  48.03
1046.5  382879.83  183981.59  48.05
1050.3  382857.76  184023.67  48.07
1054.2  382470.08  183921.78  48.09
1058.0  382053.64  183750.43  48.10
1061.8  381973.87  183754.66  48.11
1065.6  381483.40  183473.63  48.09
1069.4  380684.67  183099.63  48.10
1073.2  379359.74  182450.54  48.09
1077.0  378615.25  182039.67  48.08
1080.8  378661.46  181974.04  48.06
1084.6  378614.83  181851.57  48.03
1088.4  378846.98  181879.88  48.01
1092.2  378378.00  181535.71  47.98
1096.0  377700.76  181075.08  47.94
1099.8  377044.20  180588.28  47.90
1103.6  376123.75  179981.29  47.85
1107.4  374959.57  179249.22  47.80
1111.2  374642.50  178920.46  47.76
1114.9  374073.00  178434.63  47.70
1118.7  373772.03  178017.79  47.63
1122.5  373392.93  177485.46  47.53
1126.3  372416.92  176594.53  47.42
1130.1  372016.93  175776.04  47.25
1133.9  370344.10  174075.96  47.00
1137.7  368769.30  172230.79  46.70
1141.4  366685.69  169972.18  46.35
1145.2  365726.38  168135.05  45.97
1149.0  364412.71  166276.53  45.63
1152.8  362578.95  164427.72  45.35
1156.6  360727.03  162893.05  45.16
1160.3  358916.67  161664.87  45.04
1164.1  356569.27  160392.36  44.98
1167.9  354870.83  159570.11  44.97
1171.7  353548.13  158969.63  44.96
1175.4  352062.40  158327.13  44.97
1179.2  350625.40  157684.83  44.97
1183.0  350266.67  157473.49  44.96
1186.7  350200.67  157402.89  44.95
1190.5  349814.33  157187.75  44.93
1194.3  348862.87  156750.61  44.93
1198.0  347373.68  156140.03  44.95
1201.8  345646.13  155435.02  44.97
1205.6  344558.67  155046.15  45.00
1209.3  343944.37  154904.72  45.04
1213.1  343483.73  154794.25  45.07
1216.8  342877.88  154656.27  45.11
1220.6  341777.33  154280.62  45.14
1224.3  340533.00  153837.69  45.18
1228.1  339034.40  153311.73  45.22
1231.9  337427.40  152696.76  45.25
1235.6  335706.23  151994.24  45.28
1239.4  334076.63  151401.74  45.32
1243.1  332686.86  150827.14  45.34
1246.9  331379.40  150276.16  45.35
1250.6  330278.20  149816.49  45.36
1254.3  329082.69  149290.71  45.37
1258.1  327828.55  148721.58  45.37
1261.8  326347.20  148043.86  45.36
1265.6  325108.67  147421.82  45.35
1269.3  324249.15  146936.13  45.32
1273.1  324593.27  146946.85  45.27
1276.8  324392.00  146686.81  45.22
1280.6  323274.40  145998.98  45.16
1284.3  321276.00  144866.93  45.09
1288.0  319960.83  143983.67  45.00
1291.8  319424.86  143389.17  44.89
1295.5  318649.47  142641.20  44.76
1299.2  317514.43  141672.04  44.62
1302.9  315865.84  140397.21  44.45
1306.7  314088.37  138997.56  44.25
1310.4  312373.14  137499.56  44.02
1314.1  310769.98  135994.25  43.76
1317.9  309337.50  134440.94  43.46
1321.6  307798.36  132742.86  43.13
1325.3  306083.40  130878.69  42.76
1329.0  304749.67  129133.49  42.37
1332.8  302779.40  127016.02  41.95
1336.5  301104.47  125007.83  41.52
1340.2  300952.17  123647.33  41.09
1343.9  300927.29  122339.94  40.65
1347.6  301120.50  121137.32  40.23
