/*** Spectra Vista SIG Data ***/
name= 32_20220926_QUPH_05_avg.sig
comm= Averaged Ref/Tar of files: HR.092722.0015_moc.sig,HR.092722.0016_moc.sig
data=
337.3  6317.33  401.10  6.35
338.8  6445.40  404.04  6.27
340.3  6900.33  434.82  6.30
341.8  7258.00  417.34  5.75
343.2  7638.95  426.36  5.58
344.7  7986.38  412.20  5.16
346.2  8389.50  394.80  4.71
347.7  8785.65  395.75  4.50
349.2  9072.00  408.24  4.50
350.6  9569.55  394.47  4.12
352.1  10188.00  410.35  4.03
353.6  10732.80  426.56  3.97
355.1  11242.73  439.07  3.91
356.6  11908.73  442.51  3.72
358.0  12475.03  455.94  3.65
359.5  13048.65  451.22  3.46
361.0  13757.60  450.68  3.28
362.5  14361.08  484.47  3.37
364.0  15105.53  497.86  3.30
365.4  15767.63  508.99  3.23
366.9  16469.20  541.75  3.29
368.4  17210.90  534.50  3.11
369.9  17967.00  561.80  3.13
371.3  18856.48  598.79  3.18
372.8  19585.15  633.79  3.24
374.3  20461.40  641.72  3.14
375.8  21341.30  644.47  3.02
377.2  22165.65  663.39  2.99
378.7  23018.98  663.71  2.88
380.2  23831.70  674.88  2.83
381.7  24739.75  696.30  2.81
383.1  25729.80  717.06  2.79
384.6  26708.10  736.05  2.76
386.1  27680.63  748.70  2.70
387.6  28600.80  757.08  2.65
389.0  29620.13  786.38  2.65
390.5  30590.70  822.00  2.69
392.0  31722.75  838.35  2.64
393.4  32777.25  873.38  2.66
394.9  33848.50  885.66  2.62
396.4  35015.20  910.80  2.60
397.9  36122.10  931.86  2.58
399.3  37043.08  956.91  2.58
400.8  38258.55  983.24  2.57
402.2  39428.40  1014.42  2.57
403.7  40705.65  1032.90  2.54
405.2  41858.80  1060.30  2.53
406.6  43125.60  1096.26  2.54
408.1  44201.10  1127.04  2.55
409.6  45384.28  1154.93  2.54
411.0  46632.58  1187.62  2.55
412.5  48011.20  1224.61  2.55
414.0  49417.90  1255.31  2.54
415.4  50735.70  1300.32  2.56
416.9  52009.65  1343.40  2.58
418.4  53361.43  1387.62  2.60
419.8  54686.45  1428.14  2.61
421.3  56202.30  1448.37  2.58
422.7  57696.60  1493.96  2.59
424.2  59224.43  1540.43  2.60
425.7  60688.38  1593.90  2.63
427.1  62198.20  1639.38  2.64
428.6  63683.03  1681.40  2.64
430.0  65235.23  1718.42  2.63
431.5  66903.53  1764.43  2.64
432.9  68610.75  1810.33  2.64
434.4  70366.05  1868.67  2.66
435.9  72004.70  1913.26  2.66
437.3  73724.63  1970.25  2.67
438.8  75382.98  2023.18  2.68
440.2  77077.70  2070.36  2.69
441.7  78967.55  2131.04  2.70
443.1  80823.15  2185.38  2.70
444.6  82610.15  2238.73  2.71
446.0  84477.68  2311.92  2.74
447.5  86450.00  2390.00  2.76
448.9  88209.58  2447.64  2.77
450.4  90125.00  2520.00  2.80
451.8  91957.50  2587.88  2.81
453.3  93820.80  2653.88  2.83
454.7  95674.28  2725.56  2.85
456.2  97473.25  2790.06  2.86
457.6  99445.05  2852.28  2.87
459.1  101279.33  2917.22  2.88
460.5  103145.05  2969.88  2.88
462.0  105209.10  3032.82  2.88
463.4  107232.65  3097.01  2.89
464.8  109215.23  3154.10  2.89
466.3  111169.95  3216.51  2.89
467.7  113206.40  3285.76  2.90
469.2  115116.00  3350.31  2.91
470.6  117180.00  3412.33  2.91
472.0  119271.08  3472.97  2.91
473.5  121291.93  3551.21  2.93
474.9  123506.65  3631.09  2.94
476.4  125628.20  3702.96  2.95
477.8  127736.00  3780.00  2.96
479.2  129811.80  3861.85  2.97
480.7  131986.05  3944.48  2.99
482.1  134235.48  4032.37  3.00
483.6  136486.80  4106.88  3.01
485.0  138728.03  4196.25  3.02
486.4  140880.35  4284.25  3.04
487.9  143142.75  4401.35  3.07
489.3  145337.03  4502.52  3.10
490.7  147541.70  4620.28  3.13
492.2  149791.63  4749.98  3.17
493.6  152084.20  4878.92  3.21
495.0  154409.78  5027.30  3.26
496.5  156605.40  5193.72  3.32
497.9  158956.75  5391.25  3.39
499.3  161255.13  5612.58  3.48
500.7  163574.00  5863.76  3.58
502.2  166019.45  6141.76  3.70
503.6  168325.80  6463.44  3.84
505.0  170658.13  6820.66  4.00
506.5  173127.20  7251.70  4.19
507.9  175577.03  7747.99  4.41
509.3  177879.38  8303.90  4.67
510.7  180535.88  8946.21  4.96
512.2  183236.25  9656.97  5.27
513.6  186117.93  10474.51  5.63
515.0  188890.63  11380.15  6.02
516.4  191772.60  12368.36  6.45
517.8  194592.25  13450.60  6.91
519.3  197526.40  14622.72  7.40
520.7  200214.80  15837.24  7.91
522.1  202932.93  17118.34  8.44
523.5  205506.33  18401.95  8.95
524.9  208453.35  19725.26  9.46
526.3  211104.90  20994.26  9.94
527.8  213943.25  22253.08  10.40
529.2  216489.60  23489.28  10.85
530.6  219238.20  24697.08  11.26
532.0  222139.13  25852.84  11.64
533.4  224654.65  26897.89  11.97
534.8  227182.73  27876.75  12.27
536.3  230132.53  28843.21  12.53
537.7  233139.50  29759.60  12.76
539.1  236063.75  30633.72  12.98
540.5  238917.00  31466.55  13.17
541.9  241874.23  32307.34  13.36
543.3  244452.60  33079.82  13.53
544.7  247456.00  33915.20  13.71
546.1  250266.10  34724.34  13.87
547.5  253195.20  35514.72  14.03
549.0  256244.40  36302.88  14.17
550.4  259090.65  37022.90  14.29
551.8  262074.65  37687.17  14.38
553.2  264958.28  38255.84  14.44
554.6  267807.85  38704.52  14.45
556.0  270741.45  39030.18  14.42
557.4  273843.90  39286.58  14.35
558.8  276718.40  39403.68  14.24
560.2  279900.00  39480.00  14.11
561.6  282816.60  39435.33  13.94
563.0  285606.10  39284.44  13.75
564.4  288787.80  39114.04  13.54
565.8  291801.05  38842.73  13.31
567.2  294970.23  38513.39  13.06
568.6  297992.93  38075.13  12.78
570.0  300862.25  37522.23  12.47
571.4  304253.78  36971.70  12.15
572.8  307389.60  36371.44  11.83
574.2  310261.35  35757.33  11.52
575.6  313303.00  35201.18  11.24
577.0  316337.73  34690.48  10.97
578.4  319725.00  34278.13  10.72
579.8  322780.65  33871.88  10.49
581.2  325851.25  33526.30  10.29
582.5  328725.00  33205.50  10.10
583.9  331760.50  32942.24  9.93
585.3  334637.70  32701.20  9.77
586.7  337629.60  32506.32  9.63
588.1  340576.10  32363.70  9.50
589.5  343924.20  32291.76  9.39
590.9  346868.18  32239.99  9.29
592.3  349785.68  32226.80  9.21
593.7  352736.83  32259.82  9.15
595.0  355666.80  32329.32  9.09
596.4  358946.25  32456.90  9.04
597.8  361615.70  32519.56  8.99
599.2  364710.45  32600.10  8.94
600.6  367896.38  32654.16  8.88
602.0  370849.20  32642.16  8.80
603.3  373724.00  32557.20  8.71
604.7  376722.13  32408.86  8.60
606.1  379704.45  32172.42  8.47
607.5  382995.98  31888.27  8.33
608.9  386085.70  31531.50  8.17
610.2  389235.83  31139.96  8.00
611.6  392150.00  30695.50  7.83
613.0  394914.90  30253.52  7.66
614.4  397679.93  29790.39  7.49
615.8  400930.80  29381.36  7.33
617.1  403617.50  28992.72  7.18
618.5  406875.45  28703.57  7.05
619.9  409580.40  28449.45  6.95
621.3  412470.50  28253.94  6.85
622.6  415379.25  28144.35  6.78
624.0  418068.00  28066.73  6.71
625.4  421140.23  28078.02  6.67
626.8  424064.55  28136.55  6.63
628.1  426817.30  28240.59  6.62
629.5  429513.00  28355.46  6.60
630.9  432256.75  28465.61  6.59
632.2  435234.58  28568.28  6.56
633.6  437622.90  28570.88  6.53
635.0  440513.03  28503.59  6.47
636.3  443483.40  28311.55  6.38
637.7  446188.43  27993.00  6.27
639.1  449133.85  27557.97  6.14
640.4  451790.88  27018.70  5.98
641.8  454620.60  26422.92  5.81
643.2  457200.15  25746.66  5.63
644.5  460040.00  25081.00  5.45
645.9  462590.10  24391.50  5.27
647.2  464904.83  23773.75  5.11
648.6  467540.00  23256.72  4.97
650.0  470262.60  22844.52  4.86
651.3  473097.65  22512.59  4.76
652.7  477059.25  22248.90  4.66
654.0  479894.40  21907.46  4.57
655.4  482113.80  21517.34  4.46
656.8  483682.50  21055.44  4.35
658.1  486253.43  20602.26  4.24
659.5  489456.00  20070.72  4.10
660.8  492362.85  19501.65  3.96
662.2  495096.95  18921.34  3.82
663.5  497942.23  18361.54  3.69
664.9  499773.60  17852.69  3.57
666.2  501874.10  17421.69  3.47
667.6  504364.50  17091.45  3.39
668.9  507038.40  16882.56  3.33
670.3  510169.63  16738.40  3.28
671.6  512192.00  16663.20  3.25
673.0  514481.60  16654.72  3.24
674.3  516881.75  16719.78  3.23
675.7  519359.40  16852.32  3.24
677.0  521647.65  17033.57  3.27
678.4  523828.60  17268.24  3.30
679.7  526081.28  17607.83  3.35
681.1  528596.93  18030.45  3.41
682.4  530746.88  18611.10  3.51
683.8  532950.38  19399.28  3.64
685.1  535167.15  20426.94  3.82
686.4  537381.65  21858.01  4.07
687.8  539753.40  23795.58  4.41
689.1  542033.80  26414.22  4.87
690.5  544066.45  29832.17  5.48
691.8  546595.50  34237.78  6.26
693.1  549013.50  39706.80  7.23
694.5  551319.20  46164.68  8.37
695.8  553679.00  53523.76  9.67
697.1  555907.70  61599.52  11.08
698.5  558181.88  70288.60  12.59
699.8  560521.60  79430.48  14.17
701.1  562422.53  88727.42  15.78
702.5  564395.50  98114.25  17.38
703.8  566820.98  107523.99  18.97
705.1  568587.55  116660.34  20.52
706.5  570829.90  125684.24  22.02
707.8  572662.75  134392.89  23.47
709.1  574900.05  142972.08  24.87
710.5  577008.28  151327.53  26.23
711.8  578952.00  159444.00  27.54
713.1  580801.00  167390.40  28.82
714.4  582816.65  175180.59  30.06
715.8  585001.58  182922.30  31.27
717.1  587228.35  190438.21  32.43
718.4  589448.78  197792.72  33.56
719.7  591578.78  204939.95  34.64
721.0  593289.28  211714.31  35.68
722.4  595080.45  218293.65  36.68
723.7  597017.75  224678.63  37.63
725.0  598675.65  230701.65  38.54
726.3  600899.00  236673.32  39.39
727.6  602508.00  242180.25  40.20
729.0  604342.20  247462.04  40.95
730.3  606239.75  252494.17  41.65
731.6  607721.50  257061.48  42.30
732.9  609636.63  261509.04  42.90
734.2  611201.25  265607.10  43.46
735.5  612942.55  269490.21  43.97
736.8  614847.98  273259.63  44.44
738.1  616663.28  276702.29  44.87
739.5  618378.45  279906.51  45.26
740.8  620235.28  282957.07  45.62
742.1  621746.55  285629.58  45.94
743.4  623401.10  288222.06  46.23
744.7  625191.00  290736.60  46.50
746.0  626575.48  292891.85  46.74
747.3  628058.90  294969.50  46.97
748.6  629583.10  296888.00  47.16
749.9  631258.48  298749.40  47.33
751.2  632446.83  300263.14  47.48
752.5  633925.10  301833.17  47.61
753.8  635167.35  303208.38  47.74
755.1  636700.20  304623.92  47.84
756.4  637795.55  305762.82  47.94
757.7  639702.25  307234.13  48.03
759.0  643218.58  309373.35  48.10
760.3  645869.95  311052.70  48.16
761.6  648647.10  312754.66  48.22
762.9  649990.00  313709.00  48.26
764.2  650674.10  314343.59  48.31
765.5  651490.73  314974.35  48.35
766.8  651937.90  315423.99  48.38
768.1  652935.15  316094.94  48.41
769.3  654113.10  316808.67  48.43
770.6  655417.45  317614.87  48.46
771.9  656494.00  318278.43  48.48
773.2  657841.28  319033.85  48.50
774.5  658699.35  319552.83  48.51
775.8  659721.10  320121.60  48.52
777.1  660805.70  320788.44  48.55
778.4  661996.00  321455.30  48.56
779.6  663189.00  322125.36  48.57
780.9  663768.68  322517.70  48.59
782.2  664682.18  323025.00  48.60
783.5  665555.25  323498.45  48.61
784.8  666177.75  323923.95  48.62
786.0  666942.23  324360.08  48.63
787.3  667631.88  324780.55  48.65
788.6  668472.88  325223.25  48.65
789.9  669175.50  325621.24  48.66
791.2  670361.15  326299.04  48.68
792.4  671453.75  326847.40  48.68
793.7  672876.23  327611.90  48.69
795.0  673850.60  328127.29  48.69
796.2  675126.10  328806.69  48.70
797.5  676208.75  329398.00  48.71
798.8  677494.13  330099.53  48.72
800.0  678580.00  330666.00  48.73
801.3  679691.25  331255.58  48.74
802.6  680616.00  331790.40  48.75
803.8  681659.48  332328.15  48.75
805.1  682605.00  332865.98  48.76
806.4  683526.38  333345.38  48.77
807.7  684633.93  333920.58  48.77
808.9  685587.48  334490.78  48.79
810.2  686479.50  334964.70  48.79
811.4  687530.00  335483.12  48.80
812.7  688786.10  336168.50  48.81
814.0  689893.05  336804.93  48.82
815.2  691271.25  337488.06  48.82
816.5  692348.13  338069.38  48.83
817.7  693040.50  338499.65  48.84
819.0  693789.60  338867.20  48.84
820.2  694563.75  339293.31  48.85
821.5  695551.60  339873.80  48.86
822.7  696566.50  340409.02  48.87
824.0  697411.65  340872.48  48.88
825.2  698006.40  341231.28  48.89
826.5  698712.45  341623.77  48.89
827.7  699768.58  342180.50  48.90
829.0  700732.13  342682.47  48.90
830.2  701669.60  343198.64  48.91
831.5  702586.58  343697.49  48.92
832.7  703453.50  344200.50  48.93
834.0  704097.90  344547.27  48.93
835.2  705071.95  345090.73  48.94
836.4  705786.80  345476.80  48.95
837.7  706550.63  345911.63  48.96
838.9  707746.10  346593.50  48.97
840.1  708625.50  347038.56  48.97
841.4  709623.70  347546.04  48.98
842.6  710500.70  348050.64  48.99
843.8  711207.90  348534.68  49.01
845.1  712154.85  349036.71  49.01
846.3  713086.50  349519.17  49.01
847.5  714044.50  350023.70  49.02
848.8  714968.90  350600.83  49.04
850.0  716183.00  351245.36  49.04
851.2  717002.00  351732.10  49.06
852.5  718242.10  352346.62  49.06
853.7  719014.73  352738.80  49.06
854.9  720142.80  353355.99  49.07
856.1  721307.50  353930.37  49.07
857.4  722264.03  354490.35  49.08
858.6  723270.80  355035.52  49.09
859.8  724394.80  355634.46  49.09
861.0  725319.00  356156.64  49.10
862.2  726434.10  356730.78  49.11
863.5  727338.65  357240.76  49.12
864.7  728525.00  357765.00  49.11
865.9  729491.75  358320.30  49.12
867.1  730262.50  358698.13  49.12
868.3  731390.58  359361.81  49.13
869.5  732505.75  359939.98  49.14
870.8  733682.70  360502.38  49.14
872.0  734647.08  361023.94  49.14
873.2  735893.75  361471.01  49.12
874.4  736567.75  361943.60  49.14
875.6  737803.18  362525.12  49.14
876.8  739270.95  363281.49  49.14
878.0  740244.40  363802.25  49.15
879.2  741341.95  364322.24  49.14
880.4  742352.00  364868.00  49.15
881.6  743461.20  365350.40  49.14
882.8  744648.95  365981.61  49.15
884.0  745638.73  366509.72  49.15
885.2  747009.75  367144.75  49.15
886.5  748324.85  367770.41  49.15
887.7  749516.83  368263.44  49.13
888.8  750658.65  368960.43  49.15
890.0  751721.25  369374.25  49.14
891.2  752907.68  369805.61  49.12
892.4  754188.60  370557.50  49.13
893.6  755971.68  371448.02  49.14
894.8  757480.13  372225.15  49.14
896.0  758901.70  372896.34  49.14
897.2  760602.15  373765.59  49.14
898.4  762652.80  374645.04  49.12
899.6  763874.80  375233.84  49.12
900.8  764427.95  375516.57  49.12
902.0  765062.55  375820.20  49.12
903.2  765210.10  375884.34  49.12
904.3  766276.88  376403.63  49.12
905.5  767596.50  376982.10  49.11
906.7  768486.33  377479.04  49.12
907.9  769826.85  377889.96  49.09
909.1  770748.83  378456.54  49.10
910.2  771120.00  378567.00  49.09
911.4  771100.20  378661.86  49.11
912.6  771635.00  378930.50  49.11
913.8  772597.00  379359.89  49.10
915.0  773140.00  379437.16  49.08
916.2  773091.60  379462.50  49.08
917.3  773875.13  379827.67  49.08
918.5  774131.10  379942.92  49.08
919.7  774324.25  379936.50  49.07
920.8  774202.58  380058.25  49.09
922.0  774291.10  380038.01  49.08
923.2  774681.00  380139.24  49.07
924.4  775379.88  380304.05  49.05
925.5  776139.60  380605.84  49.04
926.7  777162.75  380895.15  49.01
927.9  778478.98  381521.19  49.01
929.0  781366.50  383060.88  49.02
930.2  785323.20  385036.52  49.03
931.4  790350.35  387449.49  49.02
932.5  794893.00  389372.39  48.98
933.7  798223.65  390575.36  48.93
934.9  799338.75  391090.00  48.93
936.0  798036.53  390450.29  48.93
937.2  794877.05  388753.88  48.91
938.3  791014.25  386703.20  48.89
939.5  788872.50  385512.66  48.87
940.7  788732.18  385372.68  48.86
941.8  791564.15  386533.68  48.83
943.0  793804.28  387244.37  48.78
944.2  794952.00  387813.60  48.78
945.3  794424.60  387295.92  48.75
946.5  792758.75  386333.50  48.73
947.6  793823.50  386500.95  48.69
948.8  792545.78  385651.14  48.66
949.9  793238.08  385649.15  48.62
951.1  792661.20  385294.57  48.61
952.2  792095.08  384532.86  48.55
953.4  791861.55  383975.79  48.49
954.5  790308.75  382898.25  48.45
955.7  790494.15  382308.59  48.36
956.8  790711.95  382046.10  48.32
958.0  789073.65  381229.83  48.31
959.1  788810.40  380661.12  48.26
960.3  788100.00  380082.50  48.23
961.4  788741.00  380201.50  48.20
962.6  788241.60  379552.32  48.15
963.7  788249.00  379545.60  48.15
964.9  788464.85  379151.39  48.09
966.0  788956.00  379425.55  48.09
967.2  789432.00  379354.08  48.05
968.3  790514.65  379710.72  48.03
969.5  790302.38  379798.36  48.06
970.6  790807.85  379540.94  47.99
971.8  789955.95  379567.16  48.05
972.9  790608.00  379466.50  48.00
974.0  791183.90  379715.35  47.99
975.2  790121.25  379147.50  47.99
976.3  790852.35  379259.58  47.96
977.5  789272.70  378820.19  48.00
978.6  789204.53  378753.15  47.99
979.7  788233.60  378593.60  48.03
980.9  789257.18  378403.44  47.94
982.0  788567.60  378083.03  47.95
983.2  787431.40  377592.60  47.95
984.3  785508.50  376380.27  47.92
985.4  784858.90  376308.66  47.95
986.6  785643.70  376808.73  47.96
987.7  784178.00  376193.50  47.97
988.9  786086.00  377040.54  47.96
990.0  784214.50  376127.03  47.96
993.1  863705.40  413255.58  47.85
996.9  862691.50  413819.04  47.97
1000.7  861873.38  414267.95  48.07
1004.5  860453.60  414420.19  48.16
1008.4  861072.44  415602.70  48.27
1012.2  861815.54  416768.17  48.36
1016.0  861120.33  417286.85  48.46
1019.8  859338.12  417176.04  48.55
1023.7  857503.12  416888.22  48.62
1027.5  854598.93  416128.32  48.69
1031.3  852623.99  415676.17  48.75
1035.1  851299.88  415442.16  48.80
1038.9  850689.56  415477.79  48.84
1042.7  850215.48  415593.72  48.88
1046.5  849422.00  415456.50  48.91
1050.3  847697.48  414866.19  48.94
1054.2  845544.98  414065.67  48.97
1058.0  844671.60  413727.17  48.98
1061.8  843382.50  413326.77  49.01
1065.6  841272.88  412324.61  49.01
1069.4  838815.58  411150.79  49.02
1073.2  836543.50  410029.29  49.01
1077.0  834900.00  409180.52  49.01
1080.8  834485.67  408773.36  48.99
1084.6  834146.50  408453.57  48.97
1088.4  833486.28  408016.62  48.95
1092.2  832237.70  407183.05  48.93
1096.0  830697.27  406211.91  48.90
1099.8  829224.63  405145.82  48.86
1103.6  827295.50  403888.73  48.82
1107.4  825585.42  402703.21  48.78
1111.2  824101.82  401570.94  48.73
1114.9  822993.00  400602.22  48.68
1118.7  822487.08  399707.52  48.60
1122.5  822517.26  398888.59  48.50
1126.3  820064.70  396702.90  48.37
1130.1  819476.88  394987.43  48.20
1133.9  816021.74  391409.62  47.97
1137.7  813246.00  387821.49  47.69
1141.4  809472.13  383300.86  47.35
1145.2  808395.75  379793.48  46.98
1149.0  806295.45  375936.05  46.63
1152.8  802860.55  371709.08  46.30
1156.6  799291.27  367978.02  46.04
1160.3  796078.05  364922.52  45.84
1164.1  791506.53  361661.47  45.69
1167.9  788423.58  359488.40  45.60
1171.7  785823.00  357718.20  45.52
1175.4  783247.29  356080.22  45.46
1179.2  781071.00  354610.77  45.40
1183.0  781187.50  354212.73  45.34
1186.7  781386.67  353797.50  45.28
1190.5  780182.17  352850.03  45.23
1194.3  777368.67  351275.15  45.19
1198.0  774201.75  349714.88  45.17
1201.8  771591.33  348513.00  45.17
1205.6  770031.38  347932.58  45.18
1209.3  769026.00  347737.18  45.22
1213.1  767791.17  347536.65  45.26
1216.8  766058.13  347265.83  45.33
1220.6  763758.00  346824.25  45.41
1224.3  761429.17  346333.04  45.48
1228.1  759173.68  345941.02  45.57
1231.9  756724.80  345326.61  45.63
1235.6  754180.90  344619.77  45.69
1239.4  751745.95  344005.51  45.76
1243.1  749513.70  343291.70  45.80
1246.9  747473.01  342608.01  45.84
1250.6  745352.67  341809.83  45.86
1254.3  743294.40  341032.63  45.88
1258.1  741068.67  340127.29  45.90
1261.8  738548.53  339028.10  45.90
1265.6  736174.63  337917.72  45.90
1269.3  734141.33  336837.37  45.88
1273.1  734662.93  336878.65  45.85
1276.8  734579.00  336539.11  45.81
1280.6  733450.36  335751.23  45.78
1284.3  730620.27  334081.69  45.73
1288.0  728755.63  332732.24  45.66
1291.8  727385.40  331411.50  45.56
1295.5  725889.91  329960.69  45.46
1299.2  723549.45  328011.59  45.33
1302.9  720591.39  325575.45  45.18
1306.7  717436.13  322850.14  45.00
1310.4  714354.57  319889.75  44.78
1314.1  711751.88  316998.89  44.54
1317.9  709126.60  313817.24  44.25
1321.6  706346.55  310265.80  43.93
1325.3  703443.83  306428.21  43.56
1329.0  700735.93  302517.60  43.17
1332.8  697015.00  297912.86  42.74
1336.5  693528.38  293366.07  42.30
