/*** Spectra Vista SIG Data ***/
name= 37_20220926_BENI_59_avg.sig
comm= Averaged Ref/Tar of files: HR.092722.0027_moc.sig,HR.092722.0028_moc.sig,HR.092722.0029_moc.sig
data=
337.3  3225.63  231.58  7.18
338.8  3367.00  230.88  6.86
340.3  3513.75  218.63  6.22
341.8  3749.45  195.09  5.20
343.2  3907.20  201.28  5.15
344.7  4137.05  210.41  5.09
346.2  4248.40  206.97  4.87
347.7  4483.05  199.25  4.44
349.2  4687.20  206.64  4.41
350.6  4957.88  195.87  3.95
352.1  5287.30  200.06  3.78
353.6  5552.00  208.20  3.75
355.1  5825.78  211.03  3.62
356.6  6096.15  218.50  3.58
358.0  6380.00  216.92  3.40
359.5  6674.40  218.36  3.27
361.0  7002.45  223.44  3.19
362.5  7406.58  230.30  3.11
364.0  7770.93  237.05  3.05
365.4  8120.90  247.28  3.04
366.9  8508.50  254.15  2.99
368.4  8864.38  265.48  2.99
369.9  9242.55  277.46  3.00
371.3  9665.40  302.60  3.13
372.8  10115.55  322.14  3.18
374.3  10561.88  318.92  3.02
375.8  10995.60  323.40  2.94
377.2  11405.60  329.97  2.89
378.7  11836.00  340.73  2.88
380.2  12266.40  333.56  2.72
381.7  12782.83  335.11  2.62
383.1  13286.35  348.55  2.62
384.6  13811.20  356.07  2.58
386.1  14296.23  363.94  2.55
387.6  14768.60  377.30  2.55
389.0  15222.40  378.77  2.49
390.5  15744.15  396.48  2.52
392.0  16319.65  405.57  2.49
393.4  16921.10  413.39  2.44
394.9  17460.90  428.04  2.45
396.4  18009.00  434.70  2.41
397.9  18578.13  447.58  2.41
399.3  19145.70  462.60  2.42
400.8  19715.68  478.56  2.43
402.2  20376.50  484.45  2.38
403.7  20993.40  500.76  2.39
405.2  21615.28  517.69  2.40
406.6  22202.40  532.05  2.40
408.1  22803.40  536.37  2.35
409.6  23420.65  553.14  2.36
411.0  24104.15  575.03  2.39
412.5  24802.58  588.65  2.37
414.0  25448.38  608.53  2.39
415.4  26175.38  622.75  2.38
416.9  26869.35  645.07  2.40
418.4  27564.30  667.32  2.42
419.8  28319.20  689.17  2.43
421.3  29054.75  720.13  2.48
422.7  29841.00  744.72  2.50
424.2  30628.13  767.25  2.51
425.7  31410.10  784.57  2.50
427.1  32203.88  814.46  2.53
428.6  33030.50  845.27  2.56
430.0  33794.73  868.01  2.57
431.5  34685.70  905.45  2.61
432.9  35570.20  933.69  2.62
434.4  36485.78  962.64  2.64
435.9  37366.00  994.93  2.66
437.3  38238.75  1023.00  2.68
438.8  39123.15  1057.04  2.70
440.2  40020.75  1088.78  2.72
441.7  40990.60  1125.60  2.75
443.1  41923.00  1162.47  2.77
444.6  42915.60  1205.20  2.81
446.0  43894.43  1243.87  2.83
447.5  44901.45  1287.33  2.87
448.9  45859.50  1333.00  2.91
450.4  46891.95  1381.33  2.95
451.8  47801.00  1423.07  2.98
453.3  48743.60  1462.66  3.00
454.7  49775.15  1501.95  3.02
456.2  50678.20  1541.15  3.04
457.6  51679.58  1582.38  3.06
459.1  52687.05  1623.87  3.08
460.5  53660.50  1662.07  3.10
462.0  54749.20  1702.35  3.11
463.4  55827.50  1740.81  3.12
464.8  56832.00  1776.00  3.13
466.3  57825.08  1817.64  3.14
467.7  58833.50  1856.02  3.15
469.2  59917.28  1897.31  3.17
470.6  60934.85  1940.77  3.18
472.0  62014.45  1987.39  3.20
473.5  63054.00  2028.35  3.22
474.9  64139.25  2071.00  3.23
476.4  65332.80  2125.44  3.25
477.8  66410.00  2173.07  3.27
479.2  67425.00  2217.53  3.29
480.7  68553.60  2265.82  3.31
482.1  69706.80  2321.63  3.33
483.6  70920.60  2373.65  3.35
485.0  72042.08  2427.94  3.37
486.4  73259.25  2489.02  3.40
487.9  74368.13  2552.55  3.43
489.3  75539.25  2619.09  3.47
490.7  76599.45  2695.66  3.52
492.2  77851.20  2787.12  3.58
493.6  78992.80  2881.17  3.65
495.0  80130.38  2987.40  3.73
496.5  81328.85  3103.27  3.82
497.9  82458.83  3232.41  3.92
499.3  83662.18  3379.16  4.04
500.7  84955.35  3557.02  4.19
502.2  86140.00  3757.07  4.36
503.6  87424.80  3978.99  4.55
505.0  88529.95  4230.92  4.78
506.5  89861.55  4527.06  5.04
507.9  91055.15  4850.74  5.33
509.3  92396.40  5231.31  5.66
510.7  93658.50  5645.25  6.03
512.2  95071.80  6114.24  6.43
513.6  96604.20  6643.09  6.88
515.0  98081.38  7216.82  7.36
516.4  99494.33  7834.05  7.87
517.8  101163.25  8518.32  8.42
519.3  102522.30  9216.31  8.99
520.7  104124.55  9969.88  9.57
522.1  105441.38  10721.62  10.17
523.5  106821.50  11486.96  10.75
524.9  108363.60  12268.56  11.32
526.3  109863.60  13035.54  11.87
527.8  111389.85  13798.62  12.39
529.2  112375.80  14502.67  12.91
530.6  113894.90  15276.54  13.41
532.0  115626.00  16036.53  13.87
533.4  117002.93  16728.02  14.30
534.8  117927.33  17321.22  14.69
536.3  119570.10  18004.96  15.06
537.7  121552.20  18735.36  15.41
539.1  123040.48  19371.61  15.74
540.5  124271.65  19962.83  16.06
541.9  126051.38  20637.65  16.37
543.3  127382.88  21236.27  16.67
544.7  128728.80  21840.88  16.97
546.1  130564.50  22522.94  17.25
547.5  131824.00  23092.91  17.52
549.0  133485.00  23717.47  17.77
550.4  135022.50  24287.33  17.99
551.8  136635.55  24836.19  18.18
553.2  138175.73  25321.57  18.33
554.6  139547.20  25715.73  18.43
556.0  141091.20  26082.00  18.49
557.4  142732.80  26408.60  18.50
558.8  144423.90  26705.76  18.49
560.2  145924.38  26915.52  18.44
561.6  147618.00  27114.73  18.37
563.0  149237.33  27260.14  18.27
564.4  150865.00  27376.55  18.15
565.8  152405.00  27445.08  18.01
567.2  154198.00  27515.70  17.84
568.6  155719.13  27481.85  17.65
570.0  157172.98  27354.09  17.40
571.4  158932.15  27212.47  17.12
572.8  160734.00  27047.10  16.83
574.2  162377.60  26847.15  16.53
575.6  163968.75  26644.50  16.25
577.0  165511.10  26455.56  15.98
578.4  167269.38  26318.72  15.73
579.8  168831.68  26172.18  15.50
581.2  170580.78  26068.44  15.28
582.5  172036.80  25942.80  15.08
583.9  173578.00  25849.87  14.89
585.3  175404.83  25816.83  14.72
586.7  176923.83  25757.55  14.56
588.1  178431.50  25722.78  14.42
589.5  180111.75  25733.17  14.29
590.9  181759.20  25765.55  14.18
592.3  183606.50  25846.31  14.08
593.7  185080.35  25909.39  14.00
595.0  186732.00  26009.10  13.93
596.4  188202.35  26103.75  13.87
597.8  189705.18  26200.56  13.81
599.2  191281.20  26296.16  13.75
600.6  193065.93  26397.71  13.67
602.0  194380.58  26402.50  13.58
603.3  196217.55  26427.92  13.47
604.7  197904.60  26387.28  13.33
606.1  199423.80  26266.00  13.17
607.5  201090.93  26114.02  12.99
608.9  202839.85  25921.31  12.78
610.2  204219.23  25651.08  12.56
611.6  205850.25  25387.72  12.33
613.0  207429.75  25096.76  12.10
614.4  208836.15  24787.38  11.87
615.8  210322.13  24499.80  11.65
617.1  211900.50  24245.20  11.44
618.5  213549.20  24035.20  11.26
619.9  215069.25  23860.10  11.09
621.3  216703.13  23740.11  10.96
622.6  218303.75  23678.17  10.85
624.0  219807.15  23652.92  10.76
625.4  221299.65  23683.88  10.70
626.8  222886.30  23768.59  10.66
628.1  224164.60  23852.91  10.64
629.5  225946.33  24003.11  10.62
630.9  227435.45  24115.74  10.60
632.2  228704.18  24172.40  10.57
633.6  230228.50  24189.63  10.51
635.0  231684.00  24107.52  10.41
636.3  233204.00  23901.68  10.25
637.7  234597.25  23558.18  10.04
639.1  236250.00  23130.33  9.79
640.4  237746.43  22588.65  9.50
641.8  238944.13  21960.40  9.19
643.2  240525.60  21312.76  8.86
644.5  241903.75  20629.80  8.53
645.9  243503.10  19960.44  8.20
647.2  244560.58  19308.99  7.90
648.6  246179.25  18773.10  7.63
650.0  247579.20  18305.28  7.39
651.3  248518.60  17894.80  7.20
652.7  250645.70  17625.57  7.03
654.0  252678.60  17324.61  6.86
655.4  254077.90  16947.64  6.67
656.8  254262.70  16425.72  6.46
658.1  255738.20  15932.37  6.23
659.5  258099.98  15426.25  5.98
660.8  259560.00  14817.00  5.71
662.2  260556.80  14135.89  5.43
663.5  262145.25  13496.73  5.15
664.9  263188.90  12876.93  4.89
666.2  264024.60  12325.44  4.67
667.6  265756.80  11897.74  4.48
668.9  266718.53  11535.80  4.33
670.3  268589.50  11285.95  4.20
671.6  269637.38  11103.80  4.12
673.0  270832.13  11000.55  4.06
674.3  272117.30  10961.60  4.03
675.7  273443.03  10990.41  4.02
677.0  274519.60  11074.17  4.03
678.4  275841.10  11235.69  4.07
679.7  276876.28  11467.68  4.14
681.1  278167.08  11832.20  4.25
682.4  279233.50  12358.32  4.43
683.8  280426.90  13127.40  4.68
685.1  281430.00  14224.90  5.05
686.4  282739.20  15773.84  5.58
687.8  283932.25  17877.13  6.30
689.1  285000.25  20633.17  7.24
690.5  286325.85  24140.98  8.43
691.8  287095.65  28381.43  9.89
693.1  288447.75  33428.38  11.59
694.5  289630.25  39072.37  13.49
695.8  290881.50  45172.40  15.53
697.1  292064.50  51542.40  17.65
698.5  293125.10  58075.68  19.81
699.8  294185.45  64638.87  21.97
701.1  295364.55  71148.10  24.09
702.5  296149.15  77367.55  26.12
703.8  297067.50  83343.00  28.06
705.1  298252.50  89060.14  29.86
706.5  299288.00  94410.57  31.55
707.8  300272.25  99415.78  33.11
709.1  301097.28  104064.27  34.56
710.5  302191.20  108529.27  35.91
711.8  303012.40  112626.89  37.17
713.1  303993.60  116557.64  38.34
714.4  304907.90  120223.76  39.43
715.8  305710.70  123660.93  40.45
717.1  307021.95  127105.94  41.40
718.4  307977.60  130203.73  42.28
719.7  309076.20  133183.85  43.09
721.0  309577.50  135750.00  43.85
722.4  310333.10  138255.55  44.55
723.7  311278.95  140680.66  45.19
725.0  312309.68  142994.79  45.79
726.3  313227.48  145118.31  46.33
727.6  313729.63  146919.96  46.83
729.0  314599.78  148764.91  47.29
730.3  315396.45  150423.86  47.69
731.6  316275.30  152021.42  48.07
732.9  317052.05  153456.73  48.40
734.2  317829.88  154786.13  48.70
735.5  318834.33  156158.95  48.98
736.8  319618.20  157330.08  49.22
738.1  320475.10  158447.44  49.44
739.5  321430.80  159545.33  49.64
740.8  322115.48  160454.84  49.81
742.1  322793.48  161308.37  49.97
743.4  323375.00  162090.00  50.12
744.7  324228.83  162966.17  50.26
746.0  325063.05  163794.80  50.39
747.3  325622.43  164438.86  50.50
748.6  326304.00  165112.43  50.60
749.9  326924.00  165706.67  50.69
751.2  327476.45  166233.81  50.76
752.5  328234.80  166840.49  50.83
753.8  328701.45  167297.20  50.90
755.1  329394.00  167807.47  50.94
756.4  329960.43  168259.12  50.99
757.7  330917.83  168903.42  51.04
759.0  332690.35  169931.01  51.08
760.3  333828.00  170621.44  51.11
761.6  335346.20  171499.07  51.14
762.9  335846.25  171831.30  51.16
764.2  336169.30  172070.33  51.19
765.5  336380.18  172250.14  51.21
766.8  336708.80  172495.15  51.23
768.1  337157.00  172777.09  51.25
769.3  337717.10  173092.69  51.25
770.6  338334.75  173442.79  51.26
771.9  338945.25  173828.48  51.29
773.2  339266.40  174027.63  51.30
774.5  339796.60  174334.16  51.31
775.8  340372.30  174673.29  51.32
777.1  340880.10  174950.53  51.32
778.4  341124.03  175098.37  51.33
779.6  341807.78  175488.47  51.34
780.9  342180.00  175712.00  51.35
782.2  342581.25  175938.03  51.36
783.5  342820.00  176078.53  51.36
784.8  343236.38  176319.00  51.37
786.0  343522.20  176500.05  51.38
787.3  343832.90  176671.27  51.38
788.6  344155.55  176866.38  51.39
789.9  344540.00  177074.24  51.39
791.2  345066.98  177381.73  51.41
792.4  345676.93  177704.47  51.41
793.7  346057.40  177919.57  51.41
795.0  346604.78  178217.16  51.42
796.2  347144.18  178517.60  51.42
797.5  347770.88  178847.64  51.43
798.8  348340.03  179168.44  51.43
800.0  348901.50  179478.55  51.44
801.3  349267.50  179681.73  51.45
802.6  349769.48  179952.00  51.45
803.8  350337.20  180244.23  51.45
805.1  350740.25  180464.55  51.45
806.4  351129.60  180670.20  51.45
807.7  351584.55  180914.58  51.46
808.9  352069.05  181174.63  51.46
810.2  352469.60  181413.21  51.47
811.4  352920.10  181636.96  51.47
812.7  353518.75  181940.42  51.47
814.0  354260.35  182338.39  51.47
815.2  354875.00  182636.77  51.47
816.5  355236.83  182830.92  51.47
817.7  355612.15  183055.20  51.48
819.0  356072.75  183295.27  51.48
820.2  356224.00  183368.53  51.48
821.5  356887.45  183713.91  51.48
822.7  357174.48  183876.87  51.48
824.0  357423.30  184028.40  51.49
825.2  357928.88  184263.12  51.48
826.5  358249.95  184410.32  51.48
827.7  358746.75  184684.94  51.48
829.0  359151.98  184869.15  51.47
830.2  359402.60  185015.53  51.48
831.5  359876.40  185274.16  51.48
832.7  360192.53  185421.32  51.48
834.0  360574.98  185609.99  51.48
835.2  360951.80  185784.43  51.47
836.4  361232.85  185949.65  51.48
837.7  361622.40  186151.71  51.48
838.9  362063.05  186373.80  51.48
840.1  362425.73  186578.19  51.48
841.4  362851.30  186814.08  51.49
842.6  363273.00  187009.97  51.48
843.8  363671.60  187215.28  51.48
845.1  364171.60  187482.69  51.48
846.3  364566.60  187680.28  51.48
847.5  365034.60  187904.92  51.48
848.8  365485.20  188152.16  51.48
850.0  365938.65  188334.25  51.47
851.2  366423.75  188624.16  51.48
852.5  366895.80  188836.24  51.47
853.7  367422.75  189129.30  51.47
854.9  367846.50  189363.28  51.48
856.1  368358.90  189602.40  51.47
857.4  368628.88  189702.00  51.46
858.6  369199.70  189949.97  51.45
859.8  369630.00  190189.25  51.45
861.0  370094.40  190419.84  51.45
862.2  370585.05  190651.58  51.45
863.5  371047.95  190853.39  51.44
864.7  371566.80  191102.56  51.43
865.9  371991.20  191309.76  51.43
867.1  372381.30  191494.85  51.42
868.3  372753.00  191735.76  51.44
869.5  373408.40  191959.35  51.41
870.8  373932.00  192229.20  51.41
872.0  374484.98  192487.70  51.40
873.2  374963.70  192707.48  51.39
874.4  375447.15  192930.66  51.39
875.6  375899.80  193108.68  51.37
876.8  376393.55  193355.69  51.37
878.0  376978.05  193597.59  51.36
879.2  377462.55  193841.80  51.35
880.4  377985.00  194076.90  51.35
881.6  378473.13  194296.97  51.34
882.8  378951.20  194483.20  51.32
884.0  379544.80  194805.29  51.33
885.2  380004.10  195021.41  51.32
886.5  380544.55  195315.99  51.33
887.7  381075.83  195498.29  51.30
888.8  381712.05  195778.79  51.29
890.0  382280.75  196018.65  51.28
891.2  382858.20  196282.76  51.27
892.4  383520.90  196562.38  51.25
893.6  384051.10  196849.47  51.26
894.8  384939.50  197220.40  51.23
896.0  385685.50  197626.60  51.24
897.2  386577.75  197967.03  51.21
898.4  387205.50  198298.32  51.21
899.6  387765.38  198512.05  51.19
900.8  388174.85  198676.93  51.18
902.0  388335.45  198755.88  51.18
903.2  388628.03  198846.74  51.17
904.3  388873.20  198943.36  51.16
905.5  389424.10  199168.15  51.14
906.7  389986.00  199411.93  51.13
907.9  390358.50  199608.69  51.13
909.1  390729.15  199700.82  51.11
910.2  390802.50  199743.50  51.11
911.4  391075.43  199763.07  51.08
912.6  391147.90  199779.58  51.08
913.8  391362.60  199854.52  51.07
915.0  391718.25  199936.66  51.04
916.2  391784.25  199977.70  51.04
917.3  391720.28  199872.84  51.02
918.5  391861.20  199868.29  51.00
919.7  391887.45  199885.84  51.01
920.8  392024.68  199856.76  50.98
922.0  391987.75  199789.33  50.97
923.2  392164.50  199817.80  50.95
924.4  392293.13  199831.95  50.94
925.5  392559.40  199843.32  50.91
926.7  393097.38  200065.35  50.89
927.9  393890.40  200396.32  50.88
929.0  395244.90  200967.66  50.85
930.2  397314.70  201954.55  50.83
931.4  399610.80  203074.20  50.82
932.5  402176.95  204329.06  50.81
933.7  403570.23  204891.95  50.77
934.9  404201.88  205063.25  50.73
936.0  403747.50  204740.47  50.71
937.2  401547.15  203481.44  50.67
938.3  399488.50  202474.37  50.68
939.5  397789.20  201528.48  50.66
940.7  397948.50  201398.04  50.61
941.8  399442.73  201972.65  50.56
943.0  400803.00  202504.70  50.52
944.2  401647.35  202790.21  50.49
945.3  401066.25  202367.10  50.46
946.5  400069.80  201786.30  50.44
947.6  400088.60  201608.04  50.39
948.8  399885.53  201216.86  50.32
949.9  399932.40  201084.80  50.28
951.1  399445.80  200658.68  50.23
952.2  399228.00  200300.80  50.17
953.4  398749.00  199899.53  50.13
954.5  398665.80  199564.56  50.06
955.7  398197.80  199206.00  50.03
956.8  397885.40  198782.91  49.96
958.0  397371.00  198316.33  49.91
959.1  397050.28  197945.78  49.85
960.3  396706.88  197563.86  49.80
961.4  396624.05  197240.91  49.73
962.6  396546.50  197138.43  49.71
963.7  395954.55  196848.78  49.71
964.9  395866.43  196669.72  49.68
966.0  395535.15  196378.83  49.65
967.2  395432.55  196210.62  49.62
968.3  395085.60  195950.88  49.60
969.5  395039.48  195777.05  49.56
970.6  394687.08  195717.05  49.59
971.8  394642.15  195784.03  49.61
972.9  394652.40  195619.37  49.57
974.0  394664.90  195583.45  49.56
975.2  394340.50  195396.40  49.55
976.3  394018.98  195324.42  49.57
977.5  393680.18  195390.42  49.63
978.6  393698.40  195248.80  49.59
979.7  393720.08  195316.87  49.61
980.9  393206.60  195160.34  49.63
982.0  393079.05  194987.69  49.61
983.2  392390.40  194764.61  49.64
984.3  391536.00  194390.37  49.65
985.4  390538.13  194169.77  49.72
986.6  390583.50  194063.50  49.69
987.7  391335.00  194536.98  49.71
988.9  390889.80  194226.96  49.69
990.0  390774.90  194538.47  49.78
993.1  395543.66  193896.27  49.02
996.9  393800.66  193663.24  49.18
1000.7  393578.59  194023.49  49.30
1004.5  393438.13  194388.54  49.41
1008.4  392805.00  194532.00  49.52
1012.2  392243.13  194769.00  49.66
1016.0  391506.30  194900.27  49.78
1019.8  390505.50  194866.47  49.90
1023.7  389053.85  194505.84  49.99
1027.5  387109.40  193865.69  50.08
1031.3  386001.79  193493.84  50.13
1035.1  384916.70  193071.68  50.16
1038.9  384348.80  192925.54  50.20
1042.7  384040.25  192850.35  50.22
1046.5  383877.00  192849.89  50.24
1050.3  383818.76  192880.01  50.25
1054.2  383335.75  192720.76  50.27
1058.0  382935.00  192514.32  50.27
1061.8  382798.64  192493.18  50.29
1065.6  382204.20  192173.29  50.28
1069.4  381245.80  191704.15  50.28
1073.2  379834.28  190973.30  50.28
1077.0  378990.56  190511.96  50.27
1080.8  378993.75  190473.61  50.26
1084.6  379052.98  190378.43  50.22
1088.4  379325.25  190376.70  50.19
1092.2  378860.63  189962.50  50.14
1096.0  378163.03  189426.61  50.09
1099.8  377469.95  188881.62  50.04
1103.6  376501.98  188203.51  49.99
1107.4  375320.43  187393.43  49.93
1111.2  374988.75  186999.62  49.87
1114.9  374402.00  186445.52  49.80
1118.7  374112.34  185970.95  49.71
1122.5  373661.60  185368.06  49.61
1126.3  372723.49  184363.11  49.46
1130.1  372320.44  183445.54  49.27
1133.9  370629.00  181674.11  49.02
1137.7  369039.15  179745.80  48.71
1141.4  366887.63  177387.21  48.35
1145.2  365914.31  175480.72  47.96
1149.0  364549.06  173475.55  47.59
1152.8  362689.43  171386.28  47.25
1156.6  360848.95  169518.35  46.98
1160.3  359050.50  167910.81  46.77
1164.1  356702.55  166235.28  46.60
1167.9  354990.63  165051.62  46.49
1171.7  353595.38  164104.50  46.41
1175.4  352062.40  163122.04  46.33
1179.2  350531.70  162189.49  46.27
1183.0  350172.00  161727.48  46.19
1186.7  350141.75  161457.85  46.11
1190.5  349802.70  161046.70  46.04
1194.3  348885.90  160439.96  45.99
1198.0  347339.44  159627.90  45.96
1201.8  345578.55  158786.23  45.95
1205.6  344480.50  158318.52  45.96
1209.3  343922.35  158162.84  45.99
1213.1  343527.08  158116.72  46.03
1216.8  342993.34  158062.58  46.08
1220.6  341972.40  157810.07  46.15
1224.3  340774.00  157471.18  46.21
1228.1  339247.80  157049.47  46.29
1231.9  337598.63  156537.70  46.37
1235.6  335828.59  155904.47  46.42
1239.4  334216.31  155349.06  46.48
1243.1  332760.43  154829.22  46.53
1246.9  331433.98  154313.84  46.56
1250.6  330332.00  153883.94  46.58
1254.3  329118.08  153374.95  46.60
1258.1  327802.13  152814.80  46.62
1261.8  326268.60  152138.55  46.63
1265.6  325022.75  151553.18  46.63
1269.3  324223.76  151106.40  46.61
1273.1  324609.88  151165.36  46.57
1276.8  324351.00  150912.80  46.53
1280.6  323053.45  150209.63  46.50
1284.3  320907.00  149068.71  46.45
1288.0  319562.91  148210.62  46.38
1291.8  319100.03  147662.02  46.27
1295.5  318399.40  146938.82  46.15
1299.2  317275.80  145974.87  46.01
1302.9  315647.33  144696.19  45.84
1306.7  313816.83  143270.56  45.65
1310.4  312088.09  141773.79  45.43
1314.1  310465.65  140250.33  45.17
1317.9  309018.13  138700.00  44.88
1321.6  307403.38  137001.82  44.57
1325.3  305679.94  135140.48  44.21
1329.0  304352.30  133382.74  43.83
1332.8  302425.20  131259.33  43.40
1336.5  300768.60  129240.82  42.97
