/*** Spectra Vista SIG Data ***/
name= 24_20220824_LIST_48_avg.sig
comm= Averaged Ref/Tar of files: HR.082422.0068_moc.sig,HR.082422.0069_moc.sig,HR.082422.0070_moc.sig
data=
337.3  3573.00  345.01  9.66
338.8  3655.60  328.00  8.97
340.3  3841.70  319.47  8.32
341.8  4023.80  328.35  8.16
343.2  4218.00  318.83  7.56
344.7  4435.60  306.27  6.90
346.2  4575.20  304.24  6.65
347.7  4758.33  296.62  6.23
349.2  4914.00  285.12  5.80
350.6  5178.23  288.90  5.58
352.1  5465.93  298.73  5.47
353.6  5794.90  291.48  5.03
355.1  6027.83  295.06  4.89
356.6  6358.35  282.80  4.45
358.0  6635.20  282.54  4.26
359.5  6921.60  296.05  4.28
361.0  7241.85  300.39  4.15
362.5  7640.78  307.25  4.02
364.0  8000.33  308.60  3.86
365.4  8373.80  315.26  3.76
366.9  8757.13  316.24  3.61
368.4  9137.13  322.10  3.53
369.9  9512.80  335.11  3.52
371.3  9932.40  351.42  3.54
372.8  10354.50  361.59  3.49
374.3  10776.88  362.43  3.36
375.8  11211.20  373.19  3.33
377.2  11674.60  372.50  3.19
378.7  12105.00  381.21  3.15
380.2  12535.40  384.80  3.07
381.7  13053.08  384.01  2.94
383.1  13555.85  395.27  2.92
384.6  14053.98  411.56  2.93
386.1  14539.45  419.53  2.89
387.6  15038.10  424.53  2.82
389.0  15570.80  428.29  2.75
390.5  16062.75  443.51  2.76
392.0  16689.95  450.41  2.70
393.4  17262.68  460.44  2.67
394.9  17826.30  466.82  2.62
396.4  18397.13  475.61  2.59
397.9  18962.50  492.00  2.59
399.3  19525.58  503.61  2.58
400.8  20114.48  512.74  2.55
402.2  20793.85  529.34  2.55
403.7  21426.75  538.82  2.51
405.2  22065.10  556.48  2.52
406.6  22643.20  561.22  2.48
408.1  23278.00  578.56  2.49
409.6  23903.55  592.86  2.48
411.0  24595.20  606.75  2.47
412.5  25281.55  629.51  2.49
414.0  25957.75  644.63  2.48
415.4  26712.00  660.23  2.47
416.9  27389.78  678.11  2.48
418.4  28105.88  701.82  2.50
419.8  28865.20  722.11  2.50
421.3  29607.33  745.25  2.52
422.7  30415.20  770.90  2.53
424.2  31235.63  791.36  2.53
425.7  32029.50  812.52  2.54
427.1  32821.05  839.78  2.56
428.6  33635.00  868.30  2.58
430.0  34416.90  892.87  2.59
431.5  35312.55  920.23  2.61
432.9  36214.80  947.09  2.62
434.4  37144.73  974.92  2.62
435.9  38010.00  1004.27  2.64
437.3  38898.75  1028.24  2.64
438.8  39761.18  1055.23  2.65
440.2  40654.08  1087.24  2.67
441.7  41674.00  1119.47  2.69
443.1  42598.75  1149.09  2.70
444.6  43609.90  1179.00  2.70
446.0  44582.10  1210.75  2.72
447.5  45573.55  1243.02  2.73
448.9  46556.10  1274.03  2.74
450.4  47604.20  1306.10  2.74
451.8  48516.00  1341.35  2.76
453.3  49462.73  1375.74  2.78
454.7  50512.95  1408.34  2.79
456.2  51432.03  1433.59  2.79
457.6  52449.53  1464.30  2.79
459.1  53473.23  1491.64  2.79
460.5  54449.63  1520.93  2.79
462.0  55547.18  1552.15  2.79
463.4  56608.40  1583.46  2.80
464.8  57664.50  1616.37  2.80
466.3  58708.65  1650.14  2.81
467.7  59734.30  1680.42  2.81
469.2  60832.15  1709.11  2.81
470.6  61862.15  1738.72  2.81
472.0  62929.33  1765.41  2.81
473.5  63972.13  1798.05  2.81
474.9  65051.25  1832.69  2.82
476.4  66254.40  1875.57  2.83
477.8  67381.50  1910.41  2.84
479.2  68440.00  1941.34  2.84
480.7  69610.28  1974.11  2.84
482.1  70776.10  2011.99  2.84
483.6  72047.70  2049.42  2.84
485.0  73200.08  2086.61  2.85
486.4  74466.90  2131.78  2.86
487.9  75611.25  2174.53  2.88
489.3  76864.50  2222.21  2.89
490.7  77983.60  2260.36  2.90
492.2  79277.10  2311.40  2.92
493.6  80443.15  2356.84  2.93
495.0  81592.88  2411.87  2.96
496.5  82840.38  2468.75  2.98
497.9  84014.38  2532.77  3.01
499.3  85247.08  2598.73  3.05
500.7  86566.85  2673.56  3.09
502.2  87775.20  2750.64  3.13
503.6  89089.20  2834.35  3.18
505.0  90214.70  2927.77  3.25
506.5  91575.45  3038.58  3.32
507.9  92863.80  3162.67  3.41
509.3  94305.60  3306.46  3.51
510.7  95632.88  3457.91  3.62
512.2  97098.30  3634.19  3.74
513.6  98641.90  3835.41  3.89
515.0  100129.78  4064.01  4.06
516.4  101563.88  4313.52  4.25
517.8  103239.63  4602.06  4.46
519.3  104619.48  4910.16  4.69
520.7  106246.10  5242.92  4.93
522.1  107607.50  5593.99  5.20
523.5  109017.70  5961.11  5.47
524.9  110470.05  6341.80  5.74
526.3  111901.30  6713.34  6.00
527.8  113483.70  7092.36  6.25
529.2  114819.40  7468.45  6.50
530.6  116452.55  7860.25  6.75
532.0  118230.00  8222.40  6.95
533.4  119636.48  8514.24  7.12
534.8  120651.68  8757.47  7.26
536.3  122459.70  9039.09  7.38
537.7  124551.00  9337.92  7.50
539.1  126047.78  9575.00  7.60
540.5  127308.25  9769.22  7.67
541.9  129136.43  10004.71  7.75
543.3  130508.13  10206.95  7.82
544.7  131886.60  10403.75  7.89
546.1  133744.05  10641.24  7.96
547.5  135049.60  10833.49  8.02
549.0  136961.00  11057.83  8.07
550.4  138539.38  11241.65  8.11
551.8  140119.33  11401.08  8.14
553.2  141737.23  11532.08  8.14
554.6  143156.00  11611.15  8.11
556.0  144755.10  11668.89  8.06
557.4  146429.15  11698.13  7.99
558.8  148149.90  11692.15  7.89
560.2  149669.75  11641.74  7.78
561.6  151433.55  11580.88  7.65
563.0  153092.13  11485.79  7.50
564.4  154736.85  11367.47  7.35
565.8  156325.63  11216.96  7.18
567.2  158154.00  11064.72  7.00
568.6  159742.88  10871.48  6.81
570.0  161266.65  10663.94  6.61
571.4  163075.90  10463.82  6.42
572.8  164917.00  10274.20  6.23
574.2  166622.40  10094.29  6.06
575.6  168243.75  9922.71  5.90
577.0  169839.00  9774.82  5.76
578.4  171660.13  9655.32  5.62
579.8  173238.08  9541.08  5.51
581.2  175048.73  9459.53  5.40
582.5  176529.60  9368.25  5.31
583.9  178121.00  9301.77  5.22
585.3  180007.88  9258.80  5.14
586.7  181553.45  9211.15  5.07
588.1  183136.00  9178.51  5.01
589.5  184852.50  9164.87  4.96
590.9  186570.40  9164.19  4.91
592.3  188463.35  9183.49  4.87
593.7  189972.90  9199.15  4.84
595.0  191682.45  9226.67  4.81
596.4  193201.05  9246.79  4.79
597.8  194739.05  9266.81  4.76
599.2  196363.20  9288.53  4.73
600.6  198196.05  9304.15  4.69
602.0  199562.63  9293.68  4.66
603.3  201447.85  9288.33  4.61
604.7  203196.83  9264.36  4.56
606.1  204750.60  9221.55  4.50
607.5  206465.98  9167.69  4.44
608.9  208221.00  9110.56  4.38
610.2  209690.78  9036.90  4.31
611.6  211351.05  8965.81  4.24
613.0  212978.55  8896.80  4.18
614.4  214423.35  8822.01  4.11
615.8  215952.75  8762.19  4.06
617.1  217560.00  8715.28  4.01
618.5  219291.60  8681.54  3.96
619.9  220875.08  8658.77  3.92
621.3  222582.38  8651.61  3.89
622.6  224281.75  8657.35  3.86
624.0  225817.20  8674.07  3.84
625.4  227397.23  8703.66  3.83
626.8  229097.05  8742.07  3.82
628.1  230524.80  8775.10  3.81
629.5  232523.28  8839.77  3.80
630.9  234246.10  8891.39  3.80
632.2  235714.85  8928.20  3.79
633.6  237438.13  8960.45  3.77
635.0  239080.00  8975.45  3.75
636.3  240729.50  8971.29  3.73
637.7  242207.50  8933.07  3.69
639.1  243967.50  8889.67  3.64
640.4  245541.10  8826.39  3.59
641.8  246840.60  8748.85  3.54
643.2  248510.68  8681.18  3.49
644.5  249952.00  8606.00  3.44
645.9  251787.15  8548.15  3.39
647.2  254155.30  8517.62  3.35
648.6  256324.50  8496.51  3.31
650.0  257968.80  8466.79  3.28
651.3  258196.40  8416.56  3.26
652.7  258690.15  8394.15  3.24
654.0  260808.10  8413.68  3.23
655.4  262504.65  8392.48  3.20
656.8  262979.50  8316.42  3.16
658.1  264250.70  8250.26  3.12
659.5  266678.48  8251.27  3.09
660.8  268672.50  8247.86  3.07
662.2  269561.60  8187.73  3.04
663.5  271248.90  8161.75  3.01
664.9  272824.50  8144.59  2.99
666.2  273681.60  8123.93  2.97
667.6  275512.83  8139.06  2.95
668.9  276832.25  8182.37  2.96
670.3  277606.63  8207.15  2.96
671.6  279571.50  8289.50  2.97
673.0  280854.75  8380.95  2.98
674.3  282217.00  8481.77  3.01
675.7  283641.68  8601.68  3.03
677.0  284893.38  8731.13  3.06
678.4  286413.10  8882.16  3.10
679.7  287602.45  9048.29  3.15
681.1  289005.90  9237.44  3.20
682.4  290239.30  9440.70  3.25
683.8  291675.80  9682.33  3.32
685.1  292802.25  9941.50  3.40
686.4  294194.40  10260.21  3.49
687.8  295569.00  10639.74  3.60
689.1  296726.00  11111.01  3.74
690.5  298216.05  11719.91  3.93
691.8  299142.25  12482.40  4.17
693.1  300542.85  13513.64  4.50
694.5  301824.25  14832.57  4.91
695.8  303143.75  16497.00  5.44
697.1  304417.75  18542.33  6.09
698.5  305587.40  21023.66  6.88
699.8  306815.43  23951.28  7.81
701.1  308062.55  27308.04  8.86
702.5  308957.55  31023.65  10.04
703.8  310005.00  35072.14  11.31
705.1  311303.85  39416.74  12.66
706.5  312466.88  43964.10  14.07
707.8  313570.50  48677.02  15.52
709.1  314536.93  53486.02  17.00
710.5  315831.78  58427.71  18.50
711.8  316816.10  63371.93  20.00
713.1  317953.40  68386.24  21.51
714.4  318956.90  73387.81  23.01
715.8  319871.20  78355.83  24.50
717.1  321348.30  83433.19  25.96
718.4  322425.60  88360.11  27.40
719.7  323684.95  93277.67  28.82
721.0  324315.00  97920.00  30.19
722.4  325216.10  102529.05  31.53
723.7  326295.90  107072.81  32.81
725.0  327467.25  111510.06  34.05
726.3  328520.23  115745.36  35.23
727.6  329159.33  119672.56  36.36
729.0  330234.63  123562.69  37.42
730.3  331145.55  127204.13  38.41
731.6  332179.35  130716.36  39.35
732.9  333111.80  134009.03  40.23
734.2  334052.13  137136.90  41.05
735.5  335207.73  140178.98  41.82
736.8  336089.70  142940.79  42.53
738.1  337061.70  145558.74  43.18
739.5  338159.90  148076.71  43.79
740.8  338978.75  150325.92  44.35
742.1  339838.68  152482.81  44.87
743.4  340700.00  154500.00  45.35
744.7  341826.15  156512.74  45.79
746.0  342833.40  158334.17  46.18
747.3  343540.98  159858.94  46.53
748.6  344380.50  161368.63  46.86
749.9  345254.00  162791.70  47.15
751.2  346121.40  164114.41  47.42
752.5  347141.25  165428.39  47.65
753.8  347866.58  166524.39  47.87
755.1  348764.00  167592.04  48.05
756.4  349493.63  168509.47  48.22
757.7  350630.53  169556.04  48.36
759.0  352673.80  170967.02  48.48
760.3  353997.60  172019.38  48.59
761.6  355801.60  173237.95  48.69
762.9  356497.25  173875.51  48.77
764.2  356989.90  174396.54  48.85
765.5  357432.65  174839.40  48.92
766.8  358006.40  175336.90  48.98
768.1  358720.80  175839.63  49.02
769.3  359450.00  176363.81  49.06
770.6  360219.60  176899.54  49.11
771.9  361090.80  177466.01  49.15
773.2  361645.60  177832.69  49.17
774.5  362447.80  178313.10  49.20
775.8  363336.90  178834.83  49.22
777.1  364054.35  179270.28  49.24
778.4  364516.90  179597.87  49.27
779.6  365468.88  180123.87  49.29
780.9  366090.00  180489.71  49.30
782.2  366690.50  180851.21  49.32
783.5  367189.50  181146.76  49.33
784.8  367896.38  181545.75  49.35
786.0  368473.35  181860.23  49.36
787.3  368981.43  182178.50  49.37
788.6  369583.73  182517.89  49.38
789.9  370203.40  182864.11  49.40
791.2  371029.25  183323.41  49.41
792.4  371892.05  183786.32  49.42
793.7  372543.60  184133.25  49.43
795.0  373360.35  184549.84  49.43
796.2  374181.93  185000.79  49.44
797.5  375099.45  185481.11  49.45
798.8  375991.65  185932.98  49.45
800.0  376835.03  186383.19  49.46
801.3  377461.60  186738.08  49.47
802.6  378229.28  187145.19  49.48
803.8  379073.48  187575.84  49.48
805.1  379711.50  187920.75  49.49
806.4  380352.30  188243.03  49.49
807.7  381056.40  188621.31  49.50
808.9  381748.95  189003.95  49.51
810.2  382448.50  189355.61  49.51
811.4  383115.40  189695.91  49.51
812.7  383865.63  190100.24  49.52
814.0  384875.95  190616.99  49.53
815.2  385644.75  191032.10  49.54
816.5  386224.40  191326.18  49.54
817.7  386806.95  191639.89  49.54
819.0  387487.10  191990.24  49.55
820.2  387728.00  192154.29  49.56
821.5  388588.95  192603.94  49.56
822.7  389002.80  192850.80  49.58
824.0  389461.50  193078.13  49.58
825.2  390065.63  193387.38  49.58
826.5  390444.23  193614.09  49.59
827.7  391163.63  193956.97  49.58
829.0  391651.55  194216.92  49.59
830.2  391990.15  194420.45  49.60
831.5  392574.20  194708.09  49.60
832.7  392937.30  194920.53  49.61
834.0  393316.90  195121.48  49.61
835.2  393727.40  195354.98  49.62
836.4  394096.45  195570.94  49.63
837.7  394521.80  195850.93  49.64
838.9  395052.98  196139.38  49.65
840.1  395480.48  196405.51  49.66
841.4  396024.00  196708.18  49.67
842.6  396392.40  196942.77  49.68
843.8  396780.60  197188.44  49.70
845.1  397288.90  197505.50  49.71
846.3  397741.80  197753.04  49.72
847.5  398164.20  198041.00  49.74
848.8  398671.80  198319.14  49.74
850.0  398955.20  198540.83  49.77
851.2  399608.10  198866.80  49.77
852.5  400074.60  199134.04  49.77
853.7  400569.75  199412.70  49.78
854.9  401028.70  199691.25  49.79
856.1  401432.20  199989.21  49.82
857.4  401727.48  200127.67  49.82
858.6  402151.70  200399.16  49.83
859.8  402652.50  200636.46  49.83
861.0  403088.40  200907.05  49.84
862.2  403634.93  201220.77  49.85
863.5  404015.63  201443.82  49.86
864.7  404672.40  201727.05  49.85
865.9  405021.20  201971.63  49.87
867.1  405378.05  202168.21  49.87
868.3  405911.55  202410.08  49.87
869.5  406391.80  202723.27  49.88
870.8  407056.50  203044.11  49.88
872.0  407502.75  203332.35  49.90
873.2  408021.15  203590.43  49.90
874.4  408537.68  203826.20  49.89
875.6  408926.65  204038.62  49.90
876.8  409540.70  204330.23  49.89
878.0  410127.95  204633.56  49.90
879.2  410687.85  204920.05  49.90
880.4  411267.75  205223.71  49.90
881.6  411795.68  205483.42  49.90
882.8  412249.60  205713.92  49.90
884.0  413049.33  206050.15  49.89
885.2  413680.90  206347.24  49.88
886.5  414396.40  206719.26  49.88
887.7  414925.23  207009.49  49.89
888.8  415666.35  207375.06  49.89
890.0  416302.35  207707.86  49.89
891.2  416965.00  207987.23  49.88
892.4  417729.90  208354.53  49.88
893.6  418448.05  208662.90  49.87
894.8  419543.00  209192.45  49.86
896.0  420621.50  209682.17  49.85
897.2  421538.00  210154.90  49.85
898.4  422396.70  210593.81  49.86
899.6  423082.88  210886.04  49.85
900.8  423703.08  211119.08  49.83
902.0  424056.75  211276.16  49.82
903.2  424549.80  211491.45  49.82
904.3  424986.00  211733.83  49.82
905.5  425750.98  212085.08  49.81
906.7  426419.50  212402.82  49.81
907.9  427206.50  212742.37  49.80
909.1  427513.28  212937.54  49.81
910.2  427987.95  213113.12  49.79
911.4  428372.10  213256.35  49.78
912.6  428828.40  213400.13  49.76
913.8  429069.45  213580.61  49.78
915.0  429703.05  213821.58  49.76
916.2  430062.75  213987.80  49.76
917.3  430391.25  213985.51  49.72
918.5  430631.00  214166.90  49.73
919.7  431089.35  214293.70  49.71
920.8  431400.08  214362.82  49.69
922.0  431739.00  214447.57  49.67
923.2  432159.00  214515.60  49.64
924.4  432560.25  214613.04  49.61
925.5  432965.80  214768.57  49.60
926.7  433816.63  215013.37  49.56
927.9  434812.20  215467.77  49.55
929.0  436594.05  216189.98  49.52
930.2  439042.50  217276.18  49.49
931.4  441900.90  218478.42  49.44
932.5  444758.55  219811.11  49.42
933.7  446587.98  220536.15  49.38
934.9  447584.38  220822.17  49.34
936.0  447240.63  220555.86  49.31
937.2  445391.40  219411.91  49.26
938.3  443783.25  218450.72  49.22
939.5  442458.00  217529.97  49.16
940.7  442814.40  217517.35  49.12
941.8  444702.38  218222.02  49.07
943.0  446332.50  218883.03  49.04
944.2  447309.85  219166.08  49.00
945.3  447193.50  218824.36  48.93
946.5  446607.00  218238.74  48.87
947.6  447000.80  218084.52  48.79
948.8  447227.63  217821.70  48.70
949.9  447505.80  217670.16  48.64
951.1  447371.28  217197.22  48.55
952.2  447372.00  216760.69  48.45
953.4  447245.50  216238.73  48.35
954.5  447525.00  215895.09  48.24
955.7  447678.00  215485.20  48.13
956.8  447784.50  215127.48  48.04
958.0  447430.00  214694.68  47.98
959.1  447612.68  214326.96  47.88
960.3  447301.38  213951.22  47.83
961.4  447521.40  213762.17  47.77
962.6  448092.75  213847.87  47.72
963.7  448208.78  213591.63  47.65
964.9  448330.65  213615.10  47.65
966.0  448256.03  213494.44  47.63
967.2  448526.70  213594.21  47.62
968.3  448270.20  213472.34  47.62
969.5  448438.30  213462.17  47.60
970.6  448678.65  213546.51  47.59
971.8  449137.50  213772.34  47.60
972.9  449291.78  213799.79  47.59
974.0  449742.00  213964.21  47.57
975.2  449943.88  214038.07  47.57
976.3  450307.40  214138.45  47.55
977.5  450406.43  214255.95  47.57
978.6  450512.60  214385.01  47.59
979.7  450633.23  214627.70  47.63
980.9  450474.08  214709.01  47.66
982.0  451153.00  214880.47  47.63
983.2  451146.78  215045.90  47.67
984.3  450810.20  215096.21  47.71
985.4  451867.08  215516.43  47.69
986.6  451996.00  215528.63  47.68
987.7  453296.38  216240.54  47.70
988.9  453625.20  216405.94  47.71
990.0  454084.80  217187.26  47.83
993.1  363083.35  172256.06  47.44
996.9  365065.45  173837.39  47.62
1000.7  366999.50  175356.22  47.78
1004.5  367957.50  176418.88  47.95
1008.4  367968.92  177022.04  48.11
1012.2  368181.75  177724.68  48.27
1016.0  368620.80  178491.25  48.42
1019.8  369363.23  179348.40  48.56
1023.7  370158.90  180157.87  48.67
1027.5  370854.25  180857.13  48.77
1031.3  372048.68  181736.17  48.85
1035.1  372665.07  182279.11  48.91
1038.9  373059.87  182699.76  48.97
1042.7  373083.42  182927.25  49.03
1046.5  373004.67  183055.91  49.08
1050.3  373153.19  183279.47  49.12
1054.2  372978.67  183344.67  49.16
1058.0  372480.27  183196.63  49.18
1061.8  372346.54  183223.38  49.21
1065.6  372263.17  183186.17  49.21
1069.4  372887.87  183477.94  49.20
1073.2  373220.47  183572.37  49.19
1077.0  373090.65  183448.46  49.17
1080.8  372287.50  182984.82  49.15
1084.6  370516.77  182033.83  49.13
1088.4  369221.87  181318.58  49.11
1092.2  368140.50  180631.28  49.07
1096.0  367588.68  180172.56  49.01
1099.8  367308.72  179759.76  48.94
1103.6  366878.25  179286.65  48.87
1107.4  366187.93  178628.84  48.78
1111.2  366055.50  178245.54  48.69
1114.9  365381.92  177538.58  48.59
1118.7  364624.43  176717.47  48.47
1122.5  363774.67  175708.00  48.30
1126.3  362526.68  174375.97  48.10
1130.1  361988.10  173106.71  47.82
1133.9  360450.30  170991.80  47.44
1137.7  359131.80  168632.39  46.96
1141.4  357522.97  165783.66  46.37
1145.2  356981.02  163204.93  45.72
1149.0  356008.33  160533.13  45.09
1152.8  354477.45  157944.18  44.56
1156.6  352924.37  155865.23  44.16
1160.3  351300.33  154266.38  43.91
1164.1  348814.60  152728.85  43.79
1167.9  346940.63  151738.39  43.74
1171.7  345633.75  151146.00  43.73
1175.4  344657.47  150749.98  43.74
1179.2  343902.43  150415.27  43.74
1183.0  343734.67  150310.38  43.73
1186.7  342942.13  149921.03  43.72
1190.5  341415.07  149222.43  43.71
1194.3  339995.03  148588.03  43.70
1198.0  338951.25  148192.95  43.72
1201.8  337649.75  147735.04  43.75
1205.6  336362.33  147364.90  43.81
1209.3  335225.77  147140.53  43.89
1213.1  334011.75  146872.90  43.97
1216.8  332822.88  146674.77  44.07
1220.6  331736.53  146502.40  44.16
1224.3  330511.42  146255.44  44.25
1228.1  329450.80  146118.03  44.35
1231.9  328409.55  145924.47  44.43
1235.6  327159.68  145611.38  44.51
1239.4  325993.38  145336.20  44.58
1243.1  324870.40  145005.16  44.63
1246.9  323720.71  144649.74  44.68
1250.6  322817.93  144355.65  44.72
1254.3  321811.42  143987.42  44.74
1258.1  320940.43  143646.30  44.76
1261.8  319797.20  143146.82  44.76
1265.6  318286.88  142437.56  44.75
1269.3  316395.95  141517.18  44.73
1273.1  316073.19  141204.05  44.67
1276.8  316602.00  141189.94  44.60
1280.6  317169.63  141143.79  44.50
1284.3  316306.80  140423.83  44.39
1288.0  314828.47  139379.02  44.27
1291.8  313009.40  138095.93  44.12
1295.5  311115.20  136702.35  43.94
1299.2  309703.43  135416.28  43.72
1302.9  308342.63  134022.07  43.47
1306.7  306919.67  132494.60  43.17
1310.4  305593.48  130838.76  42.81
1314.1  304363.77  129115.59  42.42
1317.9  303284.58  127278.54  41.97
1321.6  301995.14  125214.06  41.46
1325.3  300419.70  122870.10  40.90
1329.0  299064.27  120539.65  40.31
1332.8  296850.40  117730.80  39.66
1336.5  294936.73  115001.62  38.99
1340.2  294460.83  112857.33  38.33
1343.9  293825.00  110662.35  37.66
1347.6  292901.10  108394.99  37.01
1351.4  292562.50  106438.50  36.38
1355.1  292329.77  104566.79  35.77
1358.8  291664.00  102507.43  35.15
