/*** Spectra Vista SIG Data ***/
name= 33_20220825_ACRU_28_avg.sig
comm= Averaged Ref/Tar of files: HR.082522.0019_moc.sig,HR.082522.0020_moc.sig,HR.082522.0021_moc.sig
data=
337.3  3424.13  297.75  8.70
338.8  3559.40  288.60  8.11
340.3  3701.15  281.10  7.59
341.8  3932.35  280.45  7.13
343.2  4129.20  272.32  6.59
344.7  4265.00  278.65  6.53
346.2  4452.65  266.89  5.99
347.7  4679.68  267.41  5.71
349.2  4914.00  262.08  5.33
350.6  5141.50  254.63  4.95
352.1  5465.93  266.75  4.88
353.6  5760.20  268.35  4.66
355.1  5994.15  278.38  4.64
356.6  6292.80  288.42  4.58
358.0  6603.30  289.23  4.38
359.5  6952.50  288.40  4.15
361.0  7241.85  291.27  4.02
362.5  7640.78  292.75  3.83
364.0  8000.33  309.69  3.87
365.4  8345.70  318.47  3.82
366.9  8729.50  324.13  3.71
368.4  9137.13  334.57  3.66
369.9  9512.80  331.51  3.48
371.3  9932.40  356.00  3.58
372.8  10327.95  375.24  3.63
374.3  10776.88  387.00  3.59
375.8  11238.15  391.67  3.49
377.2  11701.50  398.12  3.40
378.7  12105.00  387.36  3.20
380.2  12535.40  394.53  3.15
381.7  13053.08  407.18  3.12
383.1  13555.85  420.42  3.10
384.6  14107.93  438.79  3.11
386.1  14593.50  443.21  3.04
387.6  15065.05  456.35  3.03
389.0  15570.80  453.81  2.91
390.5  16062.75  463.74  2.89
392.0  16663.50  476.10  2.86
393.4  17262.68  490.47  2.84
394.9  17852.40  504.60  2.83
396.4  18397.13  517.50  2.81
397.9  18988.13  526.17  2.77
399.3  19550.90  536.89  2.75
400.8  20139.40  551.67  2.74
402.2  20793.85  559.74  2.69
403.7  21426.75  568.17  2.65
405.2  22065.10  590.30  2.68
406.6  22689.60  606.29  2.67
408.1  23300.60  617.73  2.65
409.6  23925.50  632.16  2.64
411.0  24616.55  640.50  2.60
412.5  25302.38  655.29  2.59
414.0  25978.13  676.45  2.60
415.4  26712.00  696.95  2.61
416.9  27409.05  714.46  2.61
418.4  28124.55  729.57  2.59
419.8  28865.20  749.84  2.60
421.3  29625.15  765.29  2.58
422.7  30432.60  786.48  2.58
424.2  31269.38  814.50  2.60
425.7  32062.10  838.91  2.62
427.1  32836.88  860.88  2.62
428.6  33666.00  882.47  2.62
430.0  34416.90  904.43  2.63
431.5  35327.48  929.33  2.63
432.9  36244.10  955.18  2.64
434.4  37173.38  981.74  2.64
435.9  38024.00  1009.87  2.66
437.3  38912.50  1037.67  2.67
438.8  39788.33  1069.71  2.69
440.2  40667.55  1097.76  2.70
441.7  41687.40  1125.60  2.70
443.1  42625.25  1155.40  2.71
444.6  43636.10  1182.49  2.71
446.0  44608.05  1216.19  2.73
447.5  45599.40  1252.86  2.75
448.9  46556.10  1291.72  2.77
450.4  47604.20  1320.90  2.77
451.8  48503.00  1348.53  2.78
453.3  49462.73  1382.46  2.79
454.7  50526.13  1415.87  2.80
456.2  51432.03  1449.46  2.82
457.6  52436.25  1485.03  2.83
459.1  53446.58  1517.27  2.84
460.5  54422.88  1546.15  2.84
462.0  55520.13  1579.72  2.85
463.4  56594.70  1609.29  2.84
464.8  57622.88  1644.65  2.85
466.3  58666.58  1673.65  2.85
467.7  59706.15  1709.64  2.86
469.2  60804.00  1745.30  2.87
470.6  61820.00  1777.79  2.88
472.0  62887.10  1810.98  2.88
473.5  63929.75  1845.67  2.89
474.9  65008.50  1875.30  2.88
476.4  66211.20  1916.16  2.89
477.8  67338.00  1954.60  2.90
479.2  68396.50  1991.33  2.91
480.7  69552.38  2030.36  2.92
482.1  70718.30  2069.24  2.93
483.6  71975.45  2111.63  2.93
485.0  73113.23  2151.95  2.94
486.4  74350.50  2198.02  2.96
487.9  75479.63  2248.35  2.98
489.3  76702.53  2304.95  3.01
490.7  77836.35  2357.96  3.03
492.2  79115.40  2418.64  3.06
493.6  80267.35  2480.73  3.09
495.0  81432.00  2546.70  3.13
496.5  82649.60  2629.76  3.18
497.9  83808.93  2711.94  3.24
499.3  85026.95  2809.77  3.30
500.7  86317.80  2920.23  3.38
502.2  87512.40  3036.80  3.47
503.6  88797.20  3178.91  3.58
505.0  89921.70  3336.29  3.71
506.5  91294.73  3526.30  3.86
507.9  92552.48  3743.81  4.05
509.3  93994.80  3994.03  4.25
510.7  95311.13  4272.45  4.48
512.2  96750.90  4597.26  4.75
513.6  98297.50  4970.84  5.06
515.0  99774.15  5390.33  5.40
516.4  101195.33  5849.55  5.78
517.8  102858.25  6375.08  6.20
519.3  104225.38  6924.90  6.64
520.7  105838.65  7530.80  7.12
522.1  107188.25  8144.63  7.60
523.5  108614.60  8786.65  8.09
524.9  110065.50  9428.34  8.57
526.3  111470.80  10056.48  9.02
527.8  113067.90  10690.02  9.45
529.2  114372.40  11300.16  9.88
530.6  115975.70  11918.36  10.28
532.0  117754.00  12514.13  10.63
533.4  119093.48  13022.95  10.94
534.8  120016.88  13443.65  11.20
536.3  121737.30  13914.80  11.43
537.7  123807.60  14399.28  11.63
539.1  125320.60  14793.29  11.80
540.5  126573.20  15147.65  11.97
541.9  128418.15  15561.84  12.12
543.3  129744.18  15904.05  12.26
544.7  131134.20  16259.44  12.40
546.1  132977.35  16658.44  12.53
547.5  134232.00  16976.21  12.65
549.0  136070.00  17349.20  12.75
550.4  137604.38  17660.17  12.83
551.8  139203.65  17941.62  12.89
553.2  140804.95  18177.62  12.91
554.6  142199.20  18337.28  12.90
556.0  143792.55  18458.88  12.84
557.4  145437.95  18535.44  12.74
558.8  147125.25  18562.38  12.62
560.2  148621.88  18517.30  12.46
561.6  150349.35  18455.03  12.27
563.0  152002.73  18327.06  12.06
564.4  153639.65  18160.07  11.82
565.8  155210.00  17943.50  11.56
567.2  157025.25  17708.83  11.28
568.6  158590.13  17415.95  10.98
570.0  160070.38  17080.03  10.67
571.4  161860.40  16753.27  10.35
572.8  163671.00  16430.88  10.04
574.2  165368.00  16105.60  9.74
575.6  166961.25  15801.00  9.46
577.0  168550.80  15523.19  9.21
578.4  170329.25  15294.07  8.98
579.8  171884.03  15073.56  8.77
581.2  173659.73  14899.34  8.58
582.5  175125.60  14718.60  8.40
583.9  176705.00  14570.64  8.25
585.3  178564.95  14464.23  8.10
586.7  180098.43  14356.25  7.97
588.1  181656.75  14268.70  7.85
589.5  183333.50  14218.17  7.76
590.9  185020.40  14187.25  7.67
592.3  186894.60  14191.54  7.59
593.7  188388.53  14190.93  7.53
595.0  190066.50  14213.52  7.48
596.4  191569.35  14231.19  7.43
597.8  193091.60  14243.03  7.38
599.2  194700.00  14254.24  7.32
600.6  196517.10  14257.75  7.26
602.0  197857.65  14205.44  7.18
603.3  199727.00  14158.85  7.09
604.7  201432.75  14070.66  6.99
606.1  202984.20  13939.84  6.87
607.5  204655.73  13791.32  6.74
608.9  206422.60  13621.01  6.60
610.2  207862.20  13417.11  6.45
611.6  209517.45  13221.02  6.31
613.0  211128.95  13024.27  6.17
614.4  212531.85  12813.70  6.03
615.8  214036.88  12632.10  5.90
617.1  215634.30  12471.48  5.78
618.5  217323.20  12343.20  5.68
619.9  218890.05  12236.51  5.59
621.3  220562.33  12166.53  5.52
622.6  222207.75  12120.70  5.45
624.0  223716.00  12096.32  5.41
625.4  225218.40  12096.92  5.37
626.8  226835.70  12126.36  5.35
628.1  228204.63  12151.44  5.32
629.5  230127.15  12226.30  5.31
630.9  231780.18  12279.30  5.30
632.2  233202.55  12314.80  5.28
633.6  234869.38  12336.85  5.25
635.0  236465.60  12308.32  5.21
636.3  238048.00  12236.87  5.14
637.7  239462.25  12104.58  5.05
639.1  241167.50  11944.33  4.95
640.4  242695.43  11743.27  4.84
641.8  243952.95  11500.69  4.71
643.2  245572.60  11257.21  4.58
644.5  246995.50  10998.67  4.45
645.9  248779.80  10769.88  4.33
647.2  250569.20  10565.01  4.22
648.6  252497.25  10397.70  4.12
650.0  254080.80  10255.68  4.04
651.3  254635.70  10094.74  3.96
652.7  255901.10  9982.19  3.90
654.0  258037.20  9892.80  3.83
655.4  259566.68  9787.18  3.77
656.8  259824.20  9603.61  3.70
658.1  260959.20  9449.25  3.62
659.5  263427.68  9324.98  3.54
660.8  265297.50  9183.00  3.46
662.2  266224.00  9007.79  3.38
663.5  267970.70  8871.81  3.31
664.9  269310.60  8760.44  3.25
666.2  270151.80  8655.04  3.20
667.6  272007.80  8626.38  3.17
668.9  273183.20  8607.55  3.15
670.3  274362.25  8603.93  3.14
671.6  276009.38  8646.45  3.13
673.0  277248.38  8705.45  3.14
674.3  278526.30  8798.75  3.16
675.7  279911.00  8906.53  3.18
677.0  281083.05  9036.12  3.21
678.4  282514.68  9197.64  3.26
679.7  283682.00  9376.78  3.31
681.1  285032.40  9598.21  3.37
682.4  286261.30  9853.65  3.44
683.8  287565.20  10163.05  3.53
685.1  288576.38  10540.35  3.65
686.4  289954.20  11043.76  3.81
687.8  291297.00  11706.47  4.02
689.1  292387.25  12578.67  4.30
690.5  293835.45  13767.60  4.69
691.8  294714.68  15333.94  5.20
693.1  296126.10  17419.36  5.88
694.5  297342.50  20032.13  6.74
695.8  298639.25  23180.73  7.76
697.1  299913.25  26848.03  8.95
698.5  301024.70  31005.17  10.30
699.8  302212.40  35581.61  11.77
701.1  303414.18  40485.46  13.34
702.5  304244.60  45554.01  14.97
703.8  305280.00  50763.00  16.63
705.1  306504.90  56029.61  18.28
706.5  307611.50  61265.73  19.92
707.8  308675.85  66421.22  21.52
709.1  309625.43  71457.86  23.08
710.5  310853.30  76458.66  24.60
711.8  311754.00  81282.01  26.07
713.1  312824.40  86042.32  27.50
714.4  313805.60  90677.75  28.90
715.8  314697.60  95176.40  30.24
717.1  316073.70  99719.74  31.55
718.4  317094.40  104016.64  32.80
719.7  318268.48  108230.61  34.01
721.0  318847.50  112128.00  35.17
722.4  319668.80  115961.12  36.28
723.7  320701.35  119721.86  37.33
725.0  321808.73  123366.45  38.34
726.3  322836.80  126806.57  39.28
727.6  323453.08  129932.07  40.17
729.0  324411.68  133044.47  41.01
730.3  325251.15  135933.46  41.79
731.6  326206.65  138720.97  42.53
732.9  327060.30  141304.08  43.20
734.2  327927.88  143750.02  43.84
735.5  329020.65  146152.98  44.42
736.8  329880.30  148289.32  44.95
738.1  330776.00  150318.25  45.44
739.5  331777.70  152276.71  45.90
740.8  332541.83  153980.38  46.30
742.1  333347.63  155606.82  46.68
743.4  334150.00  157130.00  47.02
744.7  335179.95  158669.63  47.34
746.0  336141.00  160053.14  47.61
747.3  336751.33  161178.46  47.86
748.6  337505.25  162314.27  48.09
749.9  338312.00  163373.60  48.29
751.2  339087.05  164364.95  48.47
752.5  340080.75  165376.09  48.63
753.8  340774.18  166195.10  48.77
755.1  341536.00  166999.73  48.90
756.4  342168.68  167680.75  49.01
757.7  343251.30  168514.03  49.09
759.0  345147.23  169738.69  49.18
760.3  346420.80  170603.84  49.25
761.6  348087.60  171637.39  49.31
762.9  348686.25  172116.63  49.36
764.2  349108.20  172482.80  49.41
765.5  349460.28  172772.63  49.44
766.8  349928.00  173126.19  49.47
768.1  350528.20  173500.45  49.50
769.3  351210.30  173903.75  49.52
770.6  351918.45  174337.19  49.54
771.9  352694.65  174790.19  49.56
773.2  353125.60  175061.39  49.57
774.5  353839.20  175443.84  49.58
775.8  354595.35  175846.52  49.59
777.1  355251.05  176194.26  49.60
778.4  355630.55  176408.76  49.60
779.6  356491.93  176839.97  49.61
780.9  357000.00  177132.00  49.62
782.2  357555.00  177414.23  49.62
783.5  357917.50  177619.80  49.63
784.8  358525.58  177926.01  49.63
786.0  359003.75  178169.69  49.63
787.3  359444.50  178396.10  49.63
788.6  359940.75  178648.58  49.63
789.9  360446.80  178916.08  49.64
791.2  361191.60  179284.11  49.64
792.4  361933.60  179660.99  49.64
793.7  362456.80  179936.93  49.64
795.0  363145.20  180278.23  49.64
796.2  363880.20  180644.11  49.64
797.5  364681.95  181046.89  49.65
798.8  365459.38  181427.54  49.64
800.0  366239.55  181790.29  49.64
801.3  366812.10  182064.33  49.63
802.6  367446.83  182387.22  49.64
803.8  368144.03  182742.39  49.64
805.1  368725.00  183023.05  49.64
806.4  369227.10  183291.48  49.64
807.7  369821.70  183592.44  49.64
808.9  370453.45  183901.13  49.64
810.2  371097.65  184202.81  49.64
811.4  371646.80  184486.73  49.64
812.7  372287.50  184832.92  49.65
814.0  373230.50  185273.76  49.64
815.2  373913.00  185637.20  49.65
816.5  374429.68  185874.72  49.64
817.7  374980.35  186140.40  49.64
819.0  375538.35  186423.67  49.64
820.2  375672.00  186548.27  49.66
821.5  376444.15  186928.71  49.66
822.7  376869.10  187130.63  49.65
824.0  377252.10  187320.96  49.65
825.2  377769.83  187604.10  49.66
826.5  378200.00  187776.30  49.65
827.7  378773.18  188078.71  49.65
829.0  379226.68  188299.39  49.65
830.2  379528.75  188483.62  49.66
831.5  380086.85  188731.17  49.65
832.7  380409.75  188918.17  49.66
834.0  380799.45  189120.39  49.66
835.2  381226.45  189335.12  49.66
836.4  381559.20  189484.97  49.66
837.7  381947.40  189714.45  49.67
838.9  382385.73  189957.35  49.68
840.1  382818.83  190193.67  49.68
841.4  383278.40  190463.27  49.69
842.6  383676.40  190662.93  49.69
843.8  384123.00  190864.11  49.69
845.1  384647.35  191162.39  49.70
846.3  385060.70  191374.43  49.70
847.5  385497.00  191623.88  49.71
848.8  385941.00  191851.92  49.71
850.0  386425.20  192043.13  49.70
851.2  386918.10  192346.56  49.71
852.5  387343.20  192565.64  49.71
853.7  387911.25  192844.20  49.71
854.9  388403.60  193073.69  49.71
856.1  388845.60  193315.89  49.72
857.4  389112.03  193445.94  49.71
858.6  389657.40  193721.15  49.72
859.8  390026.25  193954.00  49.73
861.0  390522.60  194210.64  49.73
862.2  391054.65  194451.72  49.72
863.5  391518.08  194626.60  49.71
864.7  392112.60  194916.48  49.71
865.9  392616.60  195136.35  49.70
867.1  392920.85  195311.10  49.71
868.3  393486.45  195548.12  49.70
869.5  393985.20  195792.29  49.70
870.8  394510.50  196084.80  49.70
872.0  395053.43  196364.26  49.71
873.2  395439.00  196583.72  49.71
874.4  395980.65  196837.29  49.71
875.6  396401.98  197001.70  49.70
876.8  396959.30  197269.90  49.70
878.0  397553.85  197516.79  49.68
879.2  398207.70  197753.90  49.66
880.4  398724.00  198012.85  49.66
881.6  399278.58  198266.35  49.66
882.8  399666.40  198477.87  49.66
884.0  400322.80  198776.20  49.65
885.2  400876.70  199055.61  49.66
886.5  401602.00  199355.71  49.64
887.7  402231.70  199591.43  49.62
888.8  402979.13  199928.76  49.61
890.0  403544.25  200197.39  49.61
891.2  404221.80  200493.01  49.60
892.4  404711.48  200781.49  49.61
893.6  405440.80  201088.87  49.60
894.8  406542.25  201521.40  49.57
896.0  407520.50  201993.60  49.57
897.2  408339.75  202413.47  49.57
898.4  409200.00  202772.24  49.55
899.6  409786.88  203082.55  49.56
900.8  410314.10  203301.57  49.55
902.0  410688.00  203404.64  49.53
903.2  410984.18  203535.02  49.52
904.3  411443.70  203699.68  49.51
905.5  412114.43  203996.83  49.50
906.7  412913.00  204284.87  49.47
907.9  413388.50  204583.17  49.49
909.1  413967.38  204714.36  49.45
910.2  414132.23  204843.67  49.46
911.4  414460.80  204975.81  49.46
912.6  414728.60  205046.75  49.44
913.8  415021.80  205144.98  49.43
915.0  415583.70  205384.48  49.42
916.2  415740.00  205487.10  49.43
917.3  416002.05  205474.35  49.39
918.5  416320.00  205592.69  49.38
919.7  416750.40  205674.04  49.35
920.8  416767.33  205692.12  49.35
922.0  416916.50  205736.30  49.35
923.2  417144.00  205805.60  49.34
924.4  417477.38  205902.00  49.32
925.5  417953.70  206035.23  49.30
926.7  418724.88  206329.85  49.28
927.9  419773.80  206739.44  49.25
929.0  421143.30  207383.40  49.24
930.2  423582.20  208478.89  49.22
931.4  426118.73  209652.66  49.20
932.5  429103.55  210987.65  49.17
933.7  430655.48  211689.82  49.16
934.9  431558.75  211948.33  49.11
936.0  431156.38  211699.37  49.10
937.2  429011.85  210496.52  49.07
938.3  427235.40  209583.81  49.06
939.5  425707.20  208725.12  49.03
940.7  426140.10  208801.20  49.00
941.8  427861.58  209527.62  48.97
943.0  429483.00  210104.90  48.92
944.2  430323.40  210461.51  48.91
945.3  429780.00  210147.60  48.90
946.5  429343.20  209692.62  48.84
947.6  429647.10  209642.87  48.79
948.8  429571.35  209443.52  48.76
949.9  429739.80  209349.28  48.72
951.1  429524.55  208947.05  48.65
952.2  429420.00  208651.20  48.59
953.4  429214.75  208327.70  48.54
954.5  429202.80  208100.88  48.49
955.7  429256.80  207888.24  48.43
956.8  429045.10  207557.01  48.38
958.0  428824.00  207294.47  48.34
959.1  428426.05  207034.97  48.32
960.3  428213.45  206732.19  48.28
961.4  428522.85  206497.82  48.19
962.6  428673.00  206536.63  48.18
963.7  428337.45  206301.97  48.16
964.9  428499.68  206242.14  48.13
966.0  428196.38  206082.90  48.13
967.2  428187.15  206107.44  48.13
968.3  428190.30  205864.20  48.08
969.5  428029.33  205729.92  48.06
970.6  428179.18  205726.19  48.05
971.8  428177.75  205844.71  48.07
972.9  428060.48  205818.72  48.08
974.0  428558.50  205881.89  48.04
975.2  428453.00  205766.60  48.03
976.3  428437.38  205602.14  47.99
977.5  428472.28  205525.51  47.97
978.6  428107.00  205438.01  47.99
979.7  428122.80  205680.16  48.04
980.9  427927.83  205681.92  48.06
982.0  428115.40  205610.58  48.03
983.2  427644.23  205459.97  48.04
984.3  427970.60  205338.88  47.98
985.4  427566.93  205201.27  47.99
986.6  427431.00  205199.63  48.01
987.7  427859.60  205581.32  48.05
988.9  427428.00  205533.12  48.09
990.0  428615.30  206084.64  48.08
993.1  374257.57  178292.83  47.64
996.9  374701.63  178957.54  47.76
1000.7  375638.49  179797.33  47.86
1004.5  376134.33  180351.00  47.95
1008.4  375918.54  180577.48  48.04
1012.2  375917.46  180870.49  48.11
1016.0  375891.60  181150.54  48.19
1019.8  375952.50  181456.28  48.27
1023.7  375850.15  181637.60  48.33
1027.5  375483.20  181682.44  48.39
1031.3  375755.78  181927.40  48.42
1035.1  375593.34  181976.19  48.45
1038.9  375652.38  182066.87  48.47
1042.7  375547.08  182102.94  48.49
1046.5  375449.33  182095.50  48.50
1050.3  375516.32  182149.68  48.51
1054.2  375235.58  182050.58  48.52
1058.0  374729.25  181798.61  48.51
1061.8  374625.91  181762.35  48.52
1065.6  374335.47  181577.24  48.51
1069.4  374364.53  181545.62  48.49
1073.2  373961.93  181280.21  48.48
1077.0  373480.98  180964.97  48.45
1080.8  372952.08  180602.68  48.43
1084.6  371876.52  179961.83  48.39
1088.4  371194.72  179550.70  48.37
1092.2  370392.75  179001.64  48.33
1096.0  369813.33  178554.63  48.28
1099.8  369352.32  178129.75  48.23
1103.6  368699.33  177629.67  48.18
1107.4  367797.92  176959.38  48.11
1111.2  367551.30  176631.03  48.06
1114.9  366889.83  176062.00  47.99
1118.7  366257.93  175437.90  47.90
1122.5  365601.60  174710.10  47.79
1126.3  364526.05  173759.02  47.67
1130.1  364046.65  172918.20  47.50
1133.9  362418.70  171332.20  47.27
1137.7  360982.20  169645.70  47.00
1141.4  359214.16  167601.06  46.66
1145.2  358484.52  165886.17  46.27
1149.0  357396.67  164088.96  45.91
1152.8  355729.50  162191.33  45.59
1156.6  354070.38  160543.35  45.34
1160.3  352346.67  159133.05  45.16
1164.1  349953.57  157623.98  45.04
1167.9  348162.50  156560.86  44.97
1171.7  346862.25  155806.88  44.92
1175.4  345641.67  155158.80  44.89
1179.2  344558.33  154551.46  44.85
1183.0  344255.33  154272.86  44.81
1186.7  343743.40  153910.53  44.77
1190.5  342694.73  153320.69  44.74
1194.3  341538.27  152668.22  44.70
1198.0  340320.75  152050.37  44.68
1201.8  338798.53  151351.91  44.67
1205.6  337568.33  150861.67  44.69
1209.3  336656.85  150594.00  44.73
1213.1  335724.08  150316.12  44.77
1216.8  334775.10  150105.41  44.84
1220.6  333687.20  149831.73  44.90
1224.3  332479.58  149491.72  44.96
1228.1  331255.00  149152.74  45.03
1231.9  329988.63  148772.78  45.08
1235.6  328515.08  148260.32  45.13
1239.4  327148.13  147802.68  45.18
1243.1  325900.33  147340.90  45.21
1246.9  324684.87  146856.13  45.23
1250.6  323678.73  146446.16  45.24
1254.3  322607.54  145981.52  45.25
1258.1  321592.25  145521.22  45.25
1261.8  320286.27  144910.95  45.24
1265.6  318819.57  144200.08  45.23
1269.3  317377.60  143465.97  45.20
1273.1  317335.43  143313.31  45.16
1276.8  317586.00  143261.03  45.11
1280.6  317415.13  142997.91  45.05
1284.3  315978.80  142169.26  44.99
1288.0  314503.63  141251.45  44.91
1291.8  313188.06  140348.88  44.81
1295.5  311825.07  139364.35  44.69
1299.2  310578.39  138397.96  44.56
1302.9  309138.65  137277.52  44.41
1306.7  307586.88  136045.70  44.23
1310.4  306071.13  134717.26  44.02
1314.1  304652.88  133389.30  43.78
1317.9  303406.25  132008.33  43.51
1321.6  301995.14  130459.52  43.20
1325.3  300328.35  128707.80  42.86
1329.0  298972.57  127019.78  42.49
1332.8  296835.00  124922.60  42.08
1336.5  295043.60  122929.38  41.66
1340.2  294658.00  121530.50  41.24
1343.9  294220.42  120089.35  40.82
1347.6  293565.45  118563.30  40.39
