/*** Spectra Vista SIG Data ***/
name= 5_20221020_QURU_56_avg.sig
comm= Averaged Ref/Tar of files: HR.102022.0014_moc.sig,HR.102022.0015_moc.sig,HR.102022.0016_moc.sig
data=
337.3  2977.50  207.95  6.98
338.8  3126.50  201.56  6.45
340.3  3279.50  196.33  5.99
341.8  3429.38  209.03  6.10
343.2  3596.40  207.20  5.76
344.7  3753.20  207.16  5.52
346.2  3921.60  198.41  5.06
347.7  4129.13  187.26  4.54
349.2  4309.20  190.80  4.43
350.6  4553.90  195.86  4.30
352.1  4822.88  200.74  4.16
353.6  5066.20  204.90  4.04
355.1  5286.98  195.64  3.70
356.6  5571.75  206.01  3.70
358.0  5869.60  203.55  3.47
359.5  6118.20  217.77  3.56
361.0  6433.88  228.00  3.54
362.5  6791.80  225.84  3.33
364.0  7111.40  232.13  3.26
365.4  7446.50  232.83  3.13
366.9  7790.25  244.68  3.14
368.4  8127.95  257.16  3.16
369.9  8485.85  270.25  3.18
371.3  8864.40  287.34  3.24
372.8  9292.50  290.79  3.13
374.3  9675.00  296.91  3.07
375.8  10052.35  300.30  2.99
377.2  10464.10  312.55  2.99
378.7  10867.60  317.68  2.92
380.2  11244.20  320.24  2.85
381.7  11728.85  329.45  2.81
383.1  12181.40  336.23  2.76
384.6  12678.25  349.39  2.76
386.1  13107.13  357.76  2.73
387.6  13528.90  364.47  2.69
389.0  13989.60  375.20  2.68
390.5  14469.75  384.34  2.66
392.0  14970.70  395.49  2.64
393.4  15502.25  405.39  2.62
394.9  16025.40  417.60  2.61
396.4  16534.13  431.25  2.61
397.9  17066.25  441.72  2.59
399.3  17600.88  453.44  2.58
400.8  18145.40  470.01  2.59
402.2  18731.65  474.63  2.53
403.7  19308.15  490.67  2.54
405.2  19887.00  507.32  2.55
406.6  20416.00  525.87  2.58
408.1  20995.40  535.94  2.55
409.6  21576.85  547.71  2.54
411.0  22204.00  559.17  2.52
412.5  22845.03  575.17  2.52
414.0  23472.00  593.79  2.53
415.4  24148.13  611.39  2.53
416.9  24787.65  627.82  2.53
418.4  25454.03  645.62  2.54
419.8  26135.20  658.67  2.52
421.3  26808.80  675.65  2.52
422.7  27561.60  697.66  2.53
424.2  28299.38  718.39  2.54
425.7  29030.30  740.48  2.55
427.1  29766.83  762.61  2.56
428.6  30535.00  785.33  2.57
430.0  31260.50  805.00  2.58
431.5  32103.68  824.43  2.57
432.9  32933.20  848.30  2.58
434.4  33778.35  877.24  2.60
435.9  34580.00  904.00  2.61
437.3  35392.50  932.38  2.63
438.8  36218.10  956.72  2.64
440.2  37056.25  983.03  2.65
441.7  38002.40  1012.02  2.66
443.1  38862.25  1043.59  2.69
444.6  39797.80  1075.45  2.70
446.0  40702.58  1105.96  2.72
447.5  41631.43  1134.94  2.73
448.9  42531.30  1164.68  2.74
450.4  43512.00  1197.57  2.75
451.8  44343.00  1229.43  2.77
453.3  45239.50  1261.43  2.79
454.7  46217.90  1291.15  2.79
456.2  47054.55  1318.72  2.80
457.6  47989.13  1345.20  2.80
459.1  48929.40  1378.18  2.82
460.5  49848.63  1407.56  2.82
462.0  50881.05  1442.66  2.84
463.4  51881.90  1475.69  2.84
464.8  52822.13  1507.75  2.85
466.3  53771.85  1534.73  2.85
467.7  54723.60  1563.00  2.86
469.2  55751.08  1596.51  2.86
470.6  56719.85  1628.46  2.87
472.0  57735.65  1659.51  2.87
473.5  58717.63  1690.97  2.88
474.9  59721.75  1723.57  2.89
476.4  60825.60  1758.17  2.89
477.8  61857.00  1789.72  2.89
479.2  62828.50  1817.34  2.89
480.7  63892.65  1854.18  2.90
482.1  65010.55  1888.13  2.90
483.6  66152.10  1923.91  2.91
485.0  67164.00  1961.71  2.92
486.4  68312.25  2005.13  2.94
487.9  69366.38  2040.53  2.94
489.3  70473.85  2081.13  2.95
490.7  71519.33  2120.40  2.96
492.2  72691.50  2165.80  2.98
493.6  73762.75  2210.06  3.00
495.0  74850.75  2262.00  3.02
496.5  75987.15  2318.65  3.05
497.9  77073.10  2373.16  3.08
499.3  78188.40  2434.65  3.11
500.7  79388.35  2503.06  3.15
502.2  80519.00  2572.38  3.19
503.6  81730.80  2654.42  3.25
505.0  82787.15  2743.04  3.31
506.5  84069.75  2845.24  3.38
507.9  85199.28  2952.29  3.47
509.3  86506.00  3079.81  3.56
510.7  87691.50  3216.10  3.67
512.2  89064.68  3376.12  3.79
513.6  90505.45  3560.17  3.93
515.0  91907.73  3764.88  4.10
516.4  93228.98  3991.95  4.28
517.8  94821.13  4250.95  4.48
519.3  96104.10  4521.43  4.70
520.7  97647.50  4831.86  4.95
522.1  98915.05  5148.13  5.20
523.5  100219.00  5491.16  5.48
524.9  101653.65  5845.71  5.75
526.3  103033.00  6203.30  6.02
527.8  104469.75  6566.53  6.29
529.2  105536.70  6922.11  6.56
530.6  107060.05  7308.95  6.83
532.0  108668.00  7689.33  7.08
533.4  109943.93  8035.11  7.31
534.8  110812.28  8336.79  7.52
536.3  112359.00  8673.72  7.72
537.7  114219.00  9030.00  7.91
539.1  115608.50  9338.83  8.08
540.5  116776.55  9622.79  8.24
541.9  118456.50  9948.19  8.40
543.3  119743.38  10237.81  8.55
544.7  121022.40  10531.43  8.70
546.1  122784.75  10861.58  8.85
547.5  123995.20  11132.80  8.98
549.0  125620.00  11426.38  9.10
550.4  127064.38  11686.49  9.20
551.8  128583.93  11932.34  9.28
553.2  130057.60  12146.01  9.34
554.6  131352.00  12303.70  9.37
556.0  132821.55  12437.74  9.36
557.4  134390.20  12543.40  9.33
558.8  135999.00  12619.11  9.28
560.2  137427.25  12645.64  9.20
561.6  139048.65  12659.92  9.10
563.0  140595.45  12638.83  8.99
564.4  142150.70  12597.70  8.86
565.8  143628.75  12522.32  8.72
567.2  145350.75  12443.38  8.56
568.6  146812.50  12317.75  8.39
570.0  148195.43  12162.39  8.21
571.4  149871.15  12011.87  8.01
572.8  151578.13  11853.95  7.82
574.2  153171.20  11694.93  7.64
575.6  154687.50  11546.79  7.46
577.0  156177.30  11414.08  7.31
578.4  157850.88  11311.08  7.17
579.8  159341.85  11214.90  7.04
581.2  160996.68  11149.48  6.93
582.5  162407.70  11076.00  6.82
583.9  163890.20  11021.20  6.72
585.3  165638.25  10997.12  6.64
586.7  167087.38  10966.80  6.56
588.1  168525.38  10949.45  6.50
589.5  170140.25  10958.50  6.44
590.9  171727.60  10976.95  6.39
592.3  173491.20  11020.10  6.35
593.7  174927.68  11057.43  6.32
595.0  176497.65  11106.45  6.29
596.4  177907.10  11148.10  6.27
597.8  179349.78  11192.20  6.24
599.2  180853.20  11228.80  6.21
600.6  182552.50  11266.61  6.17
602.0  183828.53  11260.38  6.13
603.3  185567.25  11260.70  6.07
604.7  187183.40  11231.73  6.00
606.1  188632.20  11170.11  5.92
607.5  190215.50  11100.22  5.84
608.9  191880.85  11019.22  5.74
610.2  193219.43  10910.70  5.65
611.6  194791.35  10811.96  5.55
613.0  196317.70  10705.39  5.45
614.4  197661.75  10599.33  5.36
615.8  199090.13  10506.32  5.28
617.1  200581.50  10431.40  5.20
618.5  202153.20  10381.14  5.14
619.9  203651.63  10340.89  5.08
621.3  205231.05  10325.66  5.03
622.6  206774.75  10324.98  4.99
624.0  208219.65  10336.79  4.96
625.4  209637.45  10361.92  4.94
626.8  211149.58  10410.40  4.93
628.1  212401.48  10453.54  4.92
629.5  214130.95  10531.94  4.92
630.9  215592.30  10603.40  4.92
632.2  216821.68  10658.68  4.92
633.6  218309.50  10712.09  4.91
635.0  219747.20  10749.18  4.89
636.3  221197.80  10765.54  4.87
637.7  222539.00  10746.02  4.83
639.1  224122.50  10711.67  4.78
640.4  225550.68  10638.67  4.72
641.8  226716.18  10535.42  4.65
643.2  228250.58  10435.62  4.57
644.5  229585.00  10317.33  4.49
645.9  231123.15  10207.24  4.42
647.2  232028.30  10073.42  4.34
648.6  233462.25  9978.43  4.27
650.0  234748.80  9894.86  4.22
651.3  235805.08  9812.58  4.16
652.7  238014.30  9766.61  4.10
654.0  240060.70  9705.24  4.04
655.4  241346.68  9604.54  3.98
656.8  241505.30  9454.01  3.91
658.1  242867.30  9328.62  3.84
659.5  245051.63  9229.95  3.77
660.8  246285.00  9090.00  3.69
662.2  247228.80  8942.93  3.62
663.5  248655.90  8817.81  3.55
664.9  249663.70  8696.88  3.48
666.2  250393.80  8590.34  3.43
667.6  252071.58  8547.29  3.39
668.9  252933.23  8503.72  3.36
670.3  254784.13  8498.24  3.34
671.6  255742.88  8493.89  3.32
673.0  256893.38  8519.18  3.32
674.3  258172.20  8560.07  3.32
675.7  259469.55  8626.07  3.32
677.0  260533.73  8698.82  3.34
678.4  261811.18  8799.51  3.36
679.7  262868.38  8916.98  3.39
681.1  264127.38  9071.77  3.43
682.4  265244.20  9256.74  3.49
683.8  266415.50  9490.37  3.56
685.1  267424.88  9787.68  3.66
686.4  268753.20  10176.06  3.79
687.8  269981.50  10669.40  3.95
689.1  271049.50  11298.76  4.17
690.5  272401.80  12152.01  4.46
691.8  273183.63  13243.13  4.85
693.1  274518.00  14698.77  5.35
694.5  275707.25  16529.50  6.00
695.8  276981.25  18767.67  6.78
697.1  278141.50  21430.50  7.70
698.5  279210.00  24492.22  8.77
699.8  280263.00  27920.48  9.96
701.1  281396.75  31680.22  11.26
702.5  282213.25  35646.18  12.63
703.8  283140.00  39790.71  14.05
705.1  284304.15  44070.46  15.50
706.5  285303.63  48381.14  16.96
707.8  286236.45  52690.66  18.41
709.1  287054.85  56952.14  19.84
710.5  288171.10  61232.16  21.25
711.8  288985.70  65406.96  22.63
713.1  289966.90  69546.27  23.98
714.4  290881.20  73600.62  25.30
715.8  291684.00  77546.66  26.59
717.1  292941.45  81532.80  27.83
718.4  293865.60  85331.20  29.04
719.7  294939.43  89060.93  30.20
721.0  295447.50  92522.14  31.32
722.4  296216.80  95925.55  32.38
723.7  297145.35  99267.40  33.41
725.0  298129.28  102491.92  34.38
726.3  299053.15  105549.32  35.29
727.6  299578.13  108327.45  36.16
729.0  300432.13  111074.90  36.97
730.3  301236.08  113649.21  37.73
731.6  302084.35  116107.17  38.44
732.9  302831.03  118383.30  39.09
734.2  303617.88  120530.40  39.70
735.5  304601.70  122632.46  40.26
736.8  305350.80  124522.06  40.78
738.1  306206.80  126326.29  41.26
739.5  307119.20  128049.22  41.69
740.8  307797.60  129568.32  42.10
742.1  308448.75  131005.48  42.47
743.4  309075.00  132340.48  42.82
744.7  309929.43  133691.24  43.14
746.0  310765.65  134946.50  43.42
747.3  311353.95  135997.20  43.68
748.6  312064.25  137043.95  43.92
749.9  312702.00  137990.67  44.13
751.2  313277.00  138866.46  44.33
752.5  314035.35  139763.03  44.51
753.8  314542.73  140494.58  44.67
755.1  315172.00  141222.10  44.81
756.4  315726.13  141858.14  44.93
757.7  316654.80  142635.22  45.04
759.0  318371.50  143703.01  45.14
760.3  319466.40  144475.89  45.22
761.6  320955.60  145390.53  45.30
762.9  321428.00  145833.36  45.37
764.2  321777.80  146184.85  45.43
765.5  322002.88  146478.07  45.49
766.8  322347.20  146815.24  45.55
768.1  322826.80  147166.71  45.59
769.3  323339.10  147537.77  45.63
770.6  323968.45  147943.34  45.67
771.9  324604.18  148342.72  45.70
773.2  324924.40  148588.80  45.73
774.5  325468.00  148927.01  45.76
775.8  326005.00  149278.14  45.79
777.1  326538.30  149586.70  45.81
778.4  326794.05  149764.84  45.83
779.6  327510.05  150145.22  45.84
780.9  327900.00  150397.14  45.87
782.2  328303.25  150642.12  45.89
783.5  328515.50  150809.43  45.91
784.8  328933.58  151060.12  45.92
786.0  329255.50  151249.57  45.94
787.3  329574.73  151439.71  45.95
788.6  329929.78  151644.61  45.96
789.9  330307.60  151864.40  45.98
791.2  330896.85  152162.48  45.98
792.4  331464.70  152460.70  46.00
793.7  331862.40  152682.53  46.01
795.0  332398.28  152979.20  46.02
796.2  332975.03  153275.85  46.03
797.5  333603.08  153577.10  46.04
798.8  334179.58  153886.28  46.05
800.0  334738.53  154180.56  46.06
801.3  335116.30  154380.79  46.07
802.6  335649.60  154656.73  46.08
803.8  336210.70  154948.94  46.09
805.1  336630.88  155169.08  46.09
806.4  336994.50  155389.94  46.11
807.7  337464.23  155629.54  46.12
808.9  337930.20  155874.19  46.13
810.2  338389.80  156101.97  46.13
811.4  338804.90  156321.26  46.14
812.7  339381.25  156615.18  46.15
814.0  340145.90  156997.05  46.16
815.2  340721.75  157302.07  46.17
816.5  341074.70  157508.60  46.18
817.7  341514.50  157716.57  46.18
819.0  341951.50  157963.51  46.19
820.2  342056.00  158048.00  46.21
821.5  342688.75  158375.68  46.22
822.7  343048.68  158561.67  46.22
824.0  343332.00  158735.32  46.23
825.2  343770.08  158971.56  46.24
826.5  344067.45  159123.15  46.25
827.7  344627.40  159397.26  46.25
829.0  344973.00  159581.33  46.26
830.2  345259.90  159747.05  46.27
831.5  345734.10  159988.05  46.27
832.7  346035.38  160151.85  46.28
834.0  346402.33  160337.65  46.29
835.2  346770.05  160526.40  46.29
836.4  347041.75  160685.12  46.30
837.7  347422.00  160901.73  46.31
838.9  347853.70  161138.96  46.32
840.1  348251.40  161346.66  46.33
841.4  348626.30  161552.65  46.34
842.6  349054.20  161779.45  46.35
843.8  349490.40  161981.56  46.35
845.1  349986.95  162234.64  46.35
846.3  350322.90  162470.33  46.38
847.5  350723.10  162690.00  46.39
848.8  351147.60  162904.80  46.39
850.0  351591.80  163098.83  46.39
851.2  352084.05  163356.56  46.40
852.5  352492.60  163560.83  46.40
853.7  353002.50  163839.64  46.41
854.9  353436.70  164072.79  46.42
856.1  353964.65  164314.43  46.42
857.4  354182.15  164440.10  46.43
858.6  354714.55  164694.62  46.43
859.8  355061.25  164901.07  46.44
861.0  355563.00  165117.08  46.44
862.2  355943.60  165347.52  46.45
863.5  356395.65  165532.68  46.45
864.7  356901.60  165790.75  46.45
865.9  357384.60  165988.86  46.45
867.1  357699.60  166166.62  46.45
868.3  358157.25  166366.60  46.45
869.5  358581.00  166595.71  46.46
870.8  359091.00  166842.86  46.46
872.0  359638.58  167080.91  46.46
873.2  360115.20  167270.77  46.45
874.4  360599.85  167502.21  46.45
875.6  360902.10  167664.26  46.46
876.8  361392.65  167897.94  46.46
878.0  361872.80  168113.46  46.46
879.2  362337.60  168338.37  46.46
880.4  362848.88  168564.10  46.46
881.6  363334.20  168779.48  46.45
882.8  363800.00  168949.94  46.44
884.0  364394.18  169208.78  46.44
885.2  364832.00  169411.34  46.44
886.5  365351.20  169669.65  46.44
887.7  365861.60  169855.74  46.43
888.8  366469.13  170127.91  46.42
890.0  367026.50  170372.14  46.42
891.2  367585.10  170587.54  46.41
892.4  368126.85  170854.95  46.41
893.6  368635.10  171099.25  46.41
894.8  369397.25  171462.81  46.42
896.0  370202.50  171815.93  46.41
897.2  371062.25  172138.57  46.39
898.4  371655.90  172419.34  46.39
899.6  372184.13  172650.14  46.39
900.8  372571.95  172786.55  46.38
902.0  372720.75  172841.39  46.37
903.2  373000.43  172968.18  46.37
904.3  373239.00  173066.72  46.37
905.5  373775.60  173304.47  46.37
906.7  374323.00  173503.67  46.35
907.9  374813.25  173712.00  46.35
909.1  374964.53  173827.93  46.36
910.2  375051.98  173859.18  46.36
911.4  375365.25  173925.51  46.34
912.6  375467.95  173943.84  46.33
913.8  375589.80  173981.97  46.32
915.0  375849.60  174108.90  46.32
916.2  375940.50  174154.50  46.33
917.3  375917.85  174089.74  46.31
918.5  376119.10  174148.15  46.30
919.7  376364.55  174222.32  46.29
920.8  376194.70  174174.07  46.30
922.0  376222.00  174148.33  46.29
923.2  376330.50  174148.00  46.28
924.4  376380.00  174181.18  46.28
925.5  376705.50  174239.24  46.25
926.7  377293.75  174402.60  46.22
927.9  377984.40  174690.57  46.22
929.0  379205.55  175234.63  46.21
930.2  381103.90  176103.04  46.21
931.4  383522.18  177084.32  46.17
932.5  385895.75  178168.81  46.17
933.7  387319.08  178701.96  46.14
934.9  387852.50  178879.58  46.12
936.0  387170.88  178552.37  46.12
937.2  385167.60  177472.70  46.08
938.3  383442.10  176574.08  46.05
939.5  381715.20  175742.40  46.04
940.7  381961.80  175714.54  46.00
941.8  383303.63  176226.94  45.98
943.0  384670.50  176723.43  45.94
944.2  385208.85  176892.18  45.92
945.3  384764.25  176552.07  45.89
946.5  383931.90  176087.19  45.86
947.6  384069.80  175952.53  45.81
948.8  383781.45  175620.34  45.76
949.9  383745.60  175498.00  45.73
951.1  383203.28  175029.68  45.68
952.2  382908.00  174721.14  45.63
953.4  382583.50  174346.60  45.57
954.5  382449.60  174035.83  45.51
955.7  382347.00  173706.00  45.43
956.8  381978.70  173365.39  45.39
958.0  381644.50  172938.76  45.31
959.1  381249.53  172647.38  45.28
960.3  380608.63  172262.23  45.26
961.4  380205.55  171980.99  45.23
962.6  380483.25  171866.50  45.17
963.7  380253.75  171540.59  45.11
964.9  379800.83  171390.31  45.13
966.0  379590.30  171205.07  45.10
967.2  379319.40  171144.04  45.12
968.3  378804.60  170898.82  45.12
969.5  378824.13  170700.51  45.06
970.6  378807.20  170622.73  45.04
971.8  378772.63  170615.22  45.04
972.9  378728.93  170445.12  45.00
974.0  379021.70  170492.26  44.98
975.2  378648.75  170367.57  44.99
976.3  378243.88  170282.30  45.02
977.5  378175.00  170178.75  45.00
978.6  378494.60  170023.45  44.92
979.7  378429.98  170092.25  44.95
980.9  378326.08  170020.20  44.94
982.0  377720.65  169993.72  45.01
983.2  377062.65  169773.08  45.03
984.3  376853.40  169717.39  45.04
985.4  376652.33  169715.33  45.06
986.6  376458.63  169556.99  45.04
987.7  376986.05  169826.97  45.05
988.9  377101.80  169592.40  44.97
990.0  376948.60  169865.97  45.06
993.1  386140.01  173200.36  44.85
996.9  384337.80  172866.84  44.98
1000.7  384025.25  173158.19  45.09
1004.5  384023.25  173523.26  45.19
1008.4  383504.46  173748.67  45.31
1012.2  383273.50  174016.15  45.40
1016.0  382636.80  174136.29  45.51
1019.8  381733.28  174052.73  45.60
1023.7  380213.44  173604.81  45.66
1027.5  378210.33  172937.16  45.73
1031.3  376888.50  172502.74  45.77
1035.1  375694.32  172095.06  45.81
1038.9  375160.13  171978.08  45.84
1042.7  374833.92  171993.57  45.89
1046.5  374709.50  172050.31  45.92
1050.3  374665.59  172134.52  45.94
1054.2  374339.00  172073.33  45.97
1058.0  373969.46  171969.08  45.98
1061.8  373936.10  172015.06  46.00
1065.6  373224.23  171683.41  46.00
1069.4  372238.13  171213.17  46.00
1073.2  370788.48  170497.28  45.98
1077.0  370058.13  170130.23  45.97
1080.8  370384.38  170241.22  45.96
1084.6  370758.50  170339.98  45.94
1088.4  371194.72  170519.15  45.94
1092.2  370802.25  170222.46  45.91
1096.0  370102.25  169767.43  45.87
1099.8  369352.32  169253.87  45.82
1103.6  368419.17  168624.31  45.77
1107.4  367214.99  167866.54  45.71
1111.2  366831.10  167497.94  45.66
1114.9  366286.67  167006.67  45.59
1118.7  366040.13  166570.33  45.51
1122.5  365735.93  166024.48  45.39
1126.3  364872.61  165117.91  45.25
1130.1  364495.31  164197.64  45.05
1133.9  362833.10  162422.60  44.77
1137.7  361316.30  160474.47  44.41
1141.4  359264.64  158131.83  44.02
1145.2  358258.99  156127.73  43.58
1149.0  356975.21  154122.71  43.17
1152.8  355189.40  152104.78  42.82
1156.6  353363.27  150358.08  42.55
1160.3  351641.00  148933.90  42.35
1164.1  349396.20  147515.23  42.22
1167.9  347827.08  146559.97  42.14
1171.7  346531.50  145803.38  42.08
1175.4  345008.97  144965.30  42.02
1179.2  343551.05  144134.03  41.95
1183.0  343237.67  143771.62  41.89
1186.7  343342.77  143625.37  41.83
1190.5  343160.07  143389.14  41.78
1194.3  342252.30  142905.38  41.75
1198.0  340731.60  142212.79  41.74
1201.8  339023.78  141495.61  41.74
1205.6  337992.67  141143.48  41.76
1209.3  337515.50  141111.11  41.81
1213.1  337176.30  141166.18  41.87
1216.8  336643.36  141243.93  41.96
1220.6  335514.67  141110.93  42.06
1224.3  334246.92  140898.93  42.15
1228.1  332710.00  140605.66  42.26
1231.9  331092.08  140195.23  42.34
1235.6  329343.38  139697.64  42.42
1239.4  327762.75  139283.07  42.50
1243.1  326378.52  138878.10  42.55
1246.9  325103.28  138477.57  42.59
1250.6  324055.33  138135.34  42.63
1254.3  322872.92  137714.46  42.65
1258.1  321609.87  137231.32  42.67
1261.8  320164.00  136651.71  42.68
1265.6  319094.50  136200.01  42.68
1269.3  318511.58  135919.84  42.67
1273.1  318880.00  135984.29  42.64
1276.8  318455.20  135646.74  42.60
1280.6  317071.43  134868.35  42.54
1284.3  314962.00  133779.48  42.47
1288.0  313805.24  133061.01  42.40
1291.8  313545.38  132654.97  42.31
1295.5  312970.53  132044.42  42.19
1299.2  311851.06  131121.03  42.05
1302.9  310184.41  129879.17  41.87
1306.7  308362.72  128491.30  41.67
1310.4  306610.43  126991.08  41.42
1314.1  304987.65  125485.33  41.14
1317.9  303558.33  123928.37  40.83
1321.6  302010.33  122214.79  40.47
1325.3  300343.58  120336.23  40.07
1329.0  299048.98  118559.37  39.65
1332.8  297158.40  116439.40  39.18
1336.5  295532.13  114397.49  38.71
1340.2  295386.00  112928.83  38.23
1343.9  295315.42  111477.08  37.75
1347.6  295388.55  110092.29  37.27
1351.4  296732.00  109239.57  36.81
1355.1  298620.67  108591.79  36.36
