/*** Spectra Vista SIG Data ***/
name= 31_20220825_ACRU_27_avg.sig
comm= Averaged Ref/Tar of files: HR.082522.0013_moc.sig,HR.082522.0014_moc.sig,HR.082522.0015_moc.sig
data=
337.3  3424.13  317.60  9.28
338.8  3511.30  314.25  8.95
340.3  3701.15  299.84  8.10
341.8  3932.35  298.74  7.60
343.2  4084.80  307.84  7.54
344.7  4265.00  295.71  6.93
346.2  4452.65  288.67  6.48
347.7  4640.35  293.63  6.33
349.2  4838.40  287.28  5.94
350.6  5104.78  284.01  5.56
352.1  5394.48  285.80  5.30
353.6  5690.80  291.48  5.12
355.1  5994.15  291.85  4.87
356.6  6292.80  297.16  4.72
358.0  6539.50  301.99  4.62
359.5  6859.80  304.88  4.44
361.0  7182.00  303.24  4.22
362.5  7523.68  320.07  4.25
364.0  7942.98  336.45  4.24
365.4  8289.50  340.95  4.11
366.9  8674.25  349.92  4.03
368.4  9028.03  352.76  3.91
369.9  9404.70  363.94  3.87
371.3  9852.30  380.92  3.87
372.8  10301.40  400.02  3.88
374.3  10723.13  412.08  3.84
375.8  11157.30  420.42  3.77
377.2  11567.00  423.23  3.66
378.7  11997.40  423.23  3.53
380.2  12427.80  426.81  3.43
381.7  12972.00  432.40  3.33
383.1  13448.05  449.17  3.34
384.6  13973.05  463.97  3.32
386.1  14458.38  472.04  3.26
387.6  14930.30  485.10  3.25
389.0  15410.00  478.83  3.11
390.5  15956.55  484.98  3.04
392.0  16557.70  500.79  3.02
393.4  17131.30  514.99  3.01
394.9  17695.80  539.40  3.05
396.4  18241.88  555.45  3.04
397.9  18808.75  563.75  3.00
399.3  19398.95  570.66  2.94
400.8  19989.85  581.58  2.91
402.2  20646.55  589.20  2.85
403.7  21258.23  603.48  2.84
405.2  21899.38  615.55  2.81
406.6  22457.60  634.13  2.82
408.1  23097.20  647.87  2.80
409.6  23727.95  658.50  2.78
411.0  24424.40  674.66  2.76
412.5  25094.13  685.84  2.73
414.0  25774.38  703.62  2.73
415.4  26493.38  726.10  2.74
416.9  27197.03  737.59  2.71
418.4  27919.13  759.45  2.72
419.8  28665.00  781.39  2.73
421.3  29411.25  808.07  2.75
422.7  30206.40  830.56  2.75
424.2  31033.13  855.00  2.76
425.7  31817.60  882.37  2.77
427.1  32599.50  903.08  2.77
428.6  33433.50  932.07  2.79
430.0  34189.28  963.11  2.82
431.5  35088.68  989.03  2.82
432.9  35980.40  1021.59  2.84
434.4  36901.20  1052.41  2.85
435.9  37758.00  1080.80  2.86
437.3  38637.50  1112.83  2.88
438.8  39516.83  1140.30  2.89
440.2  40411.53  1171.43  2.90
441.7  41419.40  1211.36  2.92
443.1  42347.00  1245.50  2.94
444.6  43347.90  1280.31  2.95
446.0  44309.63  1318.26  2.98
447.5  45302.13  1351.09  2.98
448.9  46272.30  1391.48  3.01
450.4  47306.35  1434.86  3.03
451.8  48204.00  1468.13  3.05
453.3  49162.00  1504.50  3.06
454.7  50223.10  1544.11  3.07
456.2  51127.85  1576.42  3.08
457.6  52130.93  1612.47  3.09
459.1  53140.10  1646.97  3.10
460.5  54101.88  1679.90  3.11
462.0  55209.05  1720.38  3.12
463.4  56279.60  1760.91  3.13
464.8  57303.75  1800.05  3.14
466.3  58329.98  1832.60  3.14
467.7  59368.35  1871.04  3.15
469.2  60466.20  1912.32  3.16
470.6  61482.80  1946.39  3.17
472.0  62549.30  1983.64  3.17
473.5  63604.88  2028.35  3.19
474.9  64666.50  2063.40  3.19
476.4  65865.60  2108.16  3.20
477.8  66990.00  2151.80  3.21
479.2  68048.50  2196.27  3.23
480.7  69204.98  2240.73  3.24
482.1  70371.50  2281.17  3.24
483.6  71614.20  2333.19  3.26
485.0  72751.35  2381.62  3.27
486.4  73986.75  2436.64  3.29
487.9  75114.00  2494.05  3.32
489.3  76349.13  2558.22  3.35
490.7  77453.50  2621.05  3.38
492.2  78747.90  2698.92  3.43
493.6  79901.10  2777.64  3.48
495.0  81066.38  2864.55  3.53
496.5  82282.73  2964.35  3.60
497.9  83442.05  3073.92  3.68
499.3  84645.40  3191.32  3.77
500.7  85951.55  3332.39  3.88
502.2  87147.40  3482.59  4.00
503.6  88446.80  3667.52  4.15
505.0  89555.45  3865.65  4.32
506.5  90910.58  4105.48  4.52
507.9  92167.03  4372.39  4.74
509.3  93610.00  4690.61  5.01
510.7  94901.63  5038.80  5.31
512.2  96374.55  5438.74  5.64
513.6  97895.70  5898.81  6.03
515.0  99361.63  6408.84  6.45
516.4  100784.25  6968.43  6.91
517.8  102462.75  7604.90  7.42
519.3  103817.20  8268.59  7.96
520.7  105431.20  8990.13  8.53
522.1  106769.00  9724.74  9.11
523.5  108183.70  10493.57  9.70
524.9  109647.00  11264.16  10.27
526.3  111069.00  12025.30  10.83
527.8  112666.95  12802.68  11.36
529.2  113940.30  13553.04  11.89
530.6  115527.75  14322.84  12.40
532.0  117320.00  15077.07  12.85
533.4  118672.65  15730.71  13.26
534.8  119554.00  16289.67  13.63
536.3  121285.80  16914.48  13.95
537.7  123328.80  17550.96  14.23
539.1  124852.25  18088.17  14.49
540.5  126115.30  18573.07  14.73
541.9  127970.70  19135.16  14.95
543.3  129269.60  19604.96  15.17
544.7  130655.40  20083.76  15.37
546.1  132492.53  20622.73  15.57
547.5  133750.40  21050.03  15.74
549.0  135586.00  21540.93  15.89
550.4  137105.00  21949.83  16.01
551.8  138698.45  22331.24  16.10
553.2  140281.20  22655.33  16.15
554.6  141679.20  22889.71  16.16
556.0  143254.35  23090.16  16.12
557.4  144901.05  23243.64  16.04
558.8  146576.70  23356.50  15.93
560.2  148061.63  23382.48  15.79
561.6  149786.40  23389.53  15.62
563.0  151426.60  23336.90  15.41
564.4  153048.85  23238.13  15.18
565.8  154604.38  23093.08  14.94
567.2  156401.75  22934.77  14.66
568.6  157959.38  22702.65  14.37
570.0  159444.80  22402.17  14.05
571.4  161219.50  22108.84  13.71
572.8  163014.63  21805.00  13.38
574.2  164696.00  21498.03  13.05
575.6  166286.25  21196.50  12.75
577.0  167850.20  20918.56  12.46
578.4  169624.00  20693.40  12.20
579.8  171184.05  20471.40  11.96
581.2  172965.23  20304.09  11.74
582.5  174411.90  20119.32  11.54
583.9  175973.40  19975.04  11.35
585.3  177813.68  19881.36  11.18
586.7  179328.83  19777.12  11.03
588.1  180880.75  19697.47  10.89
589.5  182549.50  19663.70  10.77
590.9  184226.80  19648.21  10.67
592.3  186091.40  19681.75  10.58
593.7  187564.65  19696.95  10.50
595.0  189232.88  19747.08  10.44
596.4  190714.65  19784.15  10.37
597.8  192241.73  19825.19  10.31
599.2  193842.00  19854.56  10.24
600.6  195637.65  19872.02  10.16
602.0  196971.60  19815.30  10.06
603.3  198805.60  19764.93  9.94
604.7  200502.85  19666.47  9.81
606.1  202032.00  19498.48  9.65
607.5  203736.68  19313.05  9.48
608.9  205467.20  19100.51  9.30
610.2  206898.30  18835.74  9.10
611.6  208529.03  18580.48  8.91
613.0  210103.00  18316.82  8.72
614.4  211527.90  18042.00  8.53
615.8  213013.13  17795.70  8.35
617.1  214590.60  17581.20  8.19
618.5  216287.20  17406.77  8.05
619.9  217830.38  17263.25  7.93
621.3  219492.00  17163.39  7.82
622.6  221125.00  17104.40  7.74
624.0  222603.60  17073.28  7.67
625.4  224105.48  17077.39  7.62
626.8  225720.95  17122.56  7.59
628.1  227101.33  17176.87  7.56
629.5  228986.93  17287.35  7.55
630.9  230639.48  17376.66  7.53
632.2  232031.28  17425.40  7.51
633.6  233687.75  17453.80  7.47
635.0  235278.80  17420.16  7.40
636.3  236854.30  17309.23  7.31
637.7  238263.38  17113.22  7.18
639.1  239960.00  16860.67  7.03
640.4  241458.18  16529.66  6.85
641.8  242705.20  16128.06  6.65
643.2  244328.88  15717.80  6.43
644.5  245736.25  15274.03  6.22
645.9  247488.30  14858.40  6.00
647.2  249272.10  14481.74  5.81
648.6  251241.75  14169.60  5.64
650.0  252763.20  13875.84  5.49
651.3  253266.20  13570.22  5.36
652.7  254495.05  13319.83  5.23
654.0  256709.00  13111.01  5.11
655.4  258268.50  12866.36  4.98
656.8  258462.20  12545.53  4.85
658.1  259551.80  12236.81  4.71
659.5  261982.88  11943.68  4.56
660.8  263835.00  11610.00  4.40
662.2  264812.80  11229.87  4.24
663.5  266553.10  10921.43  4.10
664.9  267896.20  10640.41  3.97
666.2  268708.80  10392.56  3.87
667.6  270556.68  10251.64  3.79
668.9  271741.60  10139.25  3.73
670.3  272930.25  10059.80  3.69
671.6  274549.13  10053.60  3.66
673.0  275766.00  10086.05  3.66
674.3  277067.70  10163.05  3.67
675.7  278454.05  10284.01  3.69
677.0  279629.40  10428.10  3.73
678.4  281039.00  10618.99  3.78
679.7  282184.30  10853.92  3.85
681.1  283553.38  11158.18  3.94
682.4  284780.60  11545.04  4.05
683.8  286062.40  12054.81  4.21
685.1  287094.00  12708.60  4.43
686.4  288444.60  13595.28  4.71
687.8  289784.00  14782.90  5.10
689.1  290896.50  16340.40  5.62
690.5  292315.65  18395.54  6.29
691.8  293163.90  20991.65  7.16
693.1  294563.25  24268.72  8.24
694.5  295795.50  28161.47  9.52
695.8  297092.25  32644.73  10.99
697.1  298343.50  37628.50  12.61
698.5  299458.40  43024.07  14.37
699.8  300625.15  48739.16  16.21
701.1  301826.93  54667.91  18.11
702.5  302666.10  60575.31  20.01
703.8  303705.00  66459.00  21.88
705.1  304935.15  72235.41  23.69
706.5  306045.25  77802.35  25.42
707.8  307111.35  83133.06  27.07
709.1  308040.35  88201.61  28.63
710.5  309268.23  93125.02  30.11
711.8  310193.00  97733.47  31.51
713.1  311241.10  102196.44  32.84
714.4  312222.30  106427.49  34.09
715.8  313114.30  110444.47  35.27
717.1  314509.20  114467.76  36.40
718.4  315504.00  118179.41  37.46
719.7  316695.23  121781.54  38.45
721.0  317272.50  124998.00  39.40
722.4  318090.30  128138.12  40.28
723.7  319138.50  131194.84  41.11
725.0  320240.70  134138.10  41.89
726.3  321261.88  136883.05  42.61
727.6  321855.33  139308.58  43.28
729.0  322829.85  141743.75  43.91
730.3  323662.43  143983.00  44.49
731.6  324632.45  146141.32  45.02
732.9  325500.88  148134.51  45.51
734.2  326361.75  150011.40  45.96
735.5  327468.00  151877.40  46.38
736.8  328292.40  153525.44  46.76
738.1  329198.60  155091.88  47.11
739.5  330230.50  156612.10  47.43
740.8  330999.90  157915.96  47.71
742.1  331836.35  159184.33  47.97
743.4  332625.00  160363.33  48.21
744.7  333669.45  161600.00  48.43
746.0  334569.30  162699.68  48.63
747.3  335194.30  163574.41  48.80
748.6  335960.25  164480.70  48.96
749.9  336778.00  165328.80  49.09
751.2  337570.35  166139.67  49.22
752.5  338537.90  166990.41  49.33
753.8  339209.68  167669.20  49.43
755.1  340002.00  168337.87  49.51
756.4  340662.13  168910.23  49.58
757.7  341765.03  169657.86  49.64
759.0  343678.63  170787.69  49.69
760.3  344942.40  171585.92  49.74
761.6  346598.00  172563.07  49.79
762.9  347215.00  172990.47  49.82
764.2  347628.70  173304.15  49.85
765.5  348000.93  173561.76  49.87
766.8  348513.60  173880.53  49.89
768.1  349103.40  174231.12  49.91
769.3  349772.50  174611.59  49.92
770.6  350520.95  175026.63  49.93
771.9  351314.08  175462.63  49.94
773.2  351790.80  175716.48  49.95
774.5  352466.40  176080.67  49.96
775.8  353239.40  176481.22  49.96
777.1  353881.00  176823.90  49.97
778.4  354277.00  177040.42  49.97
779.6  355154.30  177474.10  49.97
780.9  355710.00  177756.00  49.97
782.2  356224.00  178039.40  49.98
783.5  356606.00  178246.07  49.98
784.8  357200.10  178567.17  49.99
786.0  357664.30  178809.31  49.99
787.3  358154.03  179038.19  49.99
788.6  358667.75  179280.83  49.99
789.9  359223.20  179555.79  49.98
791.2  359921.18  179926.93  49.99
792.4  360680.55  180311.70  49.99
793.7  361221.00  180582.67  49.99
795.0  361927.50  180936.69  49.99
796.2  362716.55  181314.92  49.99
797.5  363501.30  181708.98  49.99
798.8  364296.95  182085.07  49.98
800.0  365062.28  182460.98  49.98
801.3  365584.70  182733.39  49.98
802.6  366273.23  183081.60  49.98
803.8  366991.60  183446.23  49.99
805.1  367596.25  183715.35  49.98
806.4  368084.10  183992.52  49.99
807.7  368705.93  184295.25  49.98
808.9  369362.85  184602.23  49.98
810.2  369950.70  184904.16  49.98
811.4  370524.00  185187.15  49.98
812.7  371231.25  185547.92  49.98
814.0  372160.60  186014.46  49.98
815.2  372869.25  186355.30  49.98
816.5  373330.53  186590.58  49.98
817.7  373866.25  186854.57  49.98
819.0  374452.10  187142.05  49.98
820.2  374616.00  187246.40  49.98
821.5  375417.20  187637.16  49.98
822.7  375827.78  187842.96  49.98
824.0  376242.30  188024.76  49.97
825.2  376745.18  188299.62  49.98
826.5  377112.68  188475.97  49.98
827.7  377716.63  188757.46  49.97
829.0  378203.45  188988.03  49.97
830.2  378539.75  189169.33  49.97
831.5  379033.70  189426.58  49.98
832.7  379391.25  189597.17  49.97
834.0  379764.95  189775.58  49.97
835.2  380123.43  189965.42  49.97
836.4  380492.20  190125.17  49.97
837.7  380917.60  190343.17  49.97
838.9  381394.38  190603.56  49.98
840.1  381810.38  190828.62  49.98
841.4  382197.30  191055.03  49.99
842.6  382578.20  191287.17  50.00
843.8  383009.60  191465.73  49.99
845.1  383579.05  191740.07  49.99
846.3  383978.90  191967.41  49.99
847.5  384400.80  192184.16  50.00
848.8  384890.40  192412.24  49.99
850.0  385234.85  192594.45  49.99
851.2  385839.45  192871.08  49.99
852.5  386250.10  193071.47  49.99
853.7  386736.75  193348.80  49.99
854.9  387213.80  193593.68  50.00
856.1  387707.45  193851.49  50.00
857.4  387959.00  193952.37  49.99
858.6  388490.35  194197.12  49.99
859.8  388916.25  194388.75  49.98
861.0  389399.40  194650.56  49.99
862.2  389917.45  194887.65  49.98
863.5  390297.05  195067.12  49.98
864.7  390805.80  195342.40  49.98
865.9  391295.40  195537.60  49.97
867.1  391734.45  195696.68  49.96
868.3  392214.00  195927.36  49.95
869.5  392699.15  196175.58  49.96
870.8  393286.50  196462.20  49.95
872.0  393816.23  196735.42  49.96
873.2  394266.75  196938.00  49.95
874.4  394796.03  197142.66  49.94
875.6  395285.13  197342.08  49.92
876.8  395749.55  197581.75  49.93
878.0  396247.45  197832.51  49.93
879.2  396802.65  198084.50  49.92
880.4  397386.00  198325.05  49.91
881.6  397925.38  198570.82  49.90
882.8  398382.40  198774.61  49.90
884.0  399110.75  199053.24  49.87
885.2  399648.90  199312.87  49.87
886.5  400269.25  199616.33  49.87
887.7  400881.33  199867.50  49.86
888.8  401518.73  200172.16  49.85
890.0  402065.05  200443.93  49.85
891.2  402722.60  200717.89  49.84
892.4  403571.18  201047.56  49.82
893.6  404188.25  201345.81  49.81
894.8  405173.75  201795.10  49.80
896.0  406131.00  202205.33  49.79
897.2  407030.00  202614.97  49.78
898.4  407767.80  202976.84  49.78
899.6  408436.50  203248.75  49.76
900.8  408943.58  203456.19  49.75
902.0  409190.70  203590.02  49.75
903.2  409681.88  203723.13  49.73
904.3  410012.40  203890.52  49.73
905.5  410661.35  204160.76  49.72
906.7  411324.00  204481.60  49.71
907.9  412006.70  204752.05  49.70
909.1  412449.30  204932.34  49.69
910.2  412829.55  205017.36  49.66
911.4  413141.63  205135.71  49.65
912.6  413391.55  205192.61  49.64
913.8  413666.33  205292.85  49.63
915.0  414084.30  205484.44  49.62
916.2  414472.50  205605.40  49.61
917.3  414588.83  205628.52  49.60
918.5  414888.90  205766.16  49.60
919.7  415171.80  205831.90  49.58
920.8  415437.08  205834.02  49.55
922.0  415569.00  205826.13  49.53
923.2  415915.50  205951.20  49.52
924.4  416232.00  206031.15  49.50
925.5  416550.70  206184.88  49.50
926.7  417301.13  206443.75  49.47
927.9  418183.20  206816.56  49.46
929.0  419818.95  207481.50  49.42
930.2  422231.30  208558.95  49.39
931.4  424892.93  209795.67  49.38
932.5  427694.60  211133.77  49.37
933.7  429221.55  211796.03  49.34
934.9  430101.88  212013.08  49.29
936.0  429679.25  211743.13  49.28
937.2  427522.80  210606.82  49.26
938.3  425898.20  209650.67  49.23
939.5  424353.60  208860.48  49.22
940.7  424936.80  208847.04  49.15
941.8  426633.60  209551.01  49.12
943.0  428049.00  210152.70  49.10
944.2  429044.85  210510.21  49.06
945.3  428668.50  210197.00  49.03
946.5  428029.65  209742.66  49.00
947.6  428312.20  209693.72  48.96
948.8  428407.20  209443.52  48.89
949.9  428555.40  209375.60  48.86
951.1  428321.40  209000.52  48.80
952.2  428196.00  208678.40  48.73
953.4  427764.00  208382.97  48.71
954.5  427939.20  208100.88  48.63
955.7  427971.60  207859.68  48.57
956.8  427955.60  207586.07  48.51
958.0  427716.50  207235.40  48.45
959.1  427748.88  206974.78  48.39
960.3  427293.55  206670.87  48.37
961.4  427115.55  206560.37  48.36
962.6  427474.25  206440.73  48.29
963.7  427110.83  206269.26  48.29
964.9  427244.55  206208.67  48.26
966.0  427167.68  206117.19  48.25
967.2  427394.70  206107.44  48.22
968.3  427104.90  205864.20  48.20
969.5  426911.03  205767.20  48.20
970.6  426735.55  205803.18  48.23
971.8  427279.48  205884.63  48.19
972.9  427123.80  205818.72  48.19
974.0  427580.80  205925.35  48.16
975.2  427429.63  205857.57  48.16
976.3  427361.80  205793.35  48.15
977.5  426959.58  205777.62  48.20
978.6  427306.80  205704.75  48.14
979.7  427273.35  205850.05  48.18
980.9  426575.05  205742.05  48.23
982.0  426675.55  205610.58  48.19
983.2  426111.45  205664.34  48.27
984.3  425795.40  205483.89  48.26
985.4  426409.78  205586.98  48.21
986.6  425588.63  205527.17  48.29
987.7  426555.15  206016.14  48.30
988.9  426738.60  205808.88  48.23
990.0  427159.90  206375.72  48.31
993.1  370873.83  177876.89  47.96
996.9  371304.70  178561.39  48.09
1000.7  372233.34  179437.00  48.21
1004.5  372794.50  180021.95  48.29
1008.4  372489.29  180250.88  48.39
1012.2  372500.46  180558.62  48.47
1016.0  372387.60  180868.97  48.57
1019.8  372435.53  181202.18  48.65
1023.7  372321.58  181399.11  48.72
1027.5  371966.63  181462.02  48.78
1031.3  372185.98  181711.65  48.82
1035.1  372059.22  181783.85  48.86
1038.9  372075.37  181884.03  48.88
1042.7  372046.08  181926.96  48.90
1046.5  371943.17  181907.09  48.91
1050.3  372018.89  181956.12  48.91
1054.2  371772.92  181873.92  48.92
1058.0  371294.99  181633.63  48.92
1061.8  371176.87  181590.97  48.92
1065.6  370971.73  181405.62  48.90
1069.4  371027.27  181381.07  48.89
1073.2  370610.53  181114.97  48.87
1077.0  370088.15  180810.55  48.86
1080.8  369568.75  180451.63  48.83
1084.6  368552.68  179806.43  48.79
1088.4  367936.53  179392.70  48.76
1092.2  367175.25  178838.68  48.71
1096.0  366606.36  178389.53  48.66
1099.8  366145.00  177967.56  48.61
1103.6  365533.45  177461.57  48.55
1107.4  364661.23  176792.83  48.48
1111.2  364421.20  176460.87  48.42
1114.9  363791.75  175881.83  48.35
1118.7  363208.73  175251.22  48.25
1122.5  362538.80  174514.35  48.14
1126.3  361487.00  173553.37  48.01
1130.1  361038.00  172695.75  47.83
1133.9  359466.10  171091.70  47.60
1137.7  358078.10  169381.35  47.30
1141.4  356311.37  167308.98  46.96
1145.2  355602.81  165571.15  46.56
1149.0  354496.04  163724.17  46.19
1152.8  352930.80  161809.05  45.85
1156.6  351315.07  160160.18  45.59
1160.3  349645.67  158750.67  45.40
1164.1  347287.90  157257.03  45.28
1167.9  345551.04  156201.49  45.20
1171.7  344239.88  155469.38  45.16
1175.4  343040.57  154834.08  45.14
1179.2  341981.58  154250.28  45.10
1183.0  341699.33  153988.86  45.07
1186.7  341198.20  153624.37  45.02
1190.5  340181.93  153034.84  44.99
1194.3  339073.70  152378.66  44.94
1198.0  337855.65  151763.43  44.92
1201.8  336388.35  151071.96  44.91
1205.6  335156.33  150596.86  44.93
1209.3  334279.05  150342.38  44.98
1213.1  333361.50  150071.51  45.02
1216.8  332466.02  149874.50  45.08
1220.6  331428.53  149620.53  45.14
1224.3  330270.42  149293.76  45.20
1228.1  329062.80  148961.52  45.27
1231.9  327819.78  148590.69  45.33
1235.6  326369.03  148088.21  45.37
1239.4  325024.88  147651.02  45.43
1243.1  323803.68  147196.39  45.46
1246.9  322611.02  146728.78  45.48
1250.6  321616.40  146325.75  45.50
1254.3  320537.62  145870.32  45.51
1258.1  319583.95  145420.55  45.50
1261.8  318295.07  144818.63  45.50
1265.6  316860.67  144116.62  45.48
1269.3  315414.30  143376.51  45.46
1273.1  315392.25  143213.66  45.41
1276.8  315683.60  143162.63  45.35
1280.6  315483.87  142899.71  45.30
1284.3  314043.60  142070.86  45.24
1288.0  312570.88  141158.64  45.16
1291.8  311287.78  140242.15  45.05
1295.5  309953.60  139246.80  44.93
1299.2  308717.12  138263.87  44.79
1302.9  307296.87  137130.36  44.62
1306.7  305771.43  135888.32  44.44
1310.4  304268.36  134556.57  44.22
1314.1  302902.97  133215.40  43.98
1317.9  301687.71  131817.15  43.69
1321.6  300278.48  130249.01  43.38
1325.3  298638.38  128475.08  43.02
1329.0  297260.83  126762.15  42.64
1332.8  295187.20  124630.00  42.22
1336.5  293394.80  122613.14  41.79
1340.2  293035.17  121186.00  41.36
