/*** Spectra Vista SIG Data ***/
name= 36_20220825_QUPH_11_avg.sig
comm= Averaged Ref/Tar of files: HR.082522.0027_moc.sig,HR.082522.0028_moc.sig
data=
337.3  3424.13  310.51  9.07
338.8  3607.50  291.35  8.08
340.3  3748.00  281.10  7.50
341.8  3978.08  283.50  7.13
343.2  4173.60  260.06  6.23
344.7  4307.65  258.34  6.00
346.2  4493.50  253.27  5.64
347.7  4719.00  262.92  5.57
349.2  4914.00  252.72  5.14
350.6  5178.23  240.29  4.64
352.1  5465.93  238.85  4.37
353.6  5725.50  232.00  4.05
355.1  6027.83  241.50  4.01
356.6  6325.58  248.16  3.92
358.0  6667.10  247.91  3.72
359.5  6952.50  250.73  3.61
361.0  7271.78  257.36  3.54
362.5  7640.78  260.13  3.40
364.0  8029.00  260.54  3.24
365.4  8373.80  268.96  3.21
366.9  8757.13  269.94  3.08
368.4  9137.13  281.32  3.08
369.9  9539.83  297.28  3.12
371.3  9959.10  310.49  3.12
372.8  10381.05  326.95  3.15
374.3  10830.63  321.73  2.97
375.8  11265.10  321.09  2.85
377.2  11701.50  320.50  2.74
378.7  12131.90  340.48  2.81
380.2  12562.30  336.64  2.68
381.7  13080.10  338.20  2.59
383.1  13609.75  342.65  2.52
384.6  14134.90  350.68  2.48
386.1  14620.53  359.05  2.46
387.6  15118.95  372.68  2.46
389.0  15624.40  372.14  2.38
390.5  16115.85  386.87  2.40
392.0  16716.40  385.42  2.31
393.4  17288.95  395.63  2.29
394.9  17878.50  409.40  2.29
396.4  18448.88  418.44  2.27
397.9  19039.38  428.31  2.25
399.3  19601.55  442.10  2.26
400.8  20164.33  452.21  2.24
402.2  20842.95  467.15  2.24
403.7  21474.90  481.50  2.24
405.2  22136.13  501.24  2.26
406.6  22736.00  519.68  2.29
408.1  23345.80  529.49  2.27
409.6  23969.40  539.97  2.25
411.0  24659.25  561.81  2.28
412.5  25344.03  573.58  2.26
414.0  26018.88  587.97  2.26
415.4  26771.63  610.45  2.28
416.9  27466.88  625.06  2.28
418.4  28199.25  642.96  2.28
419.8  28919.80  655.20  2.27
421.3  29660.80  680.92  2.30
422.7  30484.80  703.96  2.31
424.2  31303.13  725.63  2.32
425.7  32111.00  742.35  2.31
427.1  32900.18  760.96  2.31
428.6  33712.50  784.75  2.33
430.0  34477.60  799.51  2.32
431.5  35387.18  827.27  2.34
432.9  36302.70  844.26  2.33
434.4  37245.00  864.00  2.32
435.9  38108.00  880.80  2.31
437.3  38981.25  900.04  2.31
438.8  39842.63  925.04  2.32
440.2  40734.93  952.49  2.34
441.7  41754.40  981.27  2.35
443.1  42691.50  1003.97  2.35
444.6  43701.60  1033.78  2.37
446.0  44672.93  1063.21  2.38
447.5  45676.95  1091.24  2.39
448.9  46646.40  1120.09  2.40
450.4  47681.90  1152.92  2.42
451.8  48594.00  1181.52  2.43
453.3  49554.25  1212.62  2.45
454.7  50618.35  1239.96  2.45
456.2  51524.60  1271.11  2.47
457.6  52542.45  1298.68  2.47
459.1  53539.85  1326.41  2.48
460.5  54516.50  1353.55  2.48
462.0  55628.33  1389.99  2.50
463.4  56704.30  1426.76  2.52
464.8  57733.88  1454.50  2.52
466.3  58778.78  1489.46  2.53
467.7  59804.68  1518.09  2.54
469.2  60916.60  1549.06  2.54
470.6  61918.35  1587.65  2.56
472.0  62999.70  1624.26  2.58
473.5  64056.88  1657.07  2.59
474.9  65136.75  1695.35  2.60
476.4  66340.80  1735.82  2.62
477.8  67454.00  1778.95  2.64
479.2  68527.00  1820.79  2.66
480.7  69668.18  1868.10  2.68
482.1  70862.80  1919.38  2.71
483.6  72105.50  1968.92  2.73
485.0  73243.50  2026.92  2.77
486.4  74496.00  2089.38  2.80
487.9  75611.25  2157.40  2.85
489.3  76835.05  2235.68  2.91
490.7  77954.15  2317.30  2.97
492.2  79247.70  2409.12  3.04
493.6  80399.20  2507.25  3.12
495.0  81563.63  2616.62  3.21
496.5  82796.35  2736.26  3.30
497.9  83955.68  2877.14  3.43
499.3  85159.03  3036.05  3.57
500.7  86464.30  3221.75  3.73
502.2  87673.00  3428.08  3.91
503.6  88972.40  3663.77  4.12
505.0  90082.85  3927.88  4.36
506.5  91442.48  4234.52  4.63
507.9  92715.55  4583.89  4.94
509.3  94142.80  4982.95  5.29
510.7  95457.38  5411.67  5.67
512.2  96924.60  5901.67  6.09
513.6  98441.00  6433.31  6.54
515.0  99916.40  7007.64  7.01
516.4  101351.25  7612.79  7.51
517.8  103013.63  8265.15  8.02
519.3  104394.28  8907.06  8.53
520.7  106007.25  9577.29  9.03
522.1  107355.95  10215.73  9.52
523.5  108781.40  10843.19  9.97
524.9  110232.90  11448.17  10.39
526.3  111643.00  12008.90  10.76
527.8  113231.25  12556.74  11.09
529.2  114536.30  13060.07  11.40
530.6  116134.65  13556.58  11.67
532.0  117908.00  14031.60  11.90
533.4  119269.95  14419.76  12.09
534.8  120215.25  14729.63  12.25
536.3  121943.70  15116.96  12.40
537.7  123996.60  15527.52  12.52
539.1  125505.48  15878.83  12.65
540.5  126753.95  16203.47  12.78
541.9  128606.55  16600.73  12.91
543.3  129929.38  16939.52  13.04
544.7  131328.00  17286.64  13.16
546.1  133169.03  17680.49  13.28
547.5  134433.60  17980.80  13.38
549.0  136268.00  18334.80  13.45
550.4  137816.88  18621.98  13.51
551.8  139414.15  18874.94  13.54
553.2  141014.45  19085.15  13.53
554.6  142407.20  19223.36  13.50
556.0  143999.55  19329.66  13.42
557.4  145654.78  19390.94  13.31
558.8  147352.95  19405.07  13.17
560.2  148860.50  19328.33  12.98
561.6  150578.70  19217.45  12.76
563.0  152233.18  19034.87  12.50
564.4  153882.30  18801.91  12.22
565.8  155443.75  18513.91  11.91
567.2  157261.75  18222.48  11.59
568.6  158818.50  17871.67  11.25
570.0  160311.83  17508.58  10.92
571.4  162114.55  17180.86  10.60
572.8  163926.88  16867.41  10.29
574.2  165614.40  16568.96  10.00
575.6  167208.75  16291.61  9.74
577.0  168776.80  16043.74  9.51
578.4  170579.50  15851.23  9.29
579.8  172147.95  15670.92  9.10
581.2  173925.95  15545.56  8.94
582.5  175394.70  15416.59  8.79
583.9  176964.60  15323.82  8.66
585.3  178827.30  15279.68  8.54
586.7  180350.95  15232.93  8.45
588.1  181911.38  15209.95  8.36
589.5  183615.25  15218.35  8.29
590.9  185293.20  15247.75  8.23
592.3  187170.70  15302.76  8.18
593.7  188654.70  15329.15  8.13
595.0  190335.83  15362.15  8.07
596.4  191841.30  15353.15  8.00
597.8  193379.25  15319.79  7.92
599.2  194977.20  15252.04  7.82
600.6  196783.60  15157.38  7.70
602.0  198126.15  14985.75  7.56
603.3  199984.45  14805.51  7.40
604.7  201719.93  14580.68  7.23
606.1  203260.20  14315.73  7.04
607.5  204948.15  14042.37  6.85
608.9  206703.60  13773.02  6.66
610.2  208117.35  13484.88  6.48
611.6  209789.63  13228.94  6.31
613.0  211389.05  12995.09  6.15
614.4  212822.85  12772.41  6.00
615.8  214329.38  12593.38  5.88
617.1  215898.90  12453.42  5.77
618.5  217589.60  12347.43  5.67
619.9  219158.70  12276.88  5.60
621.3  220833.68  12247.79  5.55
622.6  222482.25  12248.37  5.51
624.0  223978.65  12280.55  5.48
625.4  225484.88  12332.64  5.47
626.8  227122.35  12417.86  5.47
628.1  228480.45  12505.77  5.47
629.5  230408.08  12641.16  5.49
630.9  232065.35  12760.51  5.50
632.2  233491.13  12858.81  5.51
633.6  235177.63  12947.48  5.51
635.0  236758.00  12999.27  5.49
636.3  238359.40  12993.79  5.45
637.7  239775.00  12920.55  5.39
639.1  241465.00  12795.00  5.30
640.4  242978.23  12588.64  5.18
641.8  244238.15  12306.89  5.04
643.2  245879.03  12006.20  4.88
644.5  247305.75  11653.41  4.71
645.9  249056.55  11296.15  4.54
647.2  250855.33  10951.78  4.37
648.6  252740.25  10639.93  4.21
650.0  254318.40  10318.01  4.06
651.3  254909.60  9978.44  3.91
652.7  256154.65  9666.51  3.77
654.0  258289.10  9381.81  3.63
655.4  259817.20  9113.26  3.51
656.8  260142.00  8808.90  3.39
658.1  261322.40  8566.98  3.28
659.5  263743.73  8359.85  3.17
660.8  265545.00  8193.86  3.09
662.2  266470.40  8055.68  3.02
663.5  268214.35  7976.53  2.97
664.9  269575.80  7930.75  2.94
666.2  270396.00  7925.40  2.93
667.6  272253.38  7992.99  2.94
668.9  273408.45  8081.97  2.96
670.3  274586.00  8193.09  2.98
671.6  276230.63  8351.24  3.02
673.0  277469.63  8541.52  3.08
674.3  278747.30  8771.81  3.15
675.7  280109.68  9031.83  3.22
677.0  281281.28  9331.68  3.32
678.4  282712.90  9688.49  3.43
679.7  283858.20  10108.22  3.56
681.1  285231.08  10621.23  3.72
682.4  286438.10  11255.22  3.93
683.8  287719.90  12070.39  4.20
685.1  288753.38  13103.69  4.54
686.4  290131.80  14448.40  4.98
687.8  291452.75  16164.95  5.55
689.1  292565.25  18329.55  6.27
690.5  294014.25  21053.06  7.16
691.8  294894.48  24376.39  8.27
693.1  296307.30  28378.51  9.58
694.5  297524.50  32926.40  11.07
695.8  298798.50  37946.35  12.70
697.1  300049.75  43345.90  14.45
698.5  301183.60  49046.92  16.28
699.8  302325.78  54955.13  18.18
701.1  303527.55  60971.78  20.09
702.5  304334.80  66890.39  21.98
703.8  305370.00  72723.86  23.81
705.1  306572.18  78415.74  25.58
706.5  307723.38  83835.93  27.24
707.8  308765.25  88988.12  28.82
709.1  309692.40  93796.26  30.29
710.5  310897.95  98394.57  31.65
711.8  311798.60  102606.76  32.91
713.1  312869.00  106598.46  34.07
714.4  313850.20  110300.90  35.14
715.8  314742.20  113729.37  36.13
717.1  316140.75  117112.09  37.04
718.4  317161.60  120129.28  37.88
719.7  318335.90  123013.38  38.64
721.0  318870.00  125472.22  39.35
722.4  319691.35  127863.01  40.00
723.7  320724.00  130192.20  40.59
725.0  321831.45  132402.35  41.14
726.3  322836.80  134441.21  41.64
727.6  323453.08  136194.17  42.11
729.0  324411.68  137982.96  42.53
730.3  325228.13  139617.02  42.93
731.6  326206.65  141215.00  43.29
732.9  327060.30  142683.73  43.63
734.2  327951.25  144076.82  43.93
735.5  329020.65  145493.39  44.22
736.8  329880.30  146736.86  44.48
738.1  330752.10  147943.05  44.73
739.5  331753.53  149120.38  44.95
740.8  332492.88  150129.65  45.15
742.1  333298.08  151121.84  45.34
743.4  334075.00  152072.15  45.52
744.7  335154.78  153092.77  45.68
746.0  336115.65  154012.12  45.82
747.3  336700.28  154720.15  45.95
748.6  337505.25  155484.39  46.07
749.9  338286.00  156206.52  46.18
751.2  339087.05  156902.24  46.27
752.5  340054.60  157665.08  46.36
753.8  340748.10  158262.59  46.45
755.1  341510.00  158873.37  46.52
756.4  342116.73  159383.34  46.59
757.7  343147.00  160073.68  46.65
759.0  345042.33  161118.91  46.70
760.3  346315.20  161865.19  46.74
761.6  348007.80  162800.36  46.78
762.9  348606.00  163206.34  46.82
764.2  349027.50  163526.64  46.85
765.5  349352.18  163785.40  46.88
766.8  349846.40  164119.36  46.91
768.1  350418.60  164482.99  46.94
769.3  351072.05  164881.69  46.97
770.6  351806.65  165302.69  46.99
771.9  352581.95  165747.09  47.01
773.2  353040.40  166037.76  47.03
774.5  353724.80  166419.32  47.05
775.8  354451.10  166841.20  47.07
777.1  355105.30  167209.40  47.09
778.4  355483.43  167460.20  47.11
779.6  356343.30  167913.13  47.12
780.9  356880.00  168233.15  47.14
782.2  357373.50  168541.77  47.16
783.5  357734.50  168780.03  47.18
784.8  358340.63  169120.04  47.20
786.0  358816.85  169374.12  47.20
787.3  359255.65  169645.76  47.22
788.6  359749.80  169926.41  47.23
789.9  360253.60  170239.56  47.26
791.2  360963.58  170629.71  47.27
792.4  361735.75  171033.79  47.28
793.7  362256.40  171352.50  47.30
795.0  362976.08  171730.49  47.31
796.2  363709.08  172121.44  47.32
797.5  364508.33  172539.60  47.33
798.8  365248.03  172923.55  47.34
800.0  365989.83  173327.50  47.36
801.3  366523.30  173632.75  47.37
802.6  367226.78  174007.16  47.38
803.8  367920.98  174385.80  47.40
805.1  368461.63  174675.68  47.41
806.4  368960.40  174966.09  47.42
807.7  369552.38  175286.61  47.43
808.9  370219.75  175616.65  47.44
810.2  370820.80  175942.13  47.45
811.4  371406.20  176238.36  47.45
812.7  372084.38  176599.20  47.46
814.0  372942.45  177070.80  47.48
815.2  373620.75  177425.57  47.49
816.5  374091.48  177666.13  47.49
817.7  374637.55  177952.38  47.50
819.0  375234.20  178243.08  47.50
820.2  375452.00  178376.00  47.51
821.5  376220.90  178767.12  47.52
822.7  376597.45  179000.54  47.53
824.0  376976.70  179177.87  47.53
825.2  377536.95  179453.48  47.53
826.5  377869.08  179631.50  47.54
827.7  378485.03  179919.49  47.54
829.0  378934.33  180147.46  47.54
830.2  379232.05  180332.85  47.55
831.5  379735.80  180572.96  47.55
832.7  380104.20  180741.56  47.55
834.0  380489.10  180914.84  47.55
835.2  380911.30  181124.21  47.55
836.4  381239.10  181287.88  47.55
837.7  381676.40  181512.71  47.56
838.9  382165.43  181774.25  47.56
840.1  382538.70  181967.60  47.57
841.4  382993.90  182213.31  47.58
842.6  383387.40  182413.50  47.58
843.8  383830.00  182622.72  47.58
845.1  384409.95  182892.96  47.58
846.3  384760.20  183102.38  47.59
847.5  385253.40  183335.10  47.59
848.8  385693.80  183568.96  47.59
850.0  386111.95  183756.03  47.59
851.2  386664.30  184006.82  47.59
852.5  387086.00  184232.36  47.59
853.7  387585.00  184487.85  47.60
854.9  388073.10  184734.39  47.60
856.1  388577.80  184961.81  47.60
857.4  388840.73  185049.86  47.59
858.6  389382.80  185302.04  47.59
859.8  389818.13  185506.77  47.59
861.0  390241.80  185713.10  47.59
862.2  390770.35  185962.66  47.59
863.5  391158.95  186139.62  47.59
864.7  391749.60  186389.09  47.58
865.9  392249.60  186603.77  47.57
867.1  392624.25  186754.19  47.57
868.3  393037.35  186951.78  47.57
869.5  393531.30  187209.98  47.57
870.8  394128.00  187470.90  47.57
872.0  394744.13  187725.22  47.56
873.2  395204.55  187941.82  47.56
874.4  395664.75  188159.07  47.56
875.6  396162.65  188319.15  47.54
876.8  396717.35  188557.40  47.53
878.0  397227.25  188788.80  47.53
879.2  397711.80  189041.81  47.53
880.4  398389.50  189286.38  47.51
881.6  398940.28  189515.66  47.50
882.8  399409.60  189696.94  47.49
884.0  400063.08  190027.18  47.50
885.2  400613.60  190251.37  47.49
886.5  401335.45  190514.71  47.47
887.7  401871.60  190765.55  47.47
888.8  402614.03  191082.91  47.46
890.0  403174.45  191334.52  47.46
891.2  403847.00  191613.83  47.45
892.4  404521.43  191915.21  47.44
893.6  405248.10  192190.72  47.43
894.8  406249.00  192628.95  47.42
896.0  407123.50  193063.94  47.42
897.2  408037.50  193442.88  47.41
898.4  408893.10  193805.89  47.40
899.6  409475.25  194074.12  47.40
900.8  409997.83  194250.08  47.38
902.0  410260.20  194386.21  47.38
903.2  410658.60  194545.02  47.37
904.3  411003.30  194678.82  47.37
905.5  411779.10  195009.05  47.36
906.7  412459.00  195268.65  47.34
907.9  413158.20  195514.83  47.32
909.1  413500.28  195671.53  47.32
910.2  413776.95  195746.38  47.31
911.4  413981.10  195906.06  47.32
912.6  414363.95  195966.39  47.29
913.8  414652.13  196121.39  47.30
915.0  415208.85  196296.45  47.28
916.2  415486.50  196375.59  47.26
917.3  415488.15  196412.58  47.27
918.5  415799.60  196514.19  47.26
919.7  416224.20  196640.94  47.24
920.8  416368.25  196603.35  47.22
922.0  416512.25  196611.80  47.20
923.2  416871.00  196712.10  47.19
924.4  417200.63  196824.60  47.18
925.5  417532.80  196945.13  47.17
926.7  418155.38  197173.11  47.15
927.9  419050.80  197527.73  47.14
929.0  420701.85  198164.81  47.10
930.2  422981.80  199152.68  47.08
931.4  425659.05  200282.59  47.05
932.5  428633.90  201515.64  47.01
933.7  430177.50  202169.77  47.00
934.9  430911.25  202408.50  46.97
936.0  430499.88  202126.97  46.95
937.2  428515.50  201059.57  46.92
938.3  426901.10  200135.86  46.88
939.5  425199.60  199259.59  46.86
940.7  425452.50  199315.60  46.85
941.8  427159.88  199949.42  46.81
943.0  428586.75  200509.05  46.78
944.2  429592.80  200805.41  46.74
945.3  429409.50  200488.14  46.69
946.5  428967.90  199975.93  46.62
947.6  429075.00  199891.74  46.59
948.8  428795.25  199679.45  46.57
949.9  429147.60  199498.08  46.49
951.1  428722.45  199109.87  46.44
952.2  428808.00  198783.43  46.36
953.4  428593.00  198314.57  46.27
954.5  428571.00  198126.47  46.23
955.7  428614.20  197816.76  46.15
956.8  428609.30  197498.34  46.08
958.0  428159.50  197014.76  46.01
959.1  427974.60  196670.97  45.95
960.3  427753.50  196398.65  45.91
961.4  427819.20  196157.52  45.85
962.6  427953.75  196149.75  45.83
963.7  427846.80  196000.66  45.81
964.9  427746.60  195942.95  45.81
966.0  427939.20  195857.13  45.77
967.2  427923.00  195840.81  45.77
968.3  427647.60  195612.34  45.74
969.5  427470.18  195574.70  45.75
970.6  427601.73  195598.82  45.74
971.8  427878.33  195635.74  45.72
972.9  427748.25  195595.58  45.73
974.0  427906.70  195726.23  45.74
975.2  428111.88  195640.06  45.70
976.3  428078.85  195703.43  45.72
977.5  428472.28  195808.21  45.70
978.6  428107.00  195923.26  45.77
979.7  428547.53  195943.85  45.72
980.9  428829.68  195585.50  45.61
982.0  428595.35  195682.47  45.66
983.2  428666.08  195830.26  45.68
984.3  428514.40  195814.61  45.70
985.4  428145.50  196070.80  45.80
986.6  428045.13  196081.34  45.81
987.7  429164.05  196524.71  45.79
988.9  429496.20  196577.49  45.77
990.0  430798.40  196874.04  45.70
993.1  374021.49  170318.75  45.54
996.9  374770.95  171135.37  45.66
1000.7  375953.78  172116.22  45.78
1004.5  376595.00  172867.91  45.90
1008.4  376490.08  173263.72  46.02
1012.2  376581.88  173742.70  46.14
1016.0  376767.60  174181.13  46.23
1019.8  377043.98  174646.59  46.32
1023.7  377140.17  174967.10  46.39
1027.5  376918.53  175129.46  46.46
1031.3  377231.75  175496.37  46.52
1035.1  377074.31  175657.24  46.58
1038.9  377129.13  175834.05  46.62
1042.7  377005.83  175953.04  46.67
1046.5  376896.83  176019.07  46.70
1050.3  376965.70  176163.84  46.73
1054.2  376688.67  176158.02  46.76
1058.0  376218.44  176001.04  46.78
1061.8  376095.50  176026.10  46.80
1065.6  375837.13  175926.69  46.81
1069.4  375900.27  175974.37  46.81
1073.2  375563.48  175808.95  46.81
1077.0  375102.33  175542.60  46.80
1080.8  374643.75  175242.14  46.78
1084.6  373598.87  174660.25  46.75
1088.4  372898.54  174299.74  46.74
1092.2  372060.00  173813.25  46.72
1096.0  371431.27  173396.78  46.68
1099.8  370941.78  173008.58  46.64
1103.6  370268.27  172517.30  46.59
1107.4  369352.38  171872.33  46.53
1111.2  369130.20  171525.66  46.47
1114.9  368480.00  170953.36  46.39
1118.7  367864.20  170307.93  46.30
1122.5  367186.73  169529.95  46.17
1126.3  366045.58  168438.78  46.02
1130.1  365524.58  167392.29  45.80
1133.9  363920.90  165550.95  45.49
1137.7  362498.50  163521.15  45.11
1141.4  360703.42  161068.28  44.65
1145.2  359988.02  158935.47  44.15
1149.0  358884.17  156729.97  43.67
1152.8  357251.60  154575.57  43.27
1156.6  355582.15  152832.99  42.98
1160.3  353806.67  151472.68  42.81
1164.1  351383.33  150115.12  42.72
1167.9  349576.04  149228.47  42.69
1171.7  348279.75  148672.13  42.69
1175.4  347071.10  148185.15  42.70
1179.2  346034.10  147730.88  42.69
1183.0  345746.33  147552.09  42.68
1186.7  345251.67  147255.76  42.65
1190.5  344207.07  146768.91  42.64
1194.3  342966.33  146270.99  42.65
1198.0  341735.90  145805.56  42.67
1201.8  340262.65  145269.09  42.69
1205.6  339020.00  144896.54  42.74
1209.3  338043.90  144693.54  42.80
1213.1  337046.25  144527.35  42.88
1216.8  336034.60  144441.66  42.98
1220.6  334898.67  144293.11  43.09
1224.3  333624.33  144065.88  43.18
1228.1  332341.40  143865.32  43.29
1231.9  331092.08  143608.86  43.37
1235.6  329606.93  143217.91  43.45
1239.4  328247.00  142865.73  43.52
1243.1  327003.83  142496.01  43.58
1246.9  325776.37  142120.66  43.63
1250.6  324808.53  141788.62  43.65
1254.3  323739.81  141390.54  43.67
1258.1  322737.33  140994.99  43.69
1261.8  321439.07  140448.64  43.69
1265.6  320022.40  139785.60  43.68
1269.3  318579.28  139079.18  43.66
1273.1  318531.23  138938.20  43.62
1276.8  318783.20  138887.70  43.57
1280.6  318626.27  138624.50  43.51
1284.3  317274.40  137774.06  43.42
1288.0  315802.97  136836.82  43.33
1291.8  314487.39  135891.32  43.21
1295.5  313067.33  134852.39  43.07
1299.2  311755.61  133792.87  42.92
1302.9  310293.67  132571.24  42.72
1306.7  308719.60  131208.94  42.50
1310.4  307211.35  129730.10  42.23
1314.1  305824.57  128204.77  41.92
1317.9  304577.29  126605.39  41.57
1321.6  303149.71  124804.61  41.17
1325.3  301485.45  122752.65  40.72
1329.0  300118.82  120739.79  40.23
1332.8  298020.80  118301.70  39.70
1336.5  296188.60  115935.43  39.14
1340.2  295810.67  114124.11  38.58
1343.9  295330.63  112248.73  38.01
1347.6  294646.95  110307.85  37.44
