/*** Spectra Vista SIG Data ***/
name= 29_20221021_CECA_33_avg.sig
comm= Averaged Ref/Tar of files: HR.102122.0005_moc.sig,HR.102122.0006_moc.sig
data=
337.3  3176.00  238.20  7.50
338.8  3367.00  250.12  7.43
340.3  3560.60  234.25  6.58
341.8  3703.73  228.63  6.17
343.2  3907.20  230.88  5.91
344.7  4051.75  230.31  5.68
346.2  4207.55  220.59  5.24
347.7  4404.40  228.09  5.18
349.2  4611.60  234.36  5.08
350.6  4884.43  242.39  4.96
352.1  5144.40  235.79  4.58
353.6  5413.20  229.02  4.23
355.1  5691.08  228.99  4.02
356.6  5997.83  235.98  3.93
358.0  6252.40  236.06  3.78
359.5  6550.80  241.02  3.68
361.0  6882.75  251.37  3.65
362.5  7260.20  257.62  3.55
364.0  7570.20  263.81  3.48
365.4  7924.20  281.00  3.55
366.9  8287.50  281.78  3.40
368.4  8618.90  294.57  3.42
369.9  8999.33  302.68  3.36
371.3  9451.80  315.06  3.33
372.8  9850.05  334.53  3.40
374.3  10266.25  333.25  3.25
375.8  10672.20  334.18  3.13
377.2  11109.70  344.32  3.10
378.7  11513.20  349.70  3.04
380.2  11889.80  349.70  2.94
381.7  12404.48  367.54  2.96
383.1  12882.10  371.91  2.89
384.6  13379.60  372.26  2.78
386.1  13836.80  378.35  2.73
387.6  14310.45  393.47  2.75
389.0  14766.80  407.36  2.76
390.5  15266.25  419.49  2.75
392.0  15790.65  428.49  2.71
393.4  16343.05  436.17  2.67
394.9  16886.70  443.70  2.63
396.4  17413.88  455.40  2.62
397.9  17963.13  466.38  2.60
399.3  18512.58  476.11  2.57
400.8  19092.55  488.53  2.56
402.2  19738.20  495.91  2.51
403.7  20343.38  520.02  2.56
405.2  20928.70  535.06  2.56
406.6  21529.60  542.88  2.52
408.1  22102.80  551.44  2.49
409.6  22718.25  566.31  2.49
411.0  23399.60  580.72  2.48
412.5  24073.70  599.76  2.49
414.0  24714.88  615.33  2.49
415.4  25420.13  636.00  2.50
416.9  26098.35  651.50  2.50
418.4  26761.28  672.30  2.51
419.8  27500.20  695.24  2.53
421.3  28216.98  720.13  2.55
422.7  29023.20  744.72  2.57
424.2  29818.13  766.13  2.57
425.7  30562.50  782.40  2.56
427.1  31301.85  800.75  2.56
428.6  32085.00  824.60  2.57
430.0  32838.70  843.73  2.57
431.5  33715.58  874.61  2.59
432.9  34603.30  899.51  2.60
434.4  35483.03  916.80  2.58
435.9  36316.00  938.00  2.58
437.3  37152.50  965.25  2.60
438.8  37982.85  988.26  2.60
440.2  38848.43  1016.02  2.62
441.7  39824.80  1042.52  2.62
443.1  40730.50  1067.95  2.62
444.6  41710.40  1089.92  2.61
446.0  42635.85  1118.45  2.62
447.5  43583.10  1145.16  2.63
448.9  44505.00  1171.32  2.63
450.4  45506.30  1204.35  2.65
451.8  46384.00  1227.20  2.65
453.3  47292.28  1252.59  2.65
454.7  48312.73  1277.98  2.65
456.2  49183.78  1301.34  2.65
457.6  50179.50  1330.16  2.65
459.1  51141.35  1359.15  2.66
460.5  52068.88  1382.98  2.66
462.0  53126.20  1414.72  2.66
463.4  54169.80  1433.02  2.65
464.8  55167.00  1467.98  2.66
466.3  56170.13  1492.26  2.66
467.7  57186.73  1520.10  2.66
469.2  58256.43  1553.88  2.67
470.6  59234.80  1579.22  2.67
472.0  60283.23  1604.55  2.66
473.5  61288.38  1632.85  2.66
474.9  62315.25  1664.40  2.67
476.4  63489.60  1696.32  2.67
477.8  64597.50  1728.40  2.68
479.2  65627.00  1763.20  2.69
480.7  66744.23  1792.01  2.68
482.1  67871.65  1820.70  2.68
483.6  69056.55  1855.38  2.69
485.0  70131.38  1890.44  2.70
486.4  71338.65  1926.42  2.70
487.9  72423.00  1968.53  2.72
489.3  73595.55  2005.55  2.73
490.7  74699.93  2049.72  2.74
492.2  75940.20  2096.22  2.76
493.6  77059.00  2141.83  2.78
495.0  78170.63  2193.75  2.81
496.5  79347.73  2251.15  2.84
497.9  80477.70  2312.78  2.87
499.3  81651.70  2377.35  2.91
500.7  82904.35  2455.34  2.96
502.2  84066.80  2537.48  3.02
503.6  85307.80  2630.92  3.08
505.0  86376.40  2739.55  3.17
506.5  87704.40  2860.44  3.26
507.9  88950.00  3003.55  3.38
509.3  90383.60  3173.12  3.51
510.7  91684.13  3369.60  3.68
512.2  93103.20  3598.49  3.87
513.6  94580.85  3857.28  4.08
515.0  96004.53  4153.70  4.33
516.4  97382.25  4484.97  4.61
517.8  99016.25  4873.13  4.92
519.3  100354.75  5289.39  5.27
520.7  101946.80  5757.69  5.65
522.1  103261.28  6249.62  6.05
523.5  104680.90  6769.30  6.47
524.9  106187.40  7312.59  6.89
526.3  107610.65  7855.19  7.30
527.8  109117.80  8405.10  7.70
529.2  110260.00  8945.96  8.11
530.6  111799.65  9528.33  8.52
532.0  113484.00  10105.20  8.90
533.4  114844.50  10618.37  9.25
534.8  115811.33  11066.68  9.56
536.3  117441.60  11563.56  9.85
537.7  119372.40  12080.88  10.12
539.1  120821.98  12524.67  10.37
540.5  122042.40  12936.88  10.60
541.9  123778.80  13392.89  10.82
543.3  125114.18  13788.14  11.02
544.7  126437.40  14179.32  11.21
546.1  128264.40  14612.40  11.39
547.5  129505.60  14965.44  11.56
549.0  131197.00  15353.80  11.70
550.4  132748.75  15699.50  11.83
551.8  134351.63  16016.95  11.92
553.2  135923.60  16288.63  11.98
554.6  137290.40  16481.92  12.01
556.0  138845.25  16651.08  11.99
557.4  140440.65  16769.87  11.94
558.8  142115.85  16851.87  11.86
560.2  143579.63  16859.38  11.74
561.6  145272.38  16836.38  11.59
563.0  146869.98  16751.62  11.41
564.4  148480.70  16631.02  11.20
565.8  150035.63  16458.13  10.97
567.2  151811.50  16271.20  10.72
568.6  153359.25  16027.58  10.45
570.0  154802.38  15740.35  10.17
571.4  156567.45  15467.79  9.88
572.8  158331.00  15194.53  9.60
574.2  159969.60  14922.88  9.33
575.6  161527.50  14665.50  9.08
577.0  163081.60  14432.36  8.85
578.4  164812.38  14248.33  8.65
579.8  166353.08  14056.88  8.45
581.2  168103.73  13906.21  8.27
582.5  169556.40  13742.82  8.11
583.9  171100.00  13607.76  7.95
585.3  172924.43  13506.26  7.81
586.7  174410.60  13393.45  7.68
588.1  175933.75  13301.13  7.56
589.5  177600.50  13230.00  7.45
590.9  179254.40  13173.76  7.35
592.3  181096.50  13139.85  7.26
593.7  182570.70  13095.81  7.17
595.0  184218.30  13081.50  7.10
596.4  185690.05  13058.78  7.03
597.8  187207.85  13035.78  6.96
599.2  188786.40  13007.28  6.89
600.6  190574.15  12989.21  6.82
602.0  191896.95  12922.91  6.73
603.3  193724.35  12877.92  6.65
604.7  195415.75  12808.01  6.55
606.1  196939.80  12707.04  6.45
607.5  198598.35  12593.77  6.34
608.9  200324.90  12470.78  6.23
610.2  201724.43  12320.91  6.11
611.6  203372.03  12176.25  5.99
613.0  204958.80  12033.96  5.87
614.4  206377.20  11875.71  5.75
615.8  207850.50  11735.10  5.65
617.1  209416.20  11607.12  5.54
618.5  211077.60  11499.60  5.45
619.9  212606.63  11414.64  5.37
621.3  214245.90  11360.52  5.30
622.6  215833.25  11327.70  5.25
624.0  217257.90  11309.40  5.21
625.4  218713.28  11320.49  5.18
626.8  220258.68  11351.34  5.15
628.1  221568.60  11386.71  5.14
629.5  223451.05  11455.13  5.13
630.9  225070.18  11490.88  5.11
632.2  226480.45  11485.29  5.07
633.6  228122.13  11446.35  5.02
635.0  229637.20  11341.68  4.94
636.3  231179.90  11179.26  4.84
637.7  232547.00  10939.30  4.70
639.1  234185.00  10661.00  4.55
640.4  235660.78  10329.27  4.38
641.8  236876.43  9974.87  4.21
643.2  238488.78  9639.77  4.04
644.5  239878.00  9311.15  3.88
645.9  241547.40  9025.74  3.74
647.2  242901.05  8782.13  3.62
648.6  244599.75  8610.30  3.52
650.0  246067.20  8484.48  3.45
651.3  246943.68  8363.08  3.39
652.7  248755.60  8307.22  3.34
654.0  250800.80  8257.74  3.29
655.4  252255.90  8199.00  3.25
656.8  252605.60  8090.28  3.20
658.1  254013.00  8008.56  3.15
659.5  256248.83  7946.40  3.10
660.8  257715.00  7834.50  3.04
662.2  258720.00  7705.60  2.98
663.5  260284.65  7601.88  2.92
664.9  261509.30  7505.16  2.87
666.2  262315.20  7414.80  2.83
667.6  264104.75  7376.18  2.79
668.9  265141.78  7352.16  2.77
670.3  266732.38  7347.95  2.75
671.6  268022.25  7367.63  2.75
673.0  269217.00  7416.30  2.75
674.3  270504.00  7460.96  2.76
675.7  271831.55  7545.24  2.78
677.0  272933.80  7629.46  2.80
678.4  274277.33  7752.80  2.83
679.7  275378.58  7898.17  2.87
681.1  276688.05  8097.11  2.93
682.4  277841.20  8331.70  3.00
683.8  279123.00  8641.10  3.10
685.1  280146.75  9049.13  3.23
686.4  281540.40  9625.92  3.42
687.8  282864.25  10439.70  3.69
689.1  283932.25  11574.45  4.08
690.5  285342.45  13164.15  4.61
691.8  286241.60  15318.96  5.35
693.1  287632.35  18147.18  6.31
694.5  288879.50  21635.25  7.49
695.8  290221.75  25743.90  8.87
697.1  291450.25  30384.90  10.43
698.5  292557.60  35484.64  12.13
699.8  293709.28  40932.91  13.94
701.1  294888.38  46628.87  15.81
702.5  295720.70  52361.10  17.71
703.8  296685.00  58117.50  19.59
705.1  297893.70  63812.58  21.42
706.5  298952.38  69340.13  23.19
707.8  299959.35  74671.35  24.89
709.1  300807.05  79758.30  26.51
710.5  301990.28  84714.45  28.05
711.8  302856.30  89382.86  29.51
713.1  303882.10  93891.92  30.90
714.4  304818.70  98160.14  32.20
715.8  305666.10  102200.90  33.44
717.1  307021.95  106202.73  34.59
718.4  308000.00  109889.92  35.68
719.7  309121.15  113458.30  36.70
721.0  309667.50  116631.00  37.66
722.4  310468.40  119704.42  38.56
723.7  311460.15  122685.99  39.39
725.0  312514.20  125519.27  40.16
726.3  313501.38  128153.25  40.88
727.6  314072.00  130458.57  41.54
729.0  314989.50  132754.09  42.15
730.3  315810.90  134875.85  42.71
731.6  316738.30  136885.95  43.22
732.9  317540.83  138709.69  43.68
734.2  318344.13  140418.30  44.11
735.5  319351.88  142133.35  44.51
736.8  320163.30  143617.26  44.86
738.1  320977.00  145029.98  45.18
739.5  321938.48  146398.97  45.47
740.8  322653.93  147589.15  45.74
742.1  323437.63  148749.10  45.99
743.4  324250.00  149840.00  46.21
744.7  325235.83  150974.48  46.42
746.0  326127.75  151973.25  46.60
747.3  326694.48  152762.02  46.76
748.6  327437.00  153578.15  46.90
749.9  328224.00  154377.60  47.03
751.2  329045.45  155147.95  47.15
752.5  330013.00  155979.52  47.26
753.8  330657.08  156616.88  47.37
755.1  331344.00  157237.60  47.45
756.4  331882.58  157746.18  47.53
757.7  332821.30  158421.27  47.60
759.0  334604.78  159453.25  47.65
760.3  335781.60  160184.64  47.71
761.6  337367.80  161084.28  47.75
762.9  337906.00  161468.35  47.78
764.2  338294.40  161760.46  47.82
765.5  338542.18  161993.26  47.85
766.8  338966.40  162286.08  47.88
768.1  339486.00  162608.04  47.90
769.3  340095.00  162974.63  47.92
770.6  340766.40  163356.57  47.94
771.9  341481.00  163758.74  47.96
773.2  341879.20  163987.28  47.97
774.5  342485.00  164318.44  47.98
775.8  343199.60  164681.57  47.98
777.1  343736.80  164989.00  48.00
778.4  344095.95  165174.30  48.00
779.6  344839.73  165592.03  48.02
780.9  345330.00  165840.00  48.02
782.2  345787.75  166096.70  48.03
783.5  346114.00  166267.70  48.04
784.8  346657.95  166541.31  48.04
786.0  347042.15  166739.72  48.05
787.3  347389.58  166949.70  48.06
788.6  347815.43  167183.09  48.07
789.9  348243.00  167414.24  48.07
791.2  348943.40  167761.25  48.08
792.4  349600.95  168073.58  48.08
793.7  350098.80  168315.96  48.08
795.0  350765.25  168644.69  48.08
796.2  351353.85  168968.83  48.09
797.5  352042.05  169332.99  48.10
798.8  352743.15  169671.78  48.10
800.0  353432.23  170019.92  48.11
801.3  353888.30  170247.60  48.11
802.6  354500.55  170546.09  48.11
803.8  355169.95  170856.30  48.11
805.1  355631.50  171103.45  48.11
806.4  356082.60  171335.70  48.12
807.7  356624.78  171629.28  48.13
808.9  357171.50  171901.93  48.13
810.2  357650.65  172145.33  48.13
811.4  358173.20  172381.88  48.13
812.7  358800.00  172705.00  48.13
814.0  359651.00  173118.05  48.14
815.2  360302.50  173446.20  48.14
816.5  360732.58  173665.70  48.14
817.7  361225.50  173902.44  48.14
819.0  361721.25  174147.60  48.14
820.2  361900.00  174231.20  48.14
821.5  362558.00  174581.50  48.15
822.7  362924.40  174770.56  48.16
824.0  363206.70  174934.08  48.16
825.2  363704.18  175187.21  48.17
826.5  364064.78  175324.07  48.16
827.7  364653.83  175579.40  48.15
829.0  365047.70  175790.06  48.16
830.2  365336.60  175943.10  48.16
831.5  365844.25  176197.01  48.16
832.7  366150.75  176343.09  48.16
834.0  366471.63  176506.39  48.16
835.2  366834.60  176673.09  48.16
836.4  367154.70  176812.57  48.16
837.7  367584.40  177017.20  48.16
838.9  368011.15  177253.38  48.17
840.1  368476.43  177476.00  48.16
841.4  368882.70  177698.70  48.17
842.6  369284.20  177908.40  48.18
843.8  369707.40  178085.40  48.17
845.1  370225.30  178370.49  48.18
846.3  370636.70  178581.14  48.18
847.5  371063.70  178790.22  48.18
848.8  371479.80  178997.52  48.18
850.0  371827.75  179179.00  48.19
851.2  372388.05  179474.67  48.20
852.5  372747.10  179641.34  48.19
853.7  373295.25  179894.25  48.19
854.9  373729.40  180109.28  48.19
856.1  374183.55  180363.30  48.20
857.4  374461.83  180482.33  48.20
858.6  374966.30  180741.72  48.20
859.8  375388.13  180930.00  48.20
861.0  375850.80  181144.08  48.20
862.2  376342.13  181369.19  48.19
863.5  376793.95  181573.60  48.19
864.7  377302.20  181833.96  48.19
865.9  377716.40  182061.36  48.20
867.1  378016.70  182216.21  48.20
868.3  378441.60  182409.45  48.20
869.5  378930.85  182603.97  48.19
870.8  379516.50  182880.90  48.19
872.0  379975.05  183121.07  48.19
873.2  380434.20  183324.27  48.19
874.4  380896.43  183522.11  48.18
875.6  381324.50  183689.92  48.17
876.8  381797.10  183930.39  48.17
878.0  382203.65  184153.41  48.18
879.2  382752.15  184392.15  48.18
880.4  383253.38  184627.28  48.17
881.6  383716.78  184813.29  48.16
882.8  384087.20  184998.72  48.17
884.0  384739.30  185253.19  48.15
885.2  385266.10  185467.96  48.14
886.5  385964.40  185749.81  48.13
887.7  386387.30  185937.64  48.12
888.8  387097.28  186274.02  48.12
890.0  387550.40  186508.63  48.13
891.2  388199.10  186781.58  48.11
892.4  388747.28  187009.20  48.11
893.6  389350.35  187246.59  48.09
894.8  390218.00  187660.45  48.09
896.0  391144.25  188058.90  48.08
897.2  392018.25  188462.95  48.08
898.4  392729.70  188763.96  48.06
899.6  393166.88  188990.18  48.07
900.8  393446.10  189153.54  48.08
902.0  393789.90  189215.94  48.05
903.2  394054.28  189311.01  48.04
904.3  394378.20  189438.06  48.03
905.5  395012.85  189749.24  48.04
906.7  395661.00  189999.00  48.02
907.9  396231.15  190227.80  48.01
909.1  396451.13  190343.25  48.01
910.2  396605.33  190380.03  48.00
911.4  396831.83  190464.89  48.00
912.6  397103.85  190517.47  47.98
913.8  397277.40  190604.43  47.98
915.0  397715.85  190798.65  47.97
916.2  397868.25  190834.80  47.96
917.3  397887.08  190785.38  47.95
918.5  398106.00  190830.68  47.93
919.7  398333.40  190879.05  47.92
920.8  398409.88  190917.48  47.92
922.0  398455.75  190913.80  47.91
923.2  398580.00  190936.20  47.90
924.4  398796.75  190985.18  47.89
925.5  399013.20  191032.48  47.88
926.7  399789.00  191266.58  47.84
927.9  400542.00  191566.08  47.83
929.0  401866.65  192207.33  47.83
930.2  404219.30  193238.74  47.81
931.4  406505.93  194411.88  47.83
932.5  409221.70  195593.57  47.80
933.7  410739.85  196129.08  47.75
934.9  411486.25  196322.00  47.71
936.0  411133.13  196096.55  47.70
937.2  408992.40  194933.19  47.66
938.3  407010.25  193994.29  47.66
939.5  405234.00  193091.04  47.65
940.7  405512.10  193078.08  47.61
941.8  407161.43  193704.29  47.57
943.0  408690.00  194271.15  47.54
944.2  409501.30  194595.31  47.52
945.3  408846.75  194179.05  47.49
946.5  407951.10  193542.21  47.44
947.6  408098.00  193446.08  47.40
948.8  407840.55  193210.10  47.37
949.9  408223.20  193136.16  47.31
951.1  407667.33  192704.53  47.27
952.2  407592.00  192412.80  47.21
953.4  407039.00  191996.40  47.17
954.5  407089.80  191730.24  47.10
955.7  406765.80  191451.96  47.07
956.8  406383.50  191098.30  47.02
958.0  406009.50  190667.20  46.96
959.1  406079.28  190421.61  46.89
960.3  405445.93  190005.35  46.86
961.4  405302.40  189750.95  46.82
962.6  405177.50  189690.20  46.82
963.7  404786.25  189489.03  46.81
964.9  404903.33  189323.06  46.76
966.0  404793.45  189075.06  46.71
967.2  404413.65  188867.25  46.70
968.3  404040.15  188642.52  46.69
969.5  403706.30  188433.55  46.68
970.6  403637.55  188306.45  46.65
971.8  403624.90  188278.44  46.65
972.9  403394.70  188084.34  46.63
974.0  403790.10  188044.30  46.57
975.2  403550.88  187891.65  46.56
976.3  403340.63  187723.69  46.54
977.5  403134.55  187499.17  46.51
978.6  402500.60  187406.84  46.56
979.7  402639.30  187473.62  46.56
980.9  402225.10  187133.88  46.52
982.0  402198.10  186892.53  46.47
983.2  402608.90  186896.37  46.42
984.3  402412.00  186632.16  46.38
985.4  402688.20  186764.01  46.38
986.6  401637.75  186571.18  46.45
987.7  402422.83  187058.13  46.48
988.9  401920.20  186827.40  46.48
990.0  403145.80  187164.44  46.43
993.1  393379.64  179130.34  45.54
996.9  392102.20  178932.78  45.63
1000.7  392159.78  179270.34  45.71
1004.5  392257.67  179622.98  45.79
1008.4  391817.79  179757.28  45.88
1012.2  391721.08  179951.83  45.94
1016.0  391309.20  180018.00  46.00
1019.8  390626.78  179911.47  46.06
1023.7  389433.27  179534.55  46.10
1027.5  387755.30  178945.06  46.15
1031.3  386705.45  178632.20  46.19
1035.1  385690.84  178314.64  46.23
1038.9  385234.85  178250.76  46.27
1042.7  385012.75  178266.20  46.30
1046.5  384874.17  178276.86  46.32
1050.3  384874.29  178314.66  46.33
1054.2  384479.67  178192.63  46.35
1058.0  384120.28  178032.22  46.35
1061.8  384103.28  178041.25  46.35
1065.6  383405.53  177696.51  46.35
1069.4  382604.33  177275.94  46.33
1073.2  381317.19  176609.02  46.32
1077.0  380656.95  176212.44  46.29
1080.8  380896.88  176200.90  46.26
1084.6  381032.17  176132.95  46.23
1088.4  381298.10  176166.54  46.20
1092.2  380805.75  175794.59  46.16
1096.0  380156.55  175343.53  46.12
1099.8  379485.17  174849.44  46.08
1103.6  378533.18  174241.65  46.03
1107.4  377402.30  173527.26  45.98
1111.2  377080.10  173192.27  45.93
1114.9  376540.50  172701.50  45.87
1118.7  376276.73  172287.58  45.79
1122.5  375864.67  171752.85  45.70
1126.3  374949.46  170889.44  45.58
1130.1  374576.93  170062.25  45.40
1133.9  372882.30  168387.00  45.16
1137.7  371339.30  166563.54  44.85
1141.4  369260.34  164344.89  44.51
1145.2  368307.38  162496.14  44.12
1149.0  367015.83  160596.88  43.76
1152.8  365181.25  158636.84  43.44
1156.6  363360.43  156964.23  43.20
1160.3  361544.67  155589.07  43.03
1164.1  359234.93  154186.31  42.92
1167.9  357554.17  153206.70  42.85
1171.7  356217.75  152447.07  42.80
1175.4  354733.80  151662.21  42.75
1179.2  353342.70  150880.43  42.70
1183.0  353059.33  150550.43  42.64
1186.7  353075.80  150373.85  42.59
1190.5  352745.93  150074.99  42.54
1194.3  351811.13  149547.21  42.51
1198.0  350295.28  148830.42  42.49
1201.8  348574.38  148085.79  42.48
1205.6  347462.00  147696.72  42.51
1209.3  346828.55  147621.75  42.56
1213.1  346258.13  147588.17  42.62
1216.8  345564.82  147568.42  42.70
1220.6  344426.13  147356.00  42.78
1224.3  343163.92  147065.95  42.86
1228.1  341672.80  146684.79  42.93
1231.9  340128.95  146218.00  42.99
1235.6  338435.85  145653.06  43.04
1239.4  336926.25  145183.21  43.09
1243.1  335574.35  144724.03  43.13
1246.9  334290.07  144257.32  43.15
1250.6  333255.13  143861.20  43.17
1254.3  332090.28  143401.07  43.18
1258.1  330876.23  142883.75  43.18
1261.8  329456.27  142258.52  43.18
1265.6  328304.77  141707.27  43.16
1269.3  327532.60  141292.32  43.14
1273.1  327815.28  141307.26  43.11
1276.8  327475.20  141003.69  43.06
1280.6  326253.13  140299.74  43.00
1284.3  324260.80  139214.92  42.93
1288.0  323030.51  138427.73  42.85
1291.8  322624.47  137912.63  42.75
1295.5  321876.13  137241.66  42.64
1299.2  320648.37  136316.24  42.51
1302.9  318971.90  135096.82  42.35
1306.7  317160.67  133751.45  42.17
1310.4  315423.99  132305.86  41.95
1314.1  313798.10  130852.47  41.70
1317.9  312363.96  129353.39  41.41
1321.6  310791.12  127694.64  41.09
1325.3  309097.95  125860.73  40.72
1329.0  307775.77  124135.60  40.33
1332.8  305813.20  122037.30  39.91
1336.5  304127.27  120041.80  39.47
1340.2  303985.50  118660.75  39.04
1343.9  303877.71  117295.36  38.60
1347.6  303978.75  115987.57  38.16
1351.4  305412.00  115233.65  37.73
