/*** Spectra Vista SIG Data ***/
name= 40_20221021_QUPH_16_avg.sig
comm= Averaged Ref/Tar of files: HR.102122.0037_moc.sig,HR.102122.0038_moc.sig
data=
337.3  6350.75  441.21  6.95
338.8  6541.60  442.52  6.76
340.3  6868.82  434.82  6.33
341.8  7076.55  453.63  6.41
343.2  7520.52  444.13  5.91
344.7  8015.00  446.55  5.57
346.2  8389.50  444.15  5.29
347.7  8706.50  443.24  5.09
349.2  8971.20  453.60  5.06
350.6  9447.80  438.30  4.64
352.1  9905.00  438.65  4.43
353.6  10503.47  440.32  4.19
355.1  10998.80  452.37  4.11
356.6  11670.12  442.51  3.79
358.0  12200.62  468.61  3.84
359.5  12682.80  475.61  3.75
361.0  13322.73  474.40  3.56
362.5  13957.35  484.47  3.47
364.0  14671.78  531.81  3.62
365.4  15306.58  542.19  3.54
366.9  15999.68  552.59  3.45
368.4  16676.40  577.26  3.46
369.9  17384.00  604.20  3.48
371.3  18208.67  630.30  3.46
372.8  18944.43  675.35  3.56
374.3  19777.60  673.28  3.40
375.8  20601.75  676.16  3.28
377.2  21375.90  705.51  3.30
378.7  22193.73  716.38  3.23
380.2  22988.10  727.61  3.17
381.7  23843.00  749.05  3.14
383.1  24745.60  727.61  2.94
384.6  25656.60  757.08  2.95
386.1  26573.40  780.33  2.94
387.6  27444.15  799.14  2.91
389.0  28414.35  838.80  2.95
390.5  29342.10  863.62  2.94
392.0  30360.00  869.40  2.86
393.4  31441.50  904.20  2.88
394.9  32406.33  916.20  2.83
396.4  33530.93  961.40  2.87
397.9  34569.00  981.96  2.84
399.3  35481.12  1006.23  2.84
400.8  36636.05  1031.91  2.82
402.2  37801.50  1062.27  2.81
403.7  38937.20  1108.02  2.85
405.2  40045.53  1134.06  2.83
406.6  41283.40  1168.74  2.83
408.1  42322.70  1206.29  2.85
409.6  43459.40  1249.03  2.87
411.0  44653.22  1278.97  2.86
412.5  46010.73  1313.82  2.86
414.0  47299.23  1358.60  2.87
415.4  48581.40  1393.20  2.87
416.9  49833.20  1440.96  2.89
418.4  51145.60  1482.06  2.90
419.8  52435.83  1527.12  2.91
421.3  53846.10  1593.90  2.96
422.7  55274.27  1642.68  2.97
424.2  56744.45  1684.64  2.97
425.7  58168.92  1726.73  2.97
427.1  59619.40  1774.46  2.98
428.6  61070.85  1825.52  2.99
430.0  62557.55  1883.20  3.01
431.5  64174.93  1937.98  3.02
432.9  65773.25  1980.58  3.01
434.4  67427.20  2035.02  3.02
435.9  69068.87  2092.12  3.03
437.3  70733.75  2145.98  3.03
438.8  72326.32  2196.59  3.04
440.2  73966.08  2258.10  3.05
441.7  75770.13  2333.25  3.08
443.1  77548.50  2400.84  3.10
444.6  79284.13  2466.66  3.11
446.0  81075.83  2542.61  3.14
447.5  82983.33  2615.00  3.15
448.9  84695.15  2691.90  3.18
450.4  86533.33  2780.00  3.21
451.8  88289.25  2859.23  3.24
453.3  90080.10  2947.07  3.27
454.7  91869.00  3020.49  3.29
456.2  93615.20  3101.77  3.31
457.6  95486.40  3180.60  3.33
459.1  97274.80  3246.50  3.34
460.5  99081.92  3321.10  3.35
462.0  101076.60  3393.00  3.36
463.4  103004.65  3477.53  3.38
464.8  104922.30  3550.37  3.38
466.3  106819.90  3633.47  3.40
467.7  108800.00  3699.20  3.40
469.2  110627.20  3768.42  3.41
470.6  112604.92  3857.18  3.43
472.0  114606.03  3934.94  3.43
473.5  116573.35  4025.79  3.45
474.9  118703.77  4099.44  3.45
476.4  120744.67  4197.80  3.48
477.8  122770.67  4272.80  3.48
479.2  124785.98  4360.69  3.49
480.7  126857.30  4470.41  3.52
482.1  129013.50  4557.36  3.53
483.6  131167.20  4664.88  3.56
485.0  133347.50  4783.73  3.59
486.4  135415.08  4901.90  3.62
487.9  137615.17  5028.50  3.65
489.3  139680.45  5167.67  3.70
490.7  141832.73  5320.15  3.75
492.2  143974.75  5499.08  3.82
493.6  146178.93  5688.30  3.89
495.0  148424.90  5898.17  3.97
496.5  150576.30  6117.93  4.06
497.9  152808.83  6390.05  4.18
499.3  155041.00  6679.48  4.31
500.7  157272.53  7018.40  4.46
502.2  159584.15  7389.31  4.63
503.6  161830.40  7800.12  4.82
505.0  164058.40  8276.57  5.04
506.5  166465.53  8850.50  5.32
507.9  168857.52  9468.49  5.61
509.3  171107.10  10155.56  5.94
510.7  173665.05  10936.77  6.30
512.2  176223.85  11783.07  6.69
513.6  179011.08  12725.78  7.11
515.0  181701.33  13759.48  7.57
516.4  184493.33  14861.76  8.06
517.8  187243.83  16044.80  8.57
519.3  190109.87  17304.64  9.10
520.7  192717.13  18596.02  9.65
522.1  195316.98  19907.55  10.19
523.5  197861.20  21245.40  10.74
524.9  200698.95  22600.85  11.26
526.3  203263.65  23889.06  11.75
527.8  205985.50  25195.73  12.23
529.2  208512.00  26484.48  12.70
530.6  211203.00  27754.92  13.14
532.0  213983.68  28976.55  13.54
533.4  216469.70  30103.88  13.91
534.8  219007.25  31186.16  14.24
536.3  221915.58  32267.91  14.54
537.7  224765.17  33300.10  14.82
539.1  227601.83  34296.86  15.07
540.5  230454.00  35279.55  15.31
541.9  233386.22  36257.33  15.54
543.3  235993.47  37165.18  15.75
544.7  239008.00  38143.60  15.96
546.1  241795.87  39086.04  16.16
547.5  244699.20  40011.84  16.35
549.0  247714.93  40928.72  16.52
550.4  250573.05  41773.10  16.67
551.8  253545.63  42565.34  16.79
553.2  256410.80  43255.20  16.87
554.6  259259.87  43849.35  16.91
556.0  262143.00  44340.87  16.91
557.4  265200.67  44771.02  16.88
558.8  268057.67  45078.32  16.82
560.2  271240.00  45352.00  16.72
561.6  274130.82  45489.95  16.59
563.0  276901.30  45522.88  16.44
564.4  280058.80  45553.20  16.27
565.8  283028.00  45480.80  16.07
567.2  286169.57  45348.55  15.85
568.6  289169.55  45110.12  15.60
570.0  292003.83  44734.30  15.32
571.4  295382.10  44362.63  15.02
572.8  298487.20  43929.92  14.72
574.2  301321.30  43463.28  14.42
575.6  304350.25  43042.40  14.14
577.0  307307.37  42650.52  13.88
578.4  310668.75  42363.13  13.64
579.8  313685.75  42079.37  13.41
581.2  316706.50  41847.80  13.21
582.5  319605.00  41629.50  13.03
583.9  322612.40  41477.44  12.86
585.3  325470.07  41325.34  12.70
586.7  328389.60  41242.74  12.56
588.1  331326.00  41203.72  12.44
589.5  334614.10  41254.89  12.33
590.9  337536.72  41312.55  12.24
592.3  340452.60  41409.00  12.16
593.7  343371.70  41551.97  12.10
595.0  346253.20  41716.68  12.05
596.4  349510.33  41949.20  12.00
597.8  352136.27  42087.68  11.95
599.2  355221.10  42258.45  11.90
600.6  358339.85  42377.78  11.83
602.0  361268.80  42420.36  11.74
603.3  364086.67  42364.40  11.64
604.7  367045.10  42232.74  11.51
606.1  370014.60  42005.24  11.35
607.5  373259.17  41717.73  11.18
608.9  376293.87  41330.52  10.98
610.2  379407.60  40908.29  10.78
611.6  382268.33  40436.00  10.58
613.0  385044.80  39924.00  10.37
614.4  387766.55  39418.93  10.17
615.8  390964.67  38985.94  9.97
617.1  393644.67  38549.71  9.79
618.5  396831.95  38231.63  9.63
619.9  399495.60  37949.79  9.50
621.3  402366.03  37770.27  9.39
622.6  405210.00  37656.45  9.29
624.0  407857.25  37605.98  9.22
625.4  410884.65  37671.95  9.17
626.8  413769.20  37784.24  9.13
628.1  416517.03  37946.93  9.11
629.5  419208.07  38143.04  9.10
630.9  421979.47  38348.52  9.09
632.2  424908.30  38555.77  9.07
633.6  427337.73  38661.29  9.05
635.0  430147.88  38679.68  8.99
636.3  433132.80  38562.62  8.90
637.7  435779.92  38263.77  8.78
639.1  438655.07  37824.27  8.62
640.4  441300.92  37221.85  8.43
641.8  444075.60  36484.56  8.22
643.2  446593.30  35641.78  7.98
644.5  449446.67  34769.00  7.74
645.9  451843.70  33837.02  7.49
647.2  453944.52  32932.13  7.25
648.6  456391.47  32134.16  7.04
650.0  459043.20  31439.16  6.85
651.3  461974.37  30835.32  6.67
652.7  465805.00  30320.10  6.51
654.0  468551.87  29721.53  6.34
655.4  470755.25  29038.38  6.17
656.8  472585.40  28280.18  5.98
658.1  475287.05  27408.68  5.77
659.5  478252.80  26498.88  5.54
660.8  480925.90  25528.65  5.31
662.2  483650.28  24518.76  5.07
663.5  486360.20  23579.82  4.85
664.9  488232.98  22677.74  4.64
666.2  490464.00  21917.61  4.47
667.6  492936.00  21323.70  4.33
668.9  495561.60  20856.96  4.21
670.3  498521.92  20545.70  4.12
671.6  500574.40  20318.08  4.06
673.0  502864.00  20224.80  4.02
674.3  505235.50  20234.83  4.01
675.7  507684.60  20354.76  4.01
677.0  509937.25  20546.69  4.03
678.4  512111.07  20838.36  4.07
679.7  514384.95  21247.62  4.13
681.1  516844.68  21848.17  4.23
682.4  518980.75  22662.15  4.37
683.8  521212.50  23789.33  4.56
685.1  523465.10  25376.61  4.85
686.4  525687.72  27546.03  5.24
687.8  528003.55  30452.88  5.77
689.1  530419.40  34262.48  6.46
690.5  532368.40  39019.21  7.33
691.8  534967.03  44902.00  8.39
693.1  537370.00  51860.70  9.65
694.5  539695.00  59720.42  11.07
695.8  542025.67  68250.66  12.59
697.1  544268.93  77261.60  14.20
698.5  546534.00  86613.08  15.85
699.8  548894.93  96103.12  17.51
701.1  550788.00  105529.94  19.16
702.5  552799.92  114796.28  20.77
703.8  555166.55  123857.51  22.31
705.1  556951.43  132427.35  23.78
706.5  559170.93  140743.26  25.17
707.8  560959.95  148625.56  26.49
709.1  563197.25  156258.20  27.74
710.5  565291.13  163555.24  28.93
711.8  567170.00  170486.40  30.06
713.1  569004.67  177142.80  31.13
714.4  571085.17  183604.89  32.15
715.8  573328.25  189874.60  33.12
717.1  575534.70  195918.26  34.04
718.4  577721.25  201739.40  34.92
719.7  579810.60  207302.27  35.75
721.0  581464.98  212489.05  36.54
722.4  583251.30  217490.49  37.29
723.7  585163.63  222310.73  37.99
725.0  586831.72  226805.46  38.65
726.3  589038.67  231272.08  39.26
727.6  590678.50  235330.35  39.84
729.0  592459.23  239194.34  40.37
730.3  594385.98  242897.98  40.87
731.6  595852.93  246213.64  41.32
732.9  597725.48  249465.39  41.74
734.2  599282.75  252439.28  42.12
735.5  600967.03  255302.19  42.48
736.8  602896.82  258089.79  42.81
738.1  604639.20  260657.81  43.11
739.5  606312.30  263023.29  43.38
740.8  608103.65  265316.26  43.63
742.1  609606.45  267332.71  43.85
743.4  611271.03  269316.67  44.06
744.7  613088.00  271234.60  44.24
746.0  614523.73  272895.50  44.41
747.3  616048.07  274483.16  44.56
748.6  617613.97  275985.48  44.69
749.9  619282.28  277465.90  44.80
751.2  620535.67  278670.13  44.91
752.5  621962.97  279944.51  45.01
753.8  623217.60  281068.29  45.10
755.1  624661.47  282284.63  45.19
756.4  625667.33  283222.58  45.27
757.7  627594.00  284482.83  45.33
759.0  631055.98  286416.24  45.39
760.3  633618.23  287906.75  45.44
761.6  636358.18  289429.95  45.48
762.9  637659.00  290290.55  45.52
764.2  638342.37  290843.23  45.56
765.5  639112.07  291414.40  45.60
766.8  639571.67  291814.76  45.63
768.1  640565.10  292447.26  45.65
769.3  641717.63  293145.58  45.68
770.6  643048.33  293907.70  45.71
771.9  644083.77  294530.09  45.73
773.2  645411.00  295236.63  45.74
774.5  646222.50  295740.51  45.76
775.8  647157.13  296310.25  45.79
777.1  648222.18  296940.58  45.81
778.4  649433.75  297610.08  45.83
779.6  650598.40  298240.08  45.84
780.9  651221.10  298616.63  45.85
782.2  652027.77  299109.94  45.87
783.5  652828.50  299586.50  45.89
784.8  653539.25  300015.45  45.91
786.0  654310.05  300450.49  45.92
787.3  654988.50  300875.32  45.94
788.6  655769.17  301333.63  45.95
789.9  656366.20  301706.34  45.97
791.2  657612.43  302368.06  45.98
792.4  658614.92  302923.23  45.99
793.7  660098.85  303655.96  46.00
795.0  661111.40  304188.21  46.01
796.2  662367.60  304847.57  46.02
797.5  663446.67  305418.00  46.04
798.8  664706.00  306099.33  46.05
800.0  665746.67  306628.00  46.06
801.3  666839.25  307228.95  46.07
802.6  667824.00  307742.40  46.08
803.8  668937.50  308275.59  46.08
805.1  669898.50  308782.73  46.09
806.4  670781.18  309266.69  46.11
807.7  671760.98  309812.16  46.12
808.9  672858.82  310385.40  46.13
810.2  673710.80  310800.00  46.13
811.4  674738.13  311323.04  46.14
812.7  676063.33  311942.01  46.14
814.0  677253.50  312566.10  46.15
815.2  678608.20  313234.08  46.16
816.5  679685.42  313813.50  46.17
817.7  680459.17  314235.65  46.18
819.0  681150.40  314579.44  46.18
820.2  682014.00  314972.76  46.18
821.5  683142.53  315500.52  46.18
822.7  684155.38  316002.47  46.19
824.0  685033.70  316477.98  46.20
825.2  685725.30  316815.72  46.20
826.5  686460.87  317188.84  46.21
827.7  687574.85  317641.81  46.20
829.0  688549.65  318106.49  46.20
830.2  689527.07  318556.44  46.20
831.5  690437.25  318983.99  46.20
832.7  691411.50  319414.05  46.20
834.0  692138.70  319738.73  46.20
835.2  693232.73  320238.73  46.19
836.4  694039.47  320628.56  46.20
837.7  694830.00  321052.50  46.21
838.9  696084.33  321604.00  46.20
840.1  696980.90  322010.04  46.20
841.4  697981.93  322480.68  46.20
842.6  698976.60  322925.82  46.20
843.8  699985.00  323381.50  46.20
845.1  700869.40  323849.46  46.21
846.3  701854.30  324270.45  46.20
847.5  702660.83  324747.15  46.22
848.8  703658.93  325238.84  46.22
850.0  704917.20  325742.56  46.21
851.2  705887.63  326185.77  46.21
852.5  707099.67  326774.10  46.21
853.7  707970.15  327211.65  46.22
854.9  709168.20  327774.72  46.22
856.1  710190.10  328254.47  46.22
857.4  711216.95  328675.08  46.21
858.6  712225.73  329206.36  46.22
859.8  713502.33  329767.14  46.22
861.0  714388.27  330256.36  46.23
862.2  715506.40  330757.56  46.23
863.5  716529.55  331213.58  46.22
864.7  717600.00  331688.75  46.22
865.9  718637.08  332152.80  46.22
867.1  719491.67  332583.75  46.22
868.3  720562.85  333167.62  46.24
869.5  721759.33  333698.73  46.23
870.8  723067.20  334175.94  46.22
872.0  724173.28  334629.98  46.21
873.2  725152.28  335040.81  46.20
874.4  725974.53  335486.65  46.21
875.6  727096.62  336038.26  46.22
876.8  728654.30  336681.18  46.21
878.0  729657.13  337193.64  46.21
879.2  730788.07  337680.52  46.21
880.4  731949.33  338142.00  46.20
881.6  733051.40  338620.72  46.19
882.8  734389.27  339215.74  46.19
884.0  735265.92  339655.03  46.19
885.2  736729.00  340240.55  46.18
886.5  737965.78  340789.75  46.18
887.7  739079.53  341174.19  46.16
888.8  740557.93  341851.80  46.16
890.0  741492.50  342252.75  46.16
891.2  742541.15  342765.74  46.16
892.4  743986.65  343352.30  46.15
893.6  745682.43  344108.03  46.15
894.8  747302.60  344804.18  46.14
896.0  748898.83  345493.75  46.13
897.2  750845.70  346340.61  46.13
898.4  752739.40  347227.02  46.13
899.6  754081.53  347674.76  46.11
900.8  754700.27  347887.15  46.10
902.0  755191.23  348081.09  46.09
903.2  755485.60  348137.10  46.08
904.3  756697.50  348630.75  46.07
905.5  757647.00  349227.45  46.09
906.7  758909.47  349834.34  46.10
907.9  759880.77  350255.15  46.09
909.1  760888.33  350598.71  46.08
910.2  761355.00  350642.25  46.06
911.4  761692.65  350678.39  46.04
912.6  762096.67  350897.50  46.04
913.8  763083.07  351408.61  46.05
915.0  763330.27  351554.24  46.06
916.2  763647.20  351584.66  46.04
917.3  764378.15  351798.76  46.02
918.5  764772.90  351920.31  46.02
919.7  764777.67  351927.35  46.02
920.8  764900.45  351992.41  46.02
922.0  765137.45  351930.92  46.00
923.2  765406.65  352043.42  45.99
924.4  766066.83  352143.63  45.97
925.5  766973.33  352433.60  45.95
926.7  767863.37  352655.39  45.93
927.9  769132.22  353249.65  45.93
929.0  772047.00  354572.64  45.93
930.2  776317.20  356337.40  45.90
931.4  781357.48  358447.49  45.87
932.5  786130.40  360393.22  45.84
933.7  789092.60  361398.47  45.80
934.9  790381.67  361952.50  45.79
936.0  789391.95  361365.12  45.78
937.2  786037.72  359782.97  45.77
938.3  782199.17  357713.85  45.73
939.5  779711.40  356468.58  45.72
940.7  779888.08  356290.55  45.68
941.8  782772.90  357417.06  45.66
943.0  784828.65  358163.34  45.64
944.2  786656.00  358680.00  45.60
945.3  785882.40  358178.16  45.58
946.5  784105.00  356986.00  45.53
947.6  785147.83  357182.30  45.49
948.8  783856.43  356237.07  45.45
949.9  784129.50  356026.48  45.40
951.1  784337.18  355650.33  45.34
952.2  783762.98  354947.11  45.29
953.4  783391.70  354400.74  45.24
954.5  781856.25  353399.03  45.20
955.7  781467.30  352562.97  45.12
956.8  781663.57  352098.87  45.04
958.0  781211.10  351144.45  44.95
959.1  780494.40  350632.80  44.92
960.3  780391.67  350205.00  44.88
961.4  780554.47  350257.68  44.87
962.6  779880.00  349740.00  44.85
963.7  780177.07  349597.08  44.81
964.9  780705.03  349394.18  44.75
966.0  780997.23  349216.84  44.71
967.2  781608.80  349270.32  44.69
968.3  782640.63  349716.21  44.68
969.5  782937.55  349659.23  44.66
970.6  783198.30  349453.95  44.62
971.8  782675.25  349473.60  44.65
972.9  783850.67  349565.30  44.60
974.0  785009.67  349946.73  44.58
975.2  784125.00  349120.13  44.52
976.3  785026.55  349402.36  44.51
977.5  784154.20  349030.52  44.51
978.6  784598.80  349168.14  44.50
979.7  784784.00  348754.56  44.44
980.9  785896.03  348703.17  44.37
982.0  785314.43  348414.15  44.37
983.2  785697.73  348258.96  44.32
984.3  784033.37  347393.90  44.31
985.4  783682.20  347126.50  44.29
986.6  783975.67  347034.34  44.27
987.7  783294.92  346256.98  44.21
988.9  785150.18  347000.82  44.20
990.0  785200.93  346238.10  44.10
993.1  864232.80  383193.77  44.34
996.9  864089.20  383801.77  44.42
1000.7  863849.83  384409.44  44.50
1004.5  862899.53  384765.55  44.59
1008.4  863982.65  386043.30  44.68
1012.2  865651.04  387317.01  44.74
1016.0  865844.73  387928.08  44.80
1019.8  864698.76  387835.29  44.85
1023.7  863395.14  387647.67  44.90
1027.5  860987.40  387085.63  44.96
1031.3  859357.07  386770.38  45.01
1035.1  857985.68  386674.77  45.07
1038.9  857359.31  386861.39  45.12
1042.7  856952.18  387130.12  45.18
1046.5  856248.75  387086.07  45.21
1050.3  854585.29  386640.38  45.24
1054.2  852641.63  385992.16  45.27
1058.0  851785.20  385776.00  45.29
1061.8  850528.67  385416.27  45.31
1065.6  848558.38  384526.96  45.32
1069.4  846371.88  383553.24  45.32
1073.2  844338.63  382546.47  45.31
1077.0  843063.47  381784.23  45.29
1080.8  842761.33  381373.54  45.25
1084.6  842557.83  381111.89  45.23
1088.4  841997.40  380759.98  45.22
1092.2  840695.80  380024.40  45.20
1096.0  839246.47  379107.06  45.17
1099.8  837686.75  378068.84  45.13
1103.6  835712.93  376859.62  45.09
1107.4  834183.97  375759.31  45.05
1111.2  832736.03  374709.92  45.00
1114.9  831787.50  373797.00  44.94
1118.7  831527.42  372926.84  44.85
1122.5  831628.85  372045.17  44.74
1126.3  829221.75  369873.00  44.60
1130.1  828664.50  368008.84  44.41
1133.9  825216.03  364275.68  44.14
1137.7  822436.20  360275.66  43.81
1141.4  818620.95  355306.43  43.40
1145.2  817716.88  351309.57  42.96
1149.0  815639.10  347101.81  42.56
1152.8  812176.15  342716.65  42.20
1156.6  808439.25  338998.92  41.93
1160.3  805106.25  336115.64  41.75
1164.1  800285.20  333162.16  41.63
1167.9  797273.13  331276.12  41.55
1171.7  794715.07  329825.27  41.50
1175.4  792343.07  328530.73  41.46
1179.2  790389.75  327339.16  41.41
1183.0  790777.25  327048.19  41.36
1186.7  790993.00  326761.00  41.31
1190.5  789714.67  326000.16  41.28
1194.3  786902.43  324705.58  41.26
1198.0  783755.95  323355.52  41.26
1201.8  781242.00  322344.00  41.26
1205.6  779662.50  321867.40  41.28
1209.3  778523.25  321840.49  41.34
1213.1  777188.25  321825.38  41.41
1216.8  775152.80  321705.03  41.50
1220.6  772750.00  321403.79  41.59
1224.3  770275.00  321062.50  41.68
1228.1  767997.67  320846.80  41.78
1231.9  765521.90  320363.14  41.85
1235.6  762902.25  319787.97  41.92
1239.4  760516.53  319307.30  41.99
1243.1  758312.10  318736.54  42.03
1246.9  756312.15  318164.22  42.07
1250.6  754194.43  317497.93  42.10
1254.3  752229.60  316823.66  42.12
1258.1  750096.67  316014.86  42.13
1261.8  747590.67  314989.75  42.13
1265.6  745434.44  313970.52  42.12
1269.3  743376.80  312954.86  42.10
1273.1  743953.72  312996.29  42.07
1276.8  743910.60  312665.50  42.03
1280.6  743125.48  311880.50  41.97
1284.3  740454.37  310190.71  41.89
1288.0  738661.41  308750.95  41.80
1291.8  737326.80  307370.70  41.69
1295.5  735692.63  305840.19  41.57
1299.2  733330.65  303844.40  41.43
1302.9  730344.36  301330.80  41.26
1306.7  727144.43  298514.71  41.05
1310.4  724079.07  295431.86  40.80
1314.1  721441.88  292341.30  40.52
1317.9  718928.06  288941.90  40.19
1321.6  716076.73  285153.70  39.82
1325.3  713246.18  281099.51  39.41
1329.0  710653.53  276953.60  38.97
1332.8  706947.50  272131.34  38.49
