/*** Spectra Vista SIG Data ***/
name= 42_20220722_QUPH_11_avg.sig
comm= Averaged Ref/Tar of files: HR.072222.0002_moc.sig,HR.072222.0003_moc.sig
data=
337.3  3176.00  241.04  7.59
338.8  3318.90  240.50  7.25
340.3  3466.90  236.93  6.83
341.8  3612.28  233.85  6.47
343.2  3818.40  227.08  5.95
344.7  3966.45  218.13  5.50
346.2  4166.70  206.59  4.96
347.7  4365.08  198.87  4.56
349.2  4573.80  209.52  4.58
350.6  4774.25  203.56  4.26
352.1  5037.23  210.27  4.17
353.6  5309.10  204.24  3.85
355.1  5590.05  209.75  3.75
356.6  5899.50  218.19  3.70
358.0  6156.70  205.99  3.35
359.5  6427.20  203.94  3.17
361.0  6733.13  207.77  3.09
362.5  7113.83  213.29  3.00
364.0  7426.83  226.94  3.06
365.4  7783.70  237.65  3.05
366.9  8149.38  241.52  2.96
368.4  8455.25  236.91  2.80
369.9  8810.15  247.86  2.81
371.3  9211.50  257.85  2.80
372.8  9584.55  274.61  2.87
374.3  10024.38  277.97  2.77
375.8  10429.65  278.74  2.67
377.2  10840.70  291.29  2.69
378.7  11217.30  291.29  2.60
380.2  11593.90  289.75  2.50
381.7  12080.18  294.96  2.44
383.1  12558.70  304.92  2.43
384.6  13082.88  318.31  2.43
386.1  13512.50  326.62  2.42
387.6  13960.10  329.56  2.36
389.0  14418.40  331.56  2.30
390.5  14868.00  336.05  2.26
392.0  15446.80  343.85  2.23
393.4  15975.20  363.35  2.27
394.9  16521.30  373.61  2.26
396.4  17025.75  382.95  2.25
397.9  17553.13  390.23  2.22
399.3  18082.05  403.03  2.23
400.8  18594.05  408.77  2.20
402.2  19222.65  426.47  2.22
403.7  19813.73  446.42  2.25
405.2  20431.53  455.92  2.23
406.6  20972.80  469.31  2.24
408.1  21537.80  474.60  2.20
409.6  22125.60  488.55  2.21
411.0  22759.10  507.52  2.23
412.5  23386.48  532.53  2.28
414.0  24022.13  550.71  2.29
415.4  24704.63  567.86  2.30
416.9  25346.63  588.17  2.32
418.4  26014.28  602.40  2.32
419.8  26699.40  622.44  2.33
421.3  27397.03  644.25  2.35
422.7  28135.80  671.15  2.39
424.2  28906.88  691.88  2.39
425.7  29649.70  706.96  2.38
427.1  30368.18  727.95  2.40
428.6  31124.00  744.45  2.39
430.0  31837.15  767.86  2.41
431.5  32670.83  796.57  2.44
432.9  33504.55  814.54  2.43
434.4  34365.68  835.35  2.43
435.9  35168.00  857.20  2.44
437.3  35983.75  879.22  2.44
438.8  36774.68  908.36  2.47
440.2  37608.73  931.70  2.48
441.7  38551.80  963.65  2.50
443.1  39418.75  986.18  2.50
444.6  40334.90  1015.07  2.52
446.0  41234.55  1043.19  2.53
447.5  42148.43  1072.41  2.54
448.9  43047.30  1107.93  2.57
450.4  44017.05  1140.71  2.59
451.8  44850.00  1163.32  2.59
453.3  45736.35  1193.56  2.61
454.7  46718.55  1230.17  2.63
456.2  47557.10  1254.11  2.64
457.6  48480.30  1287.30  2.66
459.1  49422.43  1316.89  2.66
460.5  50303.38  1342.47  2.67
462.0  51327.38  1375.30  2.68
463.4  52334.00  1401.71  2.68
464.8  53280.00  1430.32  2.68
466.3  54234.68  1462.21  2.70
467.7  55174.00  1492.76  2.71
469.2  56201.48  1524.93  2.71
470.6  57141.35  1552.73  2.72
472.0  58143.83  1582.03  2.72
473.5  59113.13  1615.10  2.73
474.9  60092.25  1650.15  2.75
476.4  61200.00  1688.51  2.76
477.8  62234.00  1726.33  2.77
479.2  63205.50  1760.72  2.79
480.7  64269.00  1796.97  2.80
482.1  65357.35  1835.98  2.81
483.6  66513.35  1877.26  2.82
485.0  67554.83  1920.63  2.84
486.4  68676.00  1973.81  2.87
487.9  69717.38  2017.42  2.89
489.3  70841.98  2069.08  2.92
490.7  71872.73  2119.14  2.95
492.2  73073.70  2182.74  2.99
493.6  74129.00  2246.48  3.03
495.0  75187.13  2316.60  3.08
496.5  76324.68  2396.64  3.14
497.9  77381.28  2477.14  3.20
499.3  78496.58  2568.55  3.27
500.7  79696.00  2670.91  3.35
502.2  80811.00  2790.27  3.45
503.6  81993.60  2926.68  3.57
505.0  83021.55  3076.50  3.71
506.5  84276.60  3253.04  3.86
507.9  85436.48  3442.79  4.03
509.3  86742.80  3671.67  4.23
510.7  87940.13  3922.01  4.46
512.2  89267.33  4222.57  4.73
513.6  90692.00  4553.46  5.02
515.0  92064.20  4923.48  5.35
516.4  93370.73  5331.02  5.71
517.8  94920.00  5789.23  6.10
519.3  96174.48  6265.39  6.51
520.7  97661.55  6786.96  6.95
522.1  98901.08  7311.72  7.39
523.5  100205.10  7852.31  7.84
524.9  101597.85  8400.69  8.27
526.3  102932.55  8925.29  8.67
527.8  104321.25  9435.69  9.04
529.2  105357.90  9905.95  9.40
530.6  106886.65  10397.40  9.73
532.0  108542.00  10864.00  10.01
533.4  109753.88  11253.68  10.25
534.8  110574.23  11566.59  10.46
536.3  112152.60  11932.50  10.64
537.7  114093.00  12302.28  10.78
539.1  115472.93  12604.60  10.92
540.5  116583.75  12870.78  11.04
541.9  118232.78  13182.28  11.15
543.3  119430.85  13444.86  11.26
544.7  120646.20  13705.73  11.36
546.1  122322.48  14011.28  11.45
547.5  123513.60  14248.00  11.54
549.0  125158.00  14512.15  11.60
550.4  126565.00  14727.16  11.64
551.8  128026.10  14916.93  11.65
553.2  129460.53  15064.85  11.64
554.6  130728.00  15155.77  11.59
556.0  132179.85  15221.30  11.52
557.4  133698.43  15251.21  11.41
558.8  135233.10  15238.16  11.27
560.2  136586.88  15157.28  11.10
561.6  138162.53  15060.55  10.90
563.0  139652.70  14914.31  10.68
564.4  141159.00  14731.12  10.44
565.8  142608.75  14508.29  10.17
567.2  144232.75  14272.62  9.90
568.6  145648.88  13988.36  9.60
570.0  146988.18  13680.81  9.31
571.4  148611.45  13394.18  9.01
572.8  150276.50  13120.19  8.73
574.2  151804.80  12848.96  8.46
575.6  153247.50  12596.47  8.22
577.0  154685.70  12377.70  8.00
578.4  156315.25  12192.05  7.80
579.8  157735.35  12017.61  7.62
581.2  159364.60  11885.54  7.46
582.5  160687.80  11749.48  7.31
583.9  162120.20  11643.57  7.18
585.3  163813.73  11576.45  7.07
586.7  165199.45  11500.71  6.96
588.1  166609.63  11446.35  6.87
589.5  168155.75  11415.25  6.79
590.9  169681.60  11402.33  6.72
592.3  171395.35  11414.41  6.66
593.7  172760.25  11423.44  6.61
595.0  174304.58  11437.70  6.56
596.4  175666.75  11442.99  6.51
597.8  177061.65  11438.01  6.46
599.2  178516.80  11425.92  6.40
600.6  180180.65  11401.63  6.33
602.0  181412.03  11329.55  6.25
603.3  183101.15  11260.83  6.15
604.7  184667.20  11161.54  6.04
606.1  186065.40  11025.81  5.93
607.5  187611.53  10888.56  5.80
608.9  189225.40  10739.42  5.68
610.2  190526.18  10577.39  5.55
611.6  192040.95  10424.10  5.43
613.0  193499.95  10276.84  5.31
614.4  194795.40  10133.04  5.20
615.8  196165.13  10008.10  5.10
617.1  197612.10  9904.44  5.01
618.5  199148.80  9824.24  4.93
619.9  200592.00  9770.76  4.87
621.3  202110.53  9735.44  4.82
622.6  203618.00  9721.66  4.77
624.0  204975.15  9717.61  4.74
625.4  206345.70  9734.18  4.72
626.8  207837.18  9772.49  4.70
628.1  209075.35  9812.42  4.69
629.5  210809.43  9884.79  4.69
630.9  212304.40  9941.35  4.68
632.2  213579.45  9984.70  4.67
633.6  215090.00  10027.91  4.66
635.0  216513.60  10047.26  4.64
636.3  217928.10  10031.53  4.60
637.7  219220.38  9979.71  4.55
639.1  220780.00  9905.50  4.49
640.4  222174.75  9785.89  4.40
641.8  223311.60  9624.99  4.31
643.2  224789.78  9463.64  4.21
644.5  226081.00  9274.65  4.10
645.9  227691.45  9104.29  4.00
647.2  229243.35  8942.91  3.90
648.6  230910.75  8807.60  3.81
650.0  232221.60  8669.01  3.73
651.3  232700.88  8514.38  3.66
652.7  234095.80  8375.06  3.58
654.0  236121.90  8265.59  3.50
655.4  237497.70  8143.69  3.43
656.8  237623.60  7977.43  3.36
658.1  238804.00  7852.26  3.29
659.5  241146.15  7761.29  3.22
660.8  242820.00  7661.57  3.16
662.2  243667.20  7546.88  3.10
663.5  245200.50  7468.98  3.05
664.9  246370.80  7400.35  3.00
666.2  247063.80  7353.91  2.98
667.6  248655.85  7370.44  2.96
668.9  249712.15  7391.42  2.96
670.3  251002.75  7424.67  2.96
671.6  252313.50  7489.63  2.97
673.0  253419.75  7577.50  2.99
674.3  254614.10  7681.33  3.02
675.7  255849.25  7810.77  3.05
677.0  256877.58  7958.58  3.10
678.4  258133.00  8127.23  3.15
679.7  259168.18  8329.23  3.21
681.1  260374.63  8566.36  3.29
682.4  261465.10  8836.21  3.38
683.8  262636.40  9165.82  3.49
685.1  263597.25  9573.17  3.63
686.4  264823.80  10099.73  3.81
687.8  266021.00  10768.37  4.05
689.1  267066.75  11614.50  4.35
690.5  268311.75  12713.32  4.74
691.8  269070.70  14113.66  5.25
693.1  270350.40  15921.66  5.89
694.5  271453.00  18122.65  6.68
695.8  272590.50  20764.25  7.62
697.1  273728.00  23856.95  8.72
698.5  274692.70  27387.88  9.97
699.8  275750.68  31342.68  11.37
701.1  276816.40  35680.09  12.89
702.5  277590.50  40282.03  14.51
703.8  278505.00  45118.29  16.20
705.1  279594.90  50131.41  17.93
706.5  280560.13  55196.57  19.67
707.8  281475.90  60279.23  21.42
709.1  282321.95  65289.15  23.13
710.5  283415.88  70284.21  24.80
711.8  284213.50  75101.31  26.42
713.1  285172.40  79838.46  28.00
714.4  286019.80  84405.50  29.51
715.8  286800.30  88799.24  30.96
717.1  288024.45  93174.60  32.35
718.4  288937.60  97257.60  33.66
719.7  289994.93  101220.34  34.90
721.0  290497.50  104816.57  36.08
722.4  291233.25  108311.52  37.19
723.7  292162.35  111696.21  38.23
725.0  293152.50  114944.35  39.21
726.3  294031.65  117986.99  40.13
727.6  294579.45  120716.86  40.98
729.0  295480.33  123415.10  41.77
730.3  296193.60  125915.83  42.51
731.6  297060.80  128313.18  43.19
732.9  297803.63  130532.85  43.83
734.2  298592.25  132635.76  44.42
735.5  299567.35  134700.79  44.97
736.8  300326.40  136541.12  45.46
738.1  301116.10  138281.31  45.92
739.5  302018.28  139997.43  46.35
740.8  302682.33  141486.48  46.74
742.1  303394.65  142920.61  47.11
743.4  304100.00  144268.57  47.44
744.7  305045.48  145659.68  47.75
746.0  305923.80  146922.08  48.03
747.3  306478.68  147966.97  48.28
748.6  307197.50  149011.57  48.51
749.9  307892.00  150001.43  48.72
751.2  308543.85  150916.88  48.91
752.5  309406.80  151866.50  49.08
753.8  309953.53  152630.39  49.24
755.1  310648.00  153378.46  49.37
756.4  311206.48  154033.98  49.50
757.7  312143.83  154851.23  49.61
759.0  313860.80  156007.28  49.71
760.3  314978.40  156826.56  49.79
761.6  316486.80  157802.60  49.86
762.9  317014.25  158269.05  49.92
764.2  317366.20  158645.44  49.99
765.5  317678.88  158944.07  50.03
766.8  318104.00  159303.41  50.08
768.1  318634.60  159680.94  50.11
769.3  319191.60  160068.22  50.15
770.6  319831.85  160492.90  50.18
771.9  320575.15  160939.63  50.20
773.2  320948.40  161218.69  50.23
774.5  321578.40  161585.10  50.25
775.8  322196.80  161975.44  50.27
777.1  322748.80  162323.03  50.29
778.4  323086.50  162536.14  50.31
779.6  323853.88  162963.49  50.32
780.9  324300.00  163251.43  50.34
782.2  324764.00  163529.77  50.35
783.5  325099.50  163724.87  50.36
784.8  325635.30  164026.87  50.37
786.0  326015.90  164246.83  50.38
787.3  326395.75  164482.96  50.39
788.6  326810.93  164717.11  50.40
789.9  327248.60  164984.52  50.42
791.2  327899.95  165316.27  50.42
792.4  328595.88  165677.71  50.42
793.7  329056.80  165936.93  50.43
795.0  329658.45  166274.04  50.44
796.2  330271.25  166623.93  50.45
797.5  330998.70  166999.47  50.45
798.8  331678.60  167332.84  50.45
800.0  332312.63  167692.89  50.46
801.3  332805.90  167948.55  50.46
802.6  333339.08  168241.85  50.47
803.8  333980.20  168572.70  50.47
805.1  334448.63  168841.65  50.48
806.4  334899.00  169069.30  50.48
807.7  335425.05  169361.46  50.49
808.9  335982.70  169640.61  50.49
810.2  336451.85  169930.53  50.51
811.4  336920.20  170182.11  50.51
812.7  337512.50  170489.20  50.51
814.0  338335.30  170897.13  50.51
815.2  338926.50  171213.17  50.52
816.5  339341.43  171433.58  50.52
817.7  339800.50  171682.81  50.52
819.0  340256.95  171936.62  50.53
820.2  340384.00  172036.23  50.54
821.5  341036.70  172377.07  50.55
822.7  341373.50  172552.08  50.55
824.0  341725.50  172725.64  50.55
825.2  342186.53  172963.58  50.55
826.5  342460.10  173122.40  50.55
827.7  342946.53  173386.72  50.56
829.0  343316.35  173569.59  50.56
830.2  343578.60  173705.14  50.56
831.5  344029.00  173927.37  50.56
832.7  344354.85  174080.57  50.55
834.0  344591.95  174251.18  50.57
835.2  344931.68  174423.52  50.57
836.4  345174.50  174596.26  50.58
837.7  345525.00  174774.87  50.58
838.9  345926.08  175006.32  50.59
840.1  346234.50  175186.98  50.60
841.4  346634.80  175393.44  50.60
842.6  346915.60  175589.80  50.61
843.8  347263.60  175758.15  50.61
845.1  347731.65  176011.75  50.62
846.3  348039.10  176194.31  50.62
847.5  348287.10  176394.24  50.65
848.8  348675.60  176585.56  50.64
850.0  348960.50  176773.24  50.66
851.2  349482.60  177023.69  50.65
852.5  349792.00  177208.97  50.66
853.7  350196.75  177438.99  50.67
854.9  350528.30  177640.92  50.68
856.1  350951.90  177853.63  50.68
857.4  351062.20  177970.86  50.69
858.6  351488.00  178209.52  50.70
859.8  351870.00  178365.11  50.69
861.0  352263.60  178574.76  50.69
862.2  352603.08  178792.21  50.71
863.5  352948.05  178940.70  50.70
864.7  353344.20  179189.25  50.71
865.9  353714.60  179362.34  50.71
867.1  353843.80  179483.26  50.72
868.3  354265.05  179676.36  50.72
869.5  354647.20  179891.38  50.72
870.8  355189.50  180146.57  50.72
872.0  355617.68  180346.20  50.71
873.2  355973.25  180530.97  50.71
874.4  356335.20  180710.60  50.71
875.6  356594.25  180863.60  50.72
876.8  357037.55  181068.47  50.71
878.0  357463.70  181298.00  50.72
879.2  357874.50  181501.76  50.72
880.4  358333.13  181717.13  50.71
881.6  358767.15  181915.99  50.71
882.8  359092.00  182078.54  50.71
884.0  359632.55  182326.95  50.70
885.2  360008.50  182561.33  50.71
886.5  360553.30  182799.99  50.70
887.7  361000.25  183007.97  50.69
888.8  361631.55  183251.52  50.67
890.0  362034.20  183500.05  50.69
891.2  362619.00  183759.09  50.68
892.4  363090.53  184019.99  50.68
893.6  363624.90  184229.46  50.66
894.8  364412.00  184627.41  50.66
896.0  365140.75  184976.48  50.66
897.2  365924.00  185354.10  50.65
898.4  366540.90  185659.89  50.65
899.6  367094.25  185891.73  50.64
900.8  367406.13  186057.05  50.64
902.0  367587.15  186108.28  50.63
903.2  367791.23  186228.90  50.63
904.3  368064.30  186364.70  50.63
905.5  368745.73  186603.57  50.60
906.7  369329.00  186902.07  50.61
907.9  369861.80  187095.72  50.59
909.1  370059.98  187160.30  50.58
910.2  370196.55  187192.71  50.57
911.4  370448.33  187247.47  50.55
912.6  370605.95  187336.34  50.55
913.8  370784.03  187428.75  50.55
915.0  371226.45  187614.21  50.54
916.2  371377.50  187644.32  50.53
917.3  371292.75  187577.17  50.52
918.5  371435.50  187600.49  50.51
919.7  371760.30  187714.34  50.49
920.8  371804.88  187717.28  50.49
922.0  371775.25  187699.05  50.49
923.2  371962.50  187718.70  50.47
924.4  372090.38  187759.06  50.46
925.5  372496.50  187761.49  50.41
926.7  373022.50  187955.34  50.39
927.9  373791.00  188260.94  50.37
929.0  375232.50  188860.72  50.33
930.2  377201.30  189790.73  50.32
931.4  379385.10  190826.42  50.30
932.5  381825.45  191957.14  50.27
933.7  383176.63  192450.95  50.23
934.9  383967.50  192663.63  50.18
936.0  383560.13  192298.23  50.14
937.2  381693.15  191236.57  50.10
938.3  379764.80  190364.75  50.13
939.5  378669.60  189445.99  50.03
940.7  378695.70  189433.80  50.02
941.8  380145.98  189995.30  49.98
943.0  381623.25  190465.93  49.91
944.2  382286.45  190754.44  49.90
945.3  381800.25  190368.20  49.86
946.5  381117.15  189794.57  49.80
947.6  381209.30  189697.47  49.76
948.8  381259.13  189379.49  49.67
949.9  381376.80  189188.16  49.61
951.1  380997.50  188768.51  49.55
952.2  380868.00  188396.92  49.47
953.4  380511.00  187928.38  49.39
954.5  380343.60  187668.67  49.34
955.7  380419.20  187302.60  49.24
956.8  380235.50  186945.75  49.17
958.0  380094.00  186477.69  49.06
959.1  379895.18  186190.88  49.01
960.3  379458.75  185780.38  48.96
961.4  379267.35  185596.07  48.94
962.6  379524.25  185463.75  48.87
963.7  379272.45  185227.39  48.84
964.9  379298.78  185048.46  48.79
966.0  379075.95  184967.61  48.79
967.2  379055.25  184920.10  48.78
968.3  379075.95  184835.87  48.76
969.5  378824.13  184679.26  48.75
970.6  379095.93  184693.26  48.72
971.8  379072.05  184702.45  48.72
972.9  379041.15  184614.18  48.71
974.0  379347.60  184720.12  48.69
975.2  379331.00  184811.78  48.72
976.3  378960.93  184753.06  48.75
977.5  378931.35  184787.11  48.77
978.6  379294.80  184823.34  48.73
979.7  379704.15  184840.32  48.68
980.9  379678.85  184827.72  48.68
982.0  379160.50  184876.74  48.76
983.2  379106.35  184867.27  48.76
984.3  378484.80  184767.71  48.82
985.4  378966.63  184978.70  48.81
986.6  378915.13  184869.17  48.79
987.7  380247.18  185231.90  48.71
988.9  379859.40  185094.05  48.73
990.0  380587.10  185688.25  48.79
993.1  343095.67  166264.26  48.46
996.9  343158.75  166825.66  48.61
1000.7  343857.09  167663.10  48.76
1004.5  344290.75  168307.86  48.89
1008.4  344016.13  168645.62  49.02
1012.2  344072.92  169060.15  49.13
1016.0  344136.60  169496.62  49.25
1019.8  344097.60  169854.30  49.36
1023.7  343827.38  170005.77  49.45
1027.5  343224.08  169979.35  49.52
1031.3  343112.70  170136.77  49.59
1035.1  342742.81  170142.88  49.64
1038.9  342606.00  170220.05  49.68
1042.7  342384.83  170256.97  49.73
1046.5  342253.33  170288.04  49.75
1050.3  342275.03  170381.32  49.78
1054.2  341969.25  170315.50  49.80
1058.0  341511.16  170145.58  49.82
1061.8  341425.13  170155.58  49.84
1065.6  341118.60  169999.40  49.84
1069.4  340873.73  169871.52  49.83
1073.2  340270.06  169548.22  49.83
1077.0  339792.93  169238.06  49.81
1080.8  339481.25  168976.79  49.77
1084.6  338819.48  168531.30  49.74
1088.4  338463.34  168275.14  49.72
1092.2  337808.25  167809.34  49.68
1096.0  337252.43  167375.62  49.63
1099.8  336739.87  166936.58  49.57
1103.6  336031.90  166370.97  49.51
1107.4  335070.84  165675.62  49.44
1111.2  334809.90  165297.77  49.37
1114.9  334209.17  164717.38  49.29
1118.7  333696.83  164090.91  49.17
1122.5  333119.80  163324.39  49.03
1126.3  332109.52  162257.85  48.86
1130.1  331664.08  161211.61  48.61
1133.9  330225.00  159373.80  48.26
1137.7  328908.60  157317.05  47.83
1141.4  327207.73  154825.18  47.32
1145.2  326510.08  152653.58  46.75
1149.0  325465.00  150471.26  46.23
1152.8  323912.70  148336.36  45.80
1156.6  322372.05  146634.40  45.49
1160.3  320762.00  145290.86  45.30
1164.1  318571.40  143992.74  45.20
1167.9  316968.75  143159.60  45.17
1171.7  315795.38  142610.63  45.16
1175.4  314615.93  142111.45  45.17
1179.2  313613.90  141634.25  45.16
1183.0  313323.00  141442.15  45.14
1186.7  312965.33  141208.10  45.12
1190.5  312168.87  140806.54  45.11
1194.3  311180.33  140351.97  45.10
1198.0  310009.15  139889.54  45.12
1201.8  308569.98  139330.00  45.15
1205.6  307463.00  138967.57  45.20
1209.3  306692.17  138808.79  45.26
1213.1  305899.28  138670.46  45.33
1216.8  305050.90  138571.99  45.43
1220.6  303996.00  138380.00  45.52
1224.3  302816.50  138118.83  45.61
1228.1  301592.40  137871.64  45.71
1231.9  300366.70  137542.60  45.79
1235.6  298959.83  137113.24  45.86
1239.4  297664.75  136742.09  45.94
1243.1  296492.06  136357.13  45.99
1246.9  295359.90  135950.23  46.03
1250.6  294465.33  135614.43  46.05
1254.3  293451.68  135208.57  46.08
1258.1  292471.90  134790.15  46.09
1261.8  291256.67  134233.83  46.09
1265.6  290003.12  133610.24  46.07
1269.3  288858.98  132990.61  46.04
1273.1  288918.57  132876.16  45.99
1276.8  289033.60  132745.12  45.93
1280.6  288626.17  132356.07  45.86
1284.3  287196.80  131458.89  45.77
1288.0  285934.54  130565.60  45.66
1291.8  284960.04  129737.27  45.53
1295.5  283898.27  128788.94  45.36
1299.2  282754.72  127763.24  45.19
1302.9  281371.43  126511.12  44.96
1306.7  279858.60  125133.05  44.71
1310.4  278413.18  123638.67  44.41
1314.1  277095.50  122110.49  44.07
1317.9  275940.00  120502.14  43.67
1321.6  274619.76  118706.60  43.23
1325.3  273090.83  116686.58  42.73
1329.0  271875.22  114723.25  42.20
1332.8  269992.80  112351.80  41.61
1336.5  268357.47  110057.40  41.01
1340.2  268025.33  108283.50  40.40
1343.9  267636.25  106492.01  39.79
1347.6  267022.35  104628.51  39.18
1351.4  267251.00  103146.97  38.60
1355.1  267639.17  101749.06  38.02
