/*** Spectra Vista SIG Data ***/
name= 17_20220720_ACSA_19_avg.sig
comm= Averaged Ref/Tar of files: 16_20220720_ACSA_19_1_avg.sig,17_20220720_ACSA_19_2_avg.sig
data=
337.3  3192.54  269.39  8.44
338.8  3342.95  265.70  7.95
340.3  3482.52  258.79  7.43
341.8  3658.00  263.47  7.20
343.2  3840.60  255.83  6.66
344.7  4030.43  249.81  6.20
346.2  4166.70  245.10  5.88
347.7  4358.53  239.70  5.50
349.2  4536.00  243.00  5.36
350.6  4774.25  244.84  5.13
352.1  5043.18  241.57  4.79
353.6  5303.32  247.86  4.67
355.1  5590.05  251.76  4.50
356.6  5888.58  259.08  4.40
358.0  6114.17  262.79  4.30
359.5  6391.15  263.39  4.12
361.0  6688.24  265.05  3.96
362.5  7011.37  270.45  3.86
364.0  7350.36  278.56  3.79
365.4  7699.40  286.36  3.72
366.9  8034.28  297.30  3.70
368.4  8346.15  302.62  3.63
369.9  8670.53  316.58  3.65
371.3  9055.75  328.03  3.62
372.8  9429.68  340.09  3.61
374.3  9822.82  345.54  3.52
375.8  10196.09  349.07  3.42
377.2  10585.15  353.54  3.34
378.7  10952.79  358.67  3.27
380.2  11320.42  365.08  3.22
381.7  11778.40  375.78  3.19
383.1  12199.37  382.44  3.13
384.6  12651.28  393.07  3.11
386.1  13075.60  404.09  3.09
387.6  13470.51  408.10  3.03
389.0  13913.67  416.04  2.99
390.5  14345.85  424.81  2.96
392.0  14838.45  437.05  2.95
393.4  15362.12  449.18  2.92
394.9  15834.00  464.83  2.94
396.4  16327.13  475.61  2.91
397.9  16827.09  485.66  2.89
399.3  17339.19  495.65  2.86
400.8  17842.15  506.81  2.84
402.2  18428.87  516.72  2.80
403.7  18967.09  530.80  2.80
405.2  19516.09  545.66  2.80
406.6  20052.54  555.70  2.77
408.1  20592.37  569.31  2.76
409.6  21145.17  583.24  2.76
411.0  21744.98  597.80  2.75
412.5  22352.17  614.83  2.75
414.0  22945.65  630.66  2.75
415.4  23601.57  651.15  2.76
416.9  24215.83  667.29  2.76
418.4  24856.43  682.98  2.75
419.8  25498.20  702.87  2.76
421.3  26161.16  724.04  2.77
422.7  26880.10  747.37  2.78
424.2  27601.88  768.21  2.78
425.7  28299.52  786.29  2.78
427.1  28994.04  807.83  2.79
428.6  29718.67  826.67  2.78
430.0  30393.00  846.91  2.79
431.5  31193.25  871.34  2.79
432.9  31995.60  897.84  2.81
434.4  32818.58  918.85  2.80
435.9  33574.34  941.33  2.80
437.3  34354.38  967.08  2.82
438.8  35109.48  985.16  2.81
440.2  35906.39  1009.98  2.81
441.7  36785.24  1037.55  2.82
443.1  37607.92  1063.79  2.83
444.6  38498.72  1091.05  2.83
446.0  39355.34  1117.71  2.84
447.5  40226.91  1146.02  2.85
448.9  41088.65  1172.06  2.85
450.4  41996.85  1203.12  2.86
451.8  42787.34  1228.82  2.87
453.3  43626.92  1255.83  2.88
454.7  44555.66  1285.50  2.89
456.2  45355.14  1311.80  2.89
457.6  46243.47  1340.15  2.90
459.1  47134.97  1366.13  2.90
460.5  47980.59  1390.36  2.90
462.0  48946.98  1418.84  2.90
463.4  49881.70  1446.33  2.90
464.8  50787.13  1472.74  2.90
466.3  51689.14  1500.68  2.90
467.7  52605.32  1527.47  2.90
469.2  53567.11  1556.30  2.91
470.6  54460.14  1582.97  2.91
472.0  55408.59  1610.59  2.91
473.5  56316.38  1637.83  2.91
474.9  57254.13  1665.90  2.91
476.4  58300.80  1701.26  2.92
477.8  59278.42  1733.79  2.92
479.2  60208.84  1765.55  2.93
480.7  61226.84  1795.59  2.93
482.1  62265.05  1828.27  2.94
483.6  63346.39  1864.05  2.94
485.0  64336.55  1899.67  2.95
486.4  65421.65  1937.92  2.96
487.9  66414.57  1975.77  2.97
489.3  67484.68  2020.13  2.99
490.7  68468.80  2062.20  3.01
492.2  69599.60  2109.80  3.03
493.6  70605.68  2157.04  3.06
495.0  71606.44  2209.08  3.09
496.5  72680.39  2264.84  3.12
497.9  73683.18  2325.64  3.16
499.3  74747.12  2389.93  3.20
500.7  75884.56  2463.99  3.25
502.2  76922.54  2542.49  3.31
503.6  78061.34  2630.79  3.37
505.0  79012.34  2723.51  3.45
506.5  80201.17  2838.21  3.54
507.9  81310.19  2962.88  3.64
509.3  82571.67  3109.41  3.77
510.7  83718.38  3269.73  3.91
512.2  84992.38  3454.70  4.06
513.6  86317.64  3669.50  4.25
515.0  87609.41  3909.17  4.46
516.4  88848.90  4174.20  4.70
517.8  90310.54  4476.96  4.96
519.3  91503.93  4794.21  5.24
520.7  92917.34  5147.65  5.54
522.1  94086.69  5503.49  5.85
523.5  95321.57  5873.75  6.16
524.9  96578.18  6247.61  6.47
526.3  97831.13  6609.88  6.76
527.8  99267.30  6980.21  7.03
529.2  100376.34  7322.29  7.29
530.6  101634.08  7657.12  7.53
532.0  103210.34  7988.67  7.74
533.4  104475.47  8267.18  7.91
534.8  105293.04  8482.89  8.06
536.3  106805.55  8727.16  8.17
537.7  108605.70  8974.80  8.26
539.1  109971.87  9178.61  8.35
540.5  111121.09  9352.53  8.42
541.9  112778.99  9564.67  8.48
543.3  113950.09  9732.92  8.54
544.7  115254.00  9913.12  8.60
546.1  116871.02  10118.51  8.66
547.5  117949.07  10269.87  8.71
549.0  119516.84  10452.10  8.75
550.4  120836.36  10601.73  8.77
551.8  122197.01  10731.50  8.78
553.2  123615.48  10840.63  8.77
554.6  124843.34  10902.17  8.73
556.0  126226.88  10937.98  8.67
557.4  127665.19  10948.93  8.58
558.8  129136.95  10925.17  8.46
560.2  130450.07  10859.17  8.32
561.6  131945.75  10773.99  8.17
563.0  133379.93  10657.07  7.99
564.4  134809.66  10510.31  7.80
565.8  136171.78  10336.61  7.59
567.2  137757.67  10157.22  7.37
568.6  139125.69  9946.49  7.15
570.0  140395.86  9722.28  6.92
571.4  141957.51  9518.79  6.71
572.8  143536.61  9326.46  6.50
574.2  145019.47  9145.07  6.31
575.6  146431.88  8976.97  6.13
577.0  147773.87  8828.53  5.97
578.4  149340.48  8708.92  5.83
579.8  150703.09  8595.32  5.70
581.2  152259.48  8510.38  5.59
582.5  153535.20  8421.22  5.48
583.9  154898.60  8351.59  5.39
585.3  156521.59  8307.75  5.31
586.7  157844.16  8259.46  5.23
588.1  159197.21  8222.48  5.16
589.5  160677.13  8202.25  5.10
590.9  162134.14  8193.45  5.05
592.3  163775.41  8200.53  5.01
593.7  165064.42  8203.14  4.97
595.0  166539.04  8218.99  4.94
596.4  167847.11  8227.57  4.90
597.8  169168.71  8237.87  4.87
599.2  170566.00  8243.72  4.83
600.6  172141.24  8249.45  4.79
602.0  173298.85  8228.25  4.75
603.3  174919.21  8215.82  4.70
604.7  176418.90  8188.07  4.64
606.1  177760.10  8141.35  4.58
607.5  179226.36  8093.08  4.52
608.9  180753.25  8038.61  4.45
610.2  181983.38  7969.73  4.38
611.6  183410.14  7906.72  4.31
613.0  184803.46  7849.11  4.25
614.4  186053.28  7784.95  4.18
615.8  187346.25  7733.84  4.13
617.1  188733.30  7690.20  4.07
618.5  190202.20  7662.17  4.03
619.9  191564.87  7642.31  3.99
621.3  193012.77  7638.72  3.96
622.6  194429.88  7642.43  3.93
624.0  195730.90  7654.38  3.91
625.4  197053.04  7674.78  3.89
626.8  198483.89  7711.50  3.89
628.1  199683.78  7741.65  3.88
629.5  201368.14  7795.08  3.87
630.9  202818.14  7837.12  3.86
632.2  204081.94  7865.89  3.85
633.6  205562.79  7890.55  3.84
635.0  206947.54  7897.26  3.82
636.3  208323.72  7883.86  3.78
637.7  209545.40  7846.06  3.74
639.1  211032.50  7795.83  3.69
640.4  212365.13  7734.92  3.64
641.8  213442.49  7653.72  3.59
643.2  214864.01  7582.52  3.53
644.5  216076.96  7505.96  3.47
645.9  217623.90  7450.29  3.42
647.2  219197.19  7412.91  3.38
648.6  220947.75  7393.18  3.35
650.0  222300.00  7374.86  3.32
651.3  222577.99  7329.00  3.29
652.7  223435.18  7304.66  3.27
654.0  225156.62  7312.73  3.25
655.4  226721.33  7325.96  3.23
656.8  227011.35  7291.03  3.21
658.1  227964.75  7268.33  3.19
659.5  229997.87  7269.15  3.16
660.8  231600.00  7268.57  3.14
662.2  232411.20  7251.20  3.12
663.5  234025.83  7268.37  3.11
664.9  235295.02  7273.01  3.09
666.2  236093.30  7285.83  3.09
667.6  237817.07  7338.55  3.09
668.9  238836.33  7389.27  3.09
670.3  239759.32  7447.68  3.11
671.6  241206.75  7538.30  3.13
673.0  242268.75  7640.50  3.15
674.3  243372.57  7747.63  3.18
675.7  244561.57  7872.37  3.22
677.0  245611.79  8005.56  3.26
678.4  246863.54  8161.84  3.31
679.7  247869.35  8327.55  3.36
681.1  249050.15  8510.44  3.42
682.4  250109.39  8709.51  3.48
683.8  251277.00  8927.35  3.55
685.1  252162.32  9165.02  3.63
686.4  253327.90  9447.69  3.73
687.8  254528.88  9790.00  3.85
689.1  255474.50  10206.40  4.00
690.5  256652.50  10745.03  4.19
691.8  257488.59  11452.62  4.45
693.1  258666.78  12407.89  4.80
694.5  259698.84  13650.00  5.26
695.8  260783.25  15233.84  5.84
697.1  261856.29  17201.17  6.57
698.5  262816.82  19583.62  7.45
699.8  263804.73  22386.71  8.49
701.1  264862.90  25603.32  9.67
702.5  265586.39  29139.97  10.97
703.8  266501.25  32983.93  12.38
705.1  267522.78  37067.46  13.86
706.5  268466.44  41312.78  15.39
707.8  269373.38  45663.18  16.95
709.1  270195.76  50060.09  18.53
710.5  271248.75  54535.72  20.11
711.8  272056.29  58964.39  21.67
713.1  272981.74  63414.83  23.23
714.4  273821.70  67804.74  24.76
715.8  274568.75  72125.64  26.27
717.1  275765.48  76502.99  27.74
718.4  276625.07  80708.27  29.18
719.7  277648.66  84863.46  30.57
721.0  278148.75  88759.29  31.91
722.4  278868.34  92597.82  33.20
723.7  279776.58  96363.89  34.44
725.0  280729.50  100026.79  35.63
726.3  281633.88  103515.72  36.76
727.6  282128.42  106712.32  37.82
729.0  282963.28  109868.61  38.83
730.3  283683.35  112838.95  39.78
731.6  284540.51  115692.68  40.66
732.9  285293.32  118361.14  41.49
734.2  286047.67  120888.82  42.26
735.5  287016.77  123353.90  42.98
736.8  287745.65  125596.46  43.65
738.1  288504.87  127703.40  44.26
739.5  289398.93  129727.65  44.83
740.8  290040.99  131534.48  45.35
742.1  290751.14  133258.83  45.83
743.4  291462.50  134876.19  46.28
744.7  292395.04  136482.07  46.68
746.0  293210.78  137930.56  47.04
747.3  293716.18  139128.27  47.37
748.6  294421.21  140327.69  47.66
749.9  295134.67  141449.91  47.93
751.2  295843.67  142488.86  48.16
752.5  296715.34  143536.11  48.38
753.8  297337.58  144394.66  48.56
755.1  297986.00  145206.29  48.73
756.4  298552.33  145917.66  48.88
757.7  299471.38  146741.41  49.00
759.0  301106.71  147884.02  49.11
760.3  302218.40  148718.75  49.21
761.6  303687.77  149692.14  49.29
762.9  304236.67  150169.41  49.36
764.2  304606.64  150542.65  49.42
765.5  304896.05  150847.12  49.47
766.8  305329.07  151197.03  49.52
768.1  305838.80  151563.75  49.56
769.3  306417.30  151947.29  49.59
770.6  307044.73  152352.79  49.62
771.9  307736.74  152772.90  49.64
773.2  308149.47  153036.78  49.66
774.5  308751.30  153388.61  49.68
775.8  309397.02  153751.27  49.69
777.1  309981.10  154073.02  49.70
778.4  310325.86  154285.09  49.72
779.6  311077.08  154694.56  49.73
780.9  311545.00  154955.72  49.74
782.2  312003.54  155215.63  49.75
783.5  312320.00  155403.31  49.76
784.8  312863.48  155689.74  49.76
786.0  313270.36  155910.20  49.77
787.3  313653.63  156120.50  49.77
788.6  314086.23  156353.20  49.78
789.9  314529.60  156596.27  49.79
791.2  315184.84  156930.84  49.79
792.4  315851.04  157270.34  49.79
793.7  316314.70  157517.59  49.80
795.0  316912.07  157830.67  49.80
796.2  317568.08  158160.25  49.80
797.5  318289.35  158519.63  49.80
798.8  318956.51  158856.36  49.81
800.0  319588.54  159183.55  49.81
801.3  320080.65  159419.32  49.81
802.6  320686.20  159714.39  49.80
803.8  321297.33  160036.61  49.81
805.1  321794.09  160280.71  49.81
806.4  322275.20  160537.07  49.81
807.7  322786.02  160783.36  49.81
808.9  323343.43  161052.69  49.81
810.2  323874.95  161320.69  49.81
811.4  324388.95  161568.63  49.81
812.7  325013.54  161884.83  49.81
814.0  325784.55  162281.89  49.81
815.2  326394.54  162582.45  49.81
816.5  326792.80  162792.97  49.82
817.7  327259.74  163023.85  49.81
819.0  327757.84  163293.38  49.82
820.2  327939.34  163386.67  49.82
821.5  328646.33  163733.68  49.82
822.7  328983.24  163917.06  49.83
824.0  329286.60  164077.20  49.83
825.2  329766.53  164323.26  49.83
826.5  330081.93  164494.49  49.83
827.7  330572.09  164757.77  49.84
829.0  331005.17  164959.65  49.84
830.2  331323.24  165134.74  49.84
831.5  331758.97  165349.33  49.84
832.7  332056.47  165515.95  49.85
834.0  332350.37  165677.64  49.85
835.2  332719.62  165866.45  49.85
836.4  333010.70  166035.36  49.86
837.7  333411.30  166239.14  49.86
838.9  333818.76  166455.01  49.86
840.1  334151.78  166655.70  49.87
841.4  334572.00  166887.70  49.88
842.6  334941.37  167086.04  49.89
843.8  335260.37  167272.31  49.89
845.1  335723.17  167519.62  49.90
846.3  336069.19  167721.93  49.91
847.5  336442.05  167924.50  49.91
848.8  336851.20  168128.37  49.91
850.0  337150.98  168304.75  49.92
851.2  337638.60  168577.59  49.93
852.5  337992.95  168784.44  49.94
853.7  338473.50  169022.36  49.94
854.9  338883.69  169244.33  49.94
856.1  339313.76  169456.83  49.94
857.4  339543.26  169562.50  49.94
858.6  339966.24  169791.07  49.94
859.8  340307.50  169981.97  49.95
861.0  340704.00  170201.57  49.96
862.2  341207.39  170437.85  49.95
863.5  341551.82  170601.48  49.95
864.7  342067.00  170848.54  49.95
865.9  342435.47  171032.49  49.95
867.1  342721.30  171187.64  49.95
868.3  343149.83  171402.94  49.95
869.5  343551.87  171621.03  49.95
870.8  344071.50  171873.65  49.95
872.0  344560.20  172096.00  49.95
873.2  344954.10  172290.98  49.95
874.4  345344.52  172496.45  49.95
875.6  345718.26  172674.89  49.95
876.8  346230.45  172894.40  49.94
878.0  346685.90  173121.33  49.94
879.2  347130.00  173356.41  49.94
880.4  347712.75  173589.57  49.92
881.6  348110.70  173805.65  49.93
882.8  348563.20  174000.34  49.92
884.0  349099.26  174254.87  49.92
885.2  349572.20  174489.59  49.92
886.5  350217.09  174776.42  49.91
887.7  350737.40  174995.74  49.89
888.8  351287.05  175278.43  49.90
890.0  351864.70  175527.33  49.88
891.2  352405.70  175790.13  49.88
892.4  353065.39  176063.23  49.87
893.6  353588.44  176325.09  49.87
894.8  354425.21  176732.00  49.86
896.0  355215.75  177128.17  49.86
897.2  356033.71  177502.31  49.86
898.4  356805.35  177831.50  49.84
899.6  357399.25  178101.11  49.83
900.8  357830.03  178283.72  49.82
902.0  358032.95  178392.60  49.83
903.2  358367.64  178549.47  49.82
904.3  358760.85  178702.79  49.81
905.5  359393.89  178983.71  49.80
906.7  359984.17  179248.93  49.79
907.9  360515.46  179502.40  49.79
909.1  360854.22  179666.68  49.79
910.2  361117.30  179752.24  49.78
911.4  361473.94  179910.35  49.77
912.6  361651.77  179998.19  49.77
913.8  361952.90  180096.27  49.76
915.0  362417.48  180296.90  49.75
916.2  362652.88  180371.29  49.74
917.3  362813.40  180391.14  49.72
918.5  363130.79  180504.46  49.71
919.7  363384.95  180643.21  49.71
920.8  363490.82  180660.62  49.70
922.0  363667.79  180719.00  49.69
923.2  363954.50  180784.50  49.67
924.4  364295.25  180882.49  49.65
925.5  364592.94  180973.64  49.64
926.7  365263.07  181243.38  49.62
927.9  366054.90  181610.72  49.61
929.0  367335.45  182227.76  49.61
930.2  369421.12  183164.89  49.58
931.4  371647.24  184205.64  49.56
932.5  374206.69  185370.11  49.54
933.7  375661.80  185985.39  49.51
934.9  376278.44  186241.04  49.50
936.0  376065.09  186039.60  49.47
937.2  374275.48  185067.64  49.45
938.3  372772.36  184302.78  49.44
939.5  371535.00  183598.12  49.42
940.7  371905.65  183638.32  49.38
941.8  373479.83  184238.02  49.33
943.0  374722.13  184806.75  49.32
944.2  375619.73  185120.13  49.28
945.3  375347.38  184879.50  49.26
946.5  374643.23  184477.83  49.24
947.6  375011.55  184479.55  49.19
948.8  375115.00  184314.51  49.14
949.9  375323.20  184268.20  49.10
951.1  375082.02  183986.47  49.05
952.2  375054.00  183755.43  48.99
953.4  374708.00  183475.47  48.96
954.5  374868.00  183332.32  48.91
955.7  374957.10  183120.60  48.84
956.8  374896.95  182932.24  48.80
958.0  374630.34  182653.12  48.76
959.1  374515.40  182482.54  48.72
960.3  374284.32  182216.86  48.68
961.4  374341.80  182077.82  48.64
962.6  374569.42  182118.67  48.62
963.7  374488.62  182007.79  48.60
964.9  374529.30  181921.40  48.57
966.0  374703.98  181859.47  48.53
967.2  374652.75  181848.41  48.54
968.3  374553.45  181726.97  48.52
969.5  374397.53  181643.88  48.52
970.6  374428.21  181663.02  48.52
971.8  374880.10  181808.01  48.50
972.9  374930.19  181789.29  48.49
974.0  375056.59  181929.80  48.51
975.2  375123.79  181835.87  48.47
976.3  375136.66  181806.32  48.46
977.5  375149.60  181758.11  48.45
978.6  375293.80  181759.71  48.43
979.7  375456.90  181903.65  48.45
980.9  375545.38  181937.50  48.45
982.0  375720.86  181923.91  48.42
983.2  375359.57  181889.30  48.46
984.3  375403.27  181732.78  48.41
985.4  375880.89  181810.31  48.37
986.6  375844.50  181868.73  48.39
987.7  376768.64  182312.42  48.39
988.9  376986.90  182329.89  48.37
990.0  377555.02  182756.66  48.41
993.1  313271.53  150908.14  48.17
996.9  313730.29  151445.42  48.27
1000.7  314661.09  152177.78  48.36
1004.5  315211.17  152673.99  48.44
1008.4  315075.34  152861.42  48.52
1012.2  315170.80  153124.32  48.58
1016.0  315381.90  153409.51  48.64
1019.8  315638.41  153730.50  48.70
1023.7  315712.61  153910.37  48.75
1027.5  315450.39  153947.19  48.80
1031.3  315669.87  154156.03  48.83
1035.1  315530.05  154181.62  48.86
1038.9  315466.62  154231.30  48.89
1042.7  315284.50  154208.40  48.91
1046.5  315152.92  154186.33  48.92
1050.3  315162.11  154217.54  48.93
1054.2  314901.71  154115.17  48.94
1058.0  314432.18  153866.50  48.93
1061.8  314327.67  153822.97  48.94
1065.6  314118.64  153684.86  48.93
1069.4  314116.54  153664.05  48.92
1073.2  313800.00  153464.93  48.91
1077.0  313385.94  153200.42  48.89
1080.8  312988.54  152890.85  48.85
1084.6  312183.49  152378.33  48.81
1088.4  311695.36  152061.05  48.79
1092.2  311029.88  151619.47  48.75
1096.0  310570.97  151276.77  48.71
1099.8  310158.88  150926.35  48.66
1103.6  309556.15  150483.52  48.61
1107.4  308742.07  149922.76  48.56
1111.2  308481.05  149639.36  48.51
1114.9  307848.04  149142.75  48.45
1118.7  307247.74  148611.55  48.37
1122.5  306588.97  147983.52  48.27
1126.3  305611.14  147159.72  48.15
1130.1  305180.04  146464.33  47.99
1133.9  303910.60  145171.35  47.77
1137.7  302720.30  143773.14  47.49
1141.4  301297.16  142099.77  47.16
1145.2  300687.47  140707.91  46.80
1149.0  299780.84  139240.63  46.45
1152.8  298466.63  137736.02  46.15
1156.6  297110.92  136466.55  45.93
1160.3  295674.34  135383.72  45.79
1164.1  293659.54  134218.05  45.71
1167.9  292183.86  133410.27  45.66
1171.7  291130.88  132867.01  45.64
1175.4  290128.10  132396.66  45.63
1179.2  289228.48  131941.32  45.62
1183.0  288922.67  131732.05  45.59
1186.7  288420.65  131424.57  45.57
1190.5  287529.47  130954.77  45.54
1194.3  286580.74  130478.90  45.53
1198.0  285643.47  130055.22  45.53
1201.8  284400.65  129512.32  45.54
1205.6  283309.50  129088.27  45.56
1209.3  282517.87  128832.10  45.60
1213.1  281709.98  128579.20  45.64
1216.8  280910.49  128386.53  45.70
1220.6  280013.07  128130.94  45.76
1224.3  278997.67  127814.64  45.81
1228.1  277943.80  127500.96  45.87
1231.9  276851.80  127127.77  45.92
1235.6  275541.53  126641.16  45.96
1239.4  274364.88  126216.31  46.00
1243.1  273309.37  125800.32  46.03
1246.9  272292.87  125367.87  46.04
1250.6  271492.74  125015.83  46.05
1254.3  270629.43  124617.58  46.05
1258.1  269825.68  124249.09  46.05
1261.8  268777.07  123746.34  46.04
1265.6  267561.68  123141.91  46.02
1269.3  266391.04  122510.41  45.99
1273.1  266364.45  122382.06  45.95
1276.8  266631.20  122374.46  45.90
1280.6  266522.98  122187.69  45.85
1284.3  265319.20  121477.14  45.79
1288.0  264057.02  120701.11  45.71
1291.8  262936.34  119919.19  45.61
1295.5  261787.53  119105.49  45.50
1299.2  260729.63  118301.19  45.37
1302.9  259472.94  117353.49  45.23
1306.7  258127.51  116312.93  45.06
1310.4  256856.92  115215.81  44.86
1314.1  255670.43  114100.00  44.63
1317.9  254640.73  112956.64  44.36
1321.6  253488.15  111682.62  44.06
1325.3  252110.78  110221.39  43.72
1329.0  250944.69  108811.88  43.36
1332.8  249148.90  107047.60  42.97
1336.5  247602.44  105371.63  42.56
1340.2  247216.67  104184.17  42.14
1343.9  246671.57  102914.79  41.72
1347.6  245732.25  101484.43  41.30
1351.4  245396.00  100331.50  40.89
1355.1  245069.19  99206.12  40.48
1358.8  244744.00  98027.43  40.05
1362.5  244169.72  96652.56  39.58
