/*** Spectra Vista SIG Data ***/
name= 16_20220926_ACSA_01_avg.sig
comm= Averaged Ref/Tar of files: HR.092622.0044_moc.sig,HR.092622.0045_moc.sig,HR.092622.0046_moc.sig
data=
337.3  6317.33  494.69  7.83
338.8  6445.40  492.91  7.65
340.3  6900.33  502.33  7.28
341.8  7076.55  482.14  6.81
343.2  7372.48  492.34  6.68
344.7  7814.63  475.99  6.09
346.2  8142.75  490.37  6.02
347.7  8548.20  479.42  5.61
349.2  8920.80  457.92  5.13
350.6  9350.40  459.17  4.91
352.1  9834.25  467.62  4.76
353.6  10320.00  467.84  4.53
355.1  10777.05  492.92  4.57
356.6  11453.20  506.97  4.43
358.0  11968.43  519.87  4.34
359.5  12499.88  520.32  4.16
361.0  13164.60  530.88  4.03
362.5  13784.33  540.50  3.92
364.0  14483.20  553.90  3.82
365.4  15159.05  580.65  3.83
366.9  15819.10  596.44  3.77
368.4  16516.05  630.20  3.82
369.9  17225.00  652.15  3.79
371.3  18068.60  673.32  3.73
372.8  18857.85  687.72  3.65
374.3  19672.40  706.34  3.59
375.8  20496.10  729.49  3.56
377.2  21323.25  761.17  3.57
378.7  22176.18  768.55  3.47
380.2  22935.38  781.33  3.41
381.7  23895.75  779.69  3.26
383.1  24886.20  794.39  3.19
384.6  25761.75  829.18  3.22
386.1  26784.30  858.66  3.21
387.6  27707.03  883.26  3.19
389.0  28728.90  899.71  3.13
390.5  29758.30  916.63  3.08
392.0  30791.25  926.57  3.01
393.4  31955.25  958.02  3.00
394.9  32932.30  973.40  2.96
396.4  34155.00  1008.15  2.95
397.9  35270.40  1028.72  2.92
399.3  36204.55  1056.03  2.92
400.8  37431.08  1078.27  2.88
402.2  38614.95  1115.59  2.89
403.7  39813.60  1142.90  2.87
405.2  40982.90  1174.01  2.86
406.6  42264.90  1198.51  2.84
408.1  43364.63  1224.32  2.82
409.6  44571.55  1261.25  2.83
411.0  45802.08  1291.62  2.82
412.5  47159.65  1327.72  2.82
414.0  48543.95  1359.73  2.80
415.4  49845.60  1382.88  2.77
416.9  51184.10  1428.10  2.79
418.4  52525.95  1468.91  2.80
419.8  53838.05  1515.00  2.81
421.3  55336.05  1566.18  2.83
422.7  56851.60  1609.52  2.83
424.2  58372.28  1655.61  2.84
425.7  59802.88  1699.32  2.84
427.1  61277.20  1744.34  2.85
428.6  62782.28  1800.93  2.87
430.0  64323.05  1847.33  2.87
431.5  66006.85  1896.93  2.87
432.9  67674.38  1949.50  2.88
434.4  69367.95  2003.07  2.89
435.9  71056.20  2052.89  2.89
437.3  72712.88  2106.17  2.90
438.8  74358.25  2160.56  2.91
440.2  76060.78  2212.15  2.91
441.7  77930.55  2276.96  2.92
443.1  79745.85  2326.09  2.92
444.6  81546.50  2381.51  2.92
446.0  83349.30  2439.68  2.93
447.5  85350.00  2497.62  2.93
448.9  87087.95  2561.34  2.94
450.4  89000.00  2624.76  2.95
451.8  90801.75  2681.44  2.95
453.3  92607.60  2742.22  2.96
454.7  94453.88  2801.11  2.97
456.2  96221.30  2852.84  2.96
457.6  98136.90  2909.44  2.96
459.1  99993.08  2969.40  2.97
460.5  101879.63  3030.62  2.97
462.0  103878.00  3098.19  2.98
463.4  105858.55  3152.88  2.98
464.8  107849.70  3210.96  2.98
466.3  109789.13  3269.63  2.98
467.7  111819.20  3339.12  2.99
469.2  113704.20  3401.25  2.99
470.6  115742.38  3471.48  3.00
472.0  117776.45  3528.61  3.00
473.5  119764.53  3595.11  3.00
474.9  121936.30  3663.36  3.00
476.4  124015.80  3727.85  3.01
477.8  126112.00  3800.53  3.01
479.2  128214.38  3874.39  3.02
480.7  130363.50  3943.14  3.02
482.1  132587.90  4019.60  3.03
483.6  134784.90  4092.53  3.04
485.0  137021.55  4179.20  3.05
486.4  139111.63  4264.73  3.07
487.9  141391.25  4349.42  3.08
489.3  143546.25  4438.63  3.09
490.7  145777.80  4539.54  3.11
492.2  148032.38  4639.99  3.13
493.6  150301.30  4750.09  3.16
495.0  152600.18  4865.99  3.19
496.5  154791.00  4988.52  3.22
497.9  157084.00  5123.71  3.26
499.3  159354.00  5266.94  3.31
500.7  161649.60  5436.30  3.36
502.2  164015.48  5628.33  3.43
503.6  166323.60  5832.30  3.51
505.0  168618.73  6071.80  3.60
506.5  171071.60  6343.54  3.71
507.9  173541.10  6658.61  3.84
509.3  175879.13  7008.22  3.98
510.7  178500.08  7424.74  4.16
512.2  181138.13  7899.61  4.36
513.6  184010.83  8446.36  4.59
515.0  186747.58  9048.43  4.85
516.4  189580.60  9717.87  5.13
517.8  192385.00  10443.76  5.43
519.3  195323.20  11240.08  5.75
520.7  197965.50  12072.66  6.10
522.1  200667.03  12947.48  6.45
523.5  203226.20  13831.48  6.81
524.9  206110.88  14745.67  7.15
526.3  208752.53  15615.03  7.48
527.8  211567.38  16477.64  7.79
529.2  214185.60  17341.44  8.10
530.6  216922.50  18186.02  8.38
532.0  219846.25  18995.02  8.64
533.4  222379.60  19712.12  8.86
534.8  224932.13  20389.85  9.06
536.3  228038.83  21073.26  9.24
537.7  231054.00  21721.53  9.40
539.1  233952.23  22346.69  9.55
540.5  236824.50  22945.76  9.69
541.9  239765.45  23539.24  9.82
543.3  242289.50  24092.49  9.94
544.7  245278.00  24677.71  10.06
546.1  248096.10  25242.27  10.17
547.5  251035.20  25807.68  10.28
549.0  254188.00  26375.63  10.38
550.4  257084.10  26869.83  10.45
551.8  259986.33  27321.82  10.51
553.2  262920.60  27715.84  10.54
554.6  265822.90  28027.61  10.54
556.0  268766.40  28267.82  10.52
557.4  271893.70  28453.59  10.46
558.8  274785.68  28543.23  10.39
560.2  278000.00  28587.43  10.28
561.6  280929.55  28521.80  10.15
563.0  283732.15  28365.83  10.00
564.4  286899.90  28187.61  9.82
565.8  289940.10  27929.25  9.63
567.2  293130.15  27639.13  9.43
568.6  296193.38  27287.79  9.21
570.0  299087.75  26877.84  8.99
571.4  302530.50  26490.41  8.76
572.8  305677.60  26073.35  8.53
574.2  308560.88  25658.62  8.32
575.6  311637.88  25297.96  8.12
577.0  314686.63  24980.02  7.94
578.4  318128.13  24733.33  7.77
579.8  321213.33  24494.00  7.63
581.2  324316.00  24291.49  7.49
582.5  327217.50  24113.14  7.37
583.9  330262.30  23978.55  7.26
585.3  333195.00  23859.18  7.16
586.7  336174.30  23775.84  7.07
588.1  339178.10  23728.72  7.00
589.5  342581.85  23726.74  6.93
590.9  345533.98  23721.98  6.87
592.3  348485.63  23748.04  6.81
593.7  351447.60  23792.17  6.77
595.0  354412.20  23847.94  6.73
596.4  357752.25  23920.75  6.69
597.8  360436.00  23937.27  6.64
599.2  363595.05  23961.79  6.59
600.6  366771.08  23951.35  6.53
602.0  369739.80  23894.73  6.46
603.3  372632.00  23791.24  6.38
604.7  375646.90  23653.45  6.30
606.1  378698.40  23484.08  6.20
607.5  382033.88  23295.55  6.10
608.9  385142.45  23078.95  5.99
610.2  388310.18  22849.81  5.88
611.6  391215.00  22600.81  5.78
613.0  394055.43  22348.46  5.67
614.4  396814.25  22124.05  5.58
615.8  400115.90  21932.45  5.48
617.1  402827.20  21742.93  5.40
618.5  406079.55  21625.20  5.33
619.9  408806.85  21516.97  5.26
621.3  411747.38  21472.27  5.21
622.6  414677.25  21466.16  5.18
624.0  417416.25  21488.00  5.15
625.4  420508.65  21557.19  5.13
626.8  423484.10  21663.15  5.12
628.1  426318.90  21778.30  5.11
629.5  429132.90  21912.46  5.11
630.9  432063.85  22046.94  5.10
632.2  435202.00  22165.89  5.09
633.6  437688.55  22196.58  5.07
635.0  440644.93  22176.79  5.03
636.3  443682.45  22079.38  4.98
637.7  446421.70  21879.61  4.90
639.1  449435.80  21611.31  4.81
640.4  452163.50  21247.69  4.70
641.8  454996.80  20855.49  4.58
643.2  457580.20  20413.46  4.46
644.5  460460.00  20005.33  4.34
645.9  463155.70  19615.55  4.24
647.2  466258.10  19303.24  4.14
648.6  469247.20  19051.17  4.06
650.0  472084.20  18843.70  3.99
651.3  474369.30  18689.29  3.94
652.7  477324.75  18573.20  3.89
654.0  480201.35  18460.43  3.84
655.4  482593.13  18324.74  3.80
656.8  484379.70  18167.04  3.75
658.1  486950.63  18040.05  3.70
659.5  490147.20  17944.05  3.66
660.8  493353.00  17854.68  3.62
662.2  496041.30  17745.60  3.58
663.5  498833.15  17656.88  3.54
664.9  500958.70  17600.75  3.51
666.2  503108.78  17592.80  3.50
667.6  505689.75  17656.16  3.49
668.9  508464.00  17790.99  3.50
670.3  511070.00  17946.25  3.51
671.6  513506.40  18134.28  3.53
673.0  515753.60  18374.14  3.56
674.3  518194.60  18625.93  3.59
675.7  520713.00  18952.01  3.64
677.0  523083.30  19305.27  3.69
678.4  525347.80  19698.15  3.75
679.7  527770.28  20157.81  3.82
681.1  530332.25  20682.01  3.90
682.4  532526.63  21273.06  3.99
683.8  534899.63  21974.47  4.11
685.1  537119.85  22843.76  4.25
686.4  539340.10  23951.48  4.44
687.8  541887.15  25404.22  4.69
689.1  544296.90  27337.76  5.02
690.5  546251.80  29892.16  5.47
691.8  549013.30  33359.88  6.08
693.1  551406.00  37806.06  6.86
694.5  553722.70  43306.28  7.82
695.8  556126.20  49837.14  8.96
697.1  558398.60  57326.91  10.27
698.5  560755.75  65716.70  11.72
699.8  563181.20  74867.43  13.29
701.1  565037.03  84484.04  14.95
702.5  567128.13  94430.27  16.65
703.8  569550.45  104561.79  18.36
705.1  571435.45  114526.67  20.04
706.5  573672.85  124413.73  21.69
707.8  575545.43  133954.44  23.27
709.1  577825.75  143274.07  24.80
710.5  580063.05  152230.65  26.24
711.8  581962.00  160775.77  27.63
713.1  583940.00  168993.28  28.94
714.4  586043.53  176902.41  30.19
715.8  588318.35  184537.40  31.37
717.1  590550.90  191832.57  32.48
718.4  592780.95  198779.80  33.53
719.7  595052.78  205408.52  34.52
721.0  596771.28  211576.27  35.45
722.4  598659.75  217486.75  36.33
723.7  600613.45  223130.52  37.15
725.0  602369.55  228399.45  37.92
726.3  604700.20  233587.32  38.63
727.6  606402.00  238305.21  39.30
729.0  608298.25  242809.61  39.92
730.3  610305.18  247135.29  40.49
731.6  611852.30  251012.38  41.02
732.9  613837.90  254843.79  41.52
734.2  615511.88  258344.51  41.97
735.5  617324.95  261698.84  42.39
736.8  619266.38  264951.46  42.78
738.1  621166.50  267935.04  43.13
739.5  622885.65  270728.01  43.46
740.8  624850.05  273426.66  43.76
742.1  626467.70  275840.87  44.03
743.4  628217.45  278195.53  44.28
744.7  630189.00  280513.33  44.51
746.0  631754.60  282472.53  44.71
747.3  633376.80  284348.37  44.89
748.6  634999.30  286087.12  45.05
749.9  636832.73  287861.03  45.20
751.2  638207.00  289349.63  45.34
752.5  639838.20  290883.74  45.46
753.8  641218.50  292228.66  45.57
755.1  642736.48  293605.96  45.68
756.4  643876.55  294696.84  45.77
757.7  645909.00  296117.69  45.85
759.0  649513.10  298227.43  45.92
760.3  652262.15  299884.52  45.98
761.6  655189.65  301573.48  46.03
762.9  656625.75  302567.31  46.08
764.2  657453.05  303232.52  46.12
765.5  658305.15  303918.83  46.17
766.8  658900.55  304437.13  46.20
768.1  660003.75  305146.26  46.23
769.3  661301.75  305923.00  46.26
770.6  662685.90  306771.79  46.29
771.9  663929.13  307514.67  46.32
773.2  665455.05  308370.33  46.34
774.5  666476.40  308956.97  46.36
775.8  667507.75  309639.98  46.39
777.1  668789.20  310351.77  46.41
778.4  670063.50  311108.04  46.43
779.6  671453.40  311871.07  46.45
780.9  672166.35  312359.95  46.47
782.2  673210.58  312967.46  46.49
783.5  674159.25  313546.37  46.51
784.8  674992.50  314066.15  46.53
786.0  675851.88  314600.73  46.55
787.3  676759.78  315128.71  46.56
788.6  677704.38  315711.36  46.59
789.9  678451.20  316185.09  46.60
791.2  679874.80  316953.83  46.62
792.4  681082.88  317615.26  46.63
793.7  682704.98  318476.46  46.65
795.0  683736.75  319113.17  46.67
796.2  685198.60  319865.51  46.68
797.5  686495.63  320571.59  46.70
798.8  687932.00  321356.20  46.71
800.0  689150.00  322009.33  46.73
801.3  690464.25  322693.20  46.74
802.6  691560.00  323304.69  46.75
803.8  692605.73  323970.08  46.78
805.1  693760.13  324574.38  46.78
806.4  694750.13  325146.69  46.80
807.7  695894.60  325777.19  46.81
808.9  697142.75  326416.29  46.82
810.2  698056.80  326958.64  46.84
811.4  699192.40  327585.86  46.85
812.7  700524.05  328338.64  46.87
814.0  701939.70  329033.32  46.87
815.2  703250.55  329765.98  46.89
816.5  704401.25  330391.00  46.90
817.7  705341.00  330889.07  46.91
819.0  706087.20  331319.47  46.92
820.2  706853.85  331804.68  46.94
821.5  708107.00  332432.54  46.95
822.7  709126.08  332997.98  46.96
824.0  710060.65  333517.13  46.97
825.2  710837.40  333942.92  46.98
826.5  711646.40  334396.89  46.99
827.7  712623.98  334951.59  47.00
829.0  713586.08  335461.60  47.01
830.2  714526.40  335991.04  47.02
831.5  715427.33  336467.16  47.03
832.7  716499.00  336956.18  47.03
834.0  717042.38  337315.45  47.04
835.2  718222.80  337872.80  47.04
836.4  719042.00  338293.14  47.05
837.7  719910.00  338740.82  47.05
838.9  721001.40  339368.79  47.07
840.1  721891.50  339839.12  47.08
841.4  722875.10  340348.14  47.08
842.6  723850.40  340841.69  47.09
843.8  724629.10  341328.22  47.10
845.1  725509.95  341776.76  47.11
846.3  726493.95  342286.04  47.11
847.5  727392.25  342753.73  47.12
848.8  728394.40  343269.69  47.13
850.0  729429.60  343873.95  47.14
851.2  730414.45  344361.52  47.15
852.5  731714.70  344978.45  47.15
853.7  732422.93  345334.82  47.15
854.9  733599.75  345908.94  47.15
856.1  734674.85  346446.92  47.16
857.4  735413.18  346912.66  47.17
858.6  736443.40  347433.31  47.18
859.8  737712.90  347996.66  47.17
861.0  738797.15  348521.01  47.17
862.2  739800.60  349070.00  47.18
863.5  740707.80  349507.78  47.19
864.7  741606.25  349966.90  47.19
865.9  742720.88  350489.43  47.19
867.1  743481.25  350827.02  47.19
868.3  744739.83  351462.45  47.19
869.5  746151.20  352008.34  47.18
870.8  747179.55  352564.58  47.19
872.0  748135.28  353063.85  47.19
873.2  749062.38  353509.34  47.19
874.4  750031.05  353898.42  47.18
875.6  751094.08  354460.16  47.19
876.8  752715.15  355140.28  47.18
878.0  753694.55  355651.91  47.19
879.2  754794.05  356182.23  47.19
880.4  755964.00  356681.83  47.18
881.6  756893.20  357156.88  47.19
882.8  758252.95  357759.29  47.18
884.0  759392.73  358203.28  47.17
885.2  760775.50  358865.38  47.17
886.5  762097.70  359442.80  47.16
887.7  763294.05  359932.35  47.16
888.8  764811.75  360608.55  47.15
890.0  765686.25  361053.00  47.15
891.2  766688.33  361560.27  47.16
892.4  768169.05  362225.00  47.15
893.6  770159.33  363039.50  47.14
894.8  771871.28  363797.90  47.13
896.0  773313.73  364495.44  47.13
897.2  775036.35  365307.45  47.13
898.4  777115.50  366295.28  47.14
899.6  778564.70  366855.37  47.12
900.8  779334.40  367128.57  47.11
902.0  780189.10  367399.65  47.09
903.2  780337.10  367522.30  47.10
904.3  781413.75  368044.39  47.10
905.5  782520.75  368619.43  47.11
906.7  784095.85  369203.51  47.09
907.9  785205.03  369670.78  47.08
909.1  786354.80  370142.23  47.07
910.2  786948.75  370350.00  47.06
911.4  787124.93  370420.57  47.06
912.6  787640.00  370710.90  47.07
913.8  788836.30  371113.70  47.05
915.0  789351.00  371320.97  47.04
916.2  789534.98  371478.13  47.05
917.3  790302.33  371792.52  47.04
918.5  790767.90  371941.41  47.04
919.7  791140.25  372038.99  47.03
920.8  791477.95  372069.81  47.01
922.0  791521.50  372017.67  47.00
923.2  792138.60  372267.73  47.00
924.4  792807.25  372595.43  47.00
925.5  793817.40  372898.69  46.98
926.7  794527.93  373217.06  46.97
927.9  796401.63  373798.75  46.94
929.0  799318.80  375218.49  46.94
930.2  803935.60  377171.28  46.92
931.4  809358.00  379463.94  46.88
932.5  813982.95  381489.03  46.87
933.7  816698.10  382685.04  46.86
934.9  818116.25  383258.33  46.85
936.0  817076.48  382768.65  46.85
937.2  814434.08  381152.05  46.80
938.3  810764.50  379204.80  46.77
939.5  808551.90  378064.22  46.76
940.7  808372.95  377883.92  46.75
941.8  811608.20  379118.89  46.71
943.0  813909.68  379889.48  46.67
944.2  815814.00  380549.37  46.65
945.3  815594.40  380066.00  46.60
946.5  813828.75  379102.33  46.58
947.6  814492.00  379294.31  46.57
948.8  813555.83  378610.73  46.54
949.9  814227.40  378524.47  46.49
951.1  815216.60  378217.23  46.39
952.2  814632.70  377570.59  46.35
953.4  814355.25  377092.80  46.31
954.5  812707.88  375967.20  46.26
955.7  811986.65  375394.15  46.23
956.8  812603.20  375211.86  46.17
958.0  811771.20  374409.97  46.12
959.1  811944.00  373800.96  46.04
960.3  811687.50  373356.43  46.00
961.4  812356.00  373377.89  45.96
962.6  811879.20  372973.30  45.94
963.7  812464.80  372946.85  45.90
964.9  812756.45  372991.73  45.89
966.0  813351.35  373093.14  45.87
967.2  813968.40  373166.64  45.85
968.3  815784.75  373725.42  45.81
969.5  815796.00  373949.66  45.84
970.6  815977.90  373932.73  45.83
971.8  816045.13  373904.39  45.82
972.9  817215.00  374175.27  45.79
974.0  818306.43  374397.95  45.75
975.2  817796.25  373915.61  45.72
976.3  818524.90  374155.07  45.71
977.5  817680.38  373767.50  45.71
978.6  817651.65  373938.43  45.73
979.7  818417.60  373788.80  45.67
980.9  818590.78  374090.70  45.70
982.0  818822.05  374039.81  45.68
983.2  818637.40  374095.55  45.70
984.3  816486.30  373356.25  45.73
985.4  816629.80  372800.97  45.65
986.6  818170.35  373067.57  45.60
987.7  818618.25  372963.94  45.56
988.9  818371.68  373631.49  45.66
990.0  818246.45  373604.58  45.66
993.1  836280.60  380531.66  45.50
996.9  837843.50  381971.44  45.59
1000.7  838579.50  382967.44  45.67
1004.5  838054.00  383441.43  45.75
1008.4  839304.08  384646.39  45.83
1012.2  840933.38  385939.58  45.89
1016.0  841533.75  386627.46  45.94
1019.8  841257.31  386913.72  45.99
1023.7  841278.70  387226.81  46.03
1027.5  840285.53  387189.60  46.08
1031.3  839854.37  387323.18  46.12
1035.1  839523.75  387515.92  46.16
1038.9  839350.98  387755.98  46.20
1042.7  838865.60  387904.21  46.24
1046.5  838165.13  387776.00  46.26
1050.3  836620.18  387208.44  46.28
1054.2  834691.28  386499.07  46.30
1058.0  833659.20  386088.69  46.31
1061.8  832461.00  385652.23  46.33
1065.6  830816.83  384888.34  46.33
1069.4  829337.07  384216.08  46.33
1073.2  828282.00  383598.20  46.31
1077.0  827141.33  382854.06  46.29
1080.8  826074.33  382105.17  46.26
1084.6  824649.83  381233.02  46.23
1088.4  823098.70  380405.75  46.22
1092.2  821419.20  379443.67  46.19
1096.0  820140.30  378579.67  46.16
1099.8  818726.50  377632.55  46.12
1103.6  817056.38  376532.07  46.08
1107.4  815740.70  375496.72  46.03
1111.2  814287.38  374403.77  45.98
1114.9  813030.00  373313.79  45.92
1118.7  812164.00  372206.93  45.83
1122.5  811836.78  371178.83  45.72
1126.3  809231.85  368949.60  45.59
1130.1  808570.28  367183.22  45.41
1133.9  805198.09  363706.23  45.17
1137.7  802668.60  360143.54  44.87
1141.4  799243.63  355724.50  44.51
1145.2  798509.71  352152.91  44.10
1149.0  796616.10  348280.76  43.72
1152.8  793434.05  344257.36  43.39
1156.6  790033.07  340829.30  43.14
1160.3  786829.65  338211.47  42.98
1164.1  782124.33  335439.12  42.89
1167.9  778922.54  333715.36  42.84
1171.7  776395.27  332495.95  42.83
1175.4  774311.09  331536.06  42.82
1179.2  772657.50  330682.50  42.80
1183.0  772944.63  330569.30  42.77
1186.7  772585.33  330218.67  42.74
1190.5  770543.75  329234.39  42.73
1194.3  767520.60  327837.35  42.71
1198.0  764803.33  326608.25  42.70
1201.8  762454.00  325724.67  42.72
1205.6  760706.00  325339.84  42.77
1209.3  759126.75  325268.25  42.85
1213.1  757256.54  325117.89  42.93
1216.8  754905.20  324864.23  43.03
1220.6  752564.83  324541.62  43.12
1224.3  750154.17  324159.52  43.21
1228.1  748176.94  323941.21  43.30
1231.9  746055.05  323551.61  43.37
1235.6  743818.90  322998.34  43.42
1239.4  741649.08  322494.65  43.48
1243.1  739573.20  321890.92  43.52
1246.9  737628.47  321267.20  43.55
1250.6  735643.25  320534.70  43.57
1254.3  733828.80  319848.68  43.59
1258.1  732000.00  319064.86  43.59
1261.8  729748.60  318054.73  43.58
1265.6  727312.24  316871.66  43.57
1269.3  724475.40  315453.80  43.54
1273.1  724604.32  315272.37  43.51
1276.8  725247.40  315209.74  43.46
1280.6  725444.67  314894.15  43.41
1284.3  723416.22  313498.69  43.34
1288.0  721345.19  311994.37  43.25
1291.8  719182.80  310273.20  43.14
1295.5  716838.35  308525.61  43.04
1299.2  714361.05  306578.17  42.92
1302.9  711639.04  304301.92  42.76
1306.7  708669.68  301774.95  42.58
1310.4  705818.62  298979.50  42.36
1314.1  703522.50  296257.50  42.11
1317.9  701178.51  293218.90  41.82
1321.6  698576.67  289792.21  41.48
1325.3  695787.98  286041.57  41.11
1329.0  693118.07  282184.47  40.71
1332.8  689221.25  277581.79  40.27
1336.5  685545.63  273016.22  39.82
