/*** Spectra Vista SIG Data ***/
name= 23_20220926_CECA_04_avg.sig
comm= Averaged Ref/Tar of files: HR.092622.0065_moc.sig,HR.092622.0066_moc.sig,HR.092622.0067_moc.sig
data=
337.3  3126.38  261.83  8.37
338.8  3222.70  236.38  7.33
340.3  3373.20  230.23  6.83
341.8  3520.83  227.32  6.46
343.2  3685.20  244.41  6.63
344.7  3838.50  240.46  6.26
346.2  4085.00  224.87  5.50
347.7  4247.10  221.72  5.22
349.2  4422.60  213.12  4.82
350.6  4664.08  214.05  4.59
352.1  4930.05  216.39  4.39
353.6  5170.30  227.37  4.40
355.1  5455.35  228.35  4.19
356.6  5735.63  219.12  3.82
358.0  6029.10  217.53  3.61
359.5  6303.60  220.71  3.50
361.0  6583.50  234.27  3.56
362.5  6967.45  235.87  3.39
364.0  7312.13  240.32  3.29
365.4  7671.30  249.42  3.25
366.9  8038.88  246.26  3.06
368.4  8373.43  259.24  3.10
369.9  8729.08  269.22  3.08
371.3  9158.10  286.83  3.13
372.8  9611.10  298.37  3.10
374.3  10051.25  292.30  2.91
375.8  10456.60  302.87  2.90
377.2  10867.60  308.45  2.84
378.7  11271.10  312.04  2.77
380.2  11674.60  312.04  2.67
381.7  12215.30  318.64  2.61
383.1  12666.50  323.91  2.56
384.6  13190.78  335.00  2.54
386.1  13674.65  339.23  2.48
387.6  14121.80  344.45  2.44
389.0  14606.00  352.23  2.41
390.5  15106.95  357.54  2.37
392.0  15684.85  352.67  2.25
393.4  16237.95  368.35  2.27
394.9  16808.40  382.30  2.27
396.4  17362.13  388.37  2.24
397.9  17911.88  393.89  2.20
399.3  18461.93  395.07  2.14
400.8  19017.78  406.87  2.14
402.2  19689.10  417.58  2.12
403.7  20295.23  423.72  2.09
405.2  20928.70  439.23  2.10
406.6  21506.40  441.02  2.05
408.1  22080.20  451.14  2.04
409.6  22674.35  459.07  2.02
411.0  23378.25  468.89  2.01
412.5  24052.88  479.97  2.00
414.0  24714.88  489.00  1.98
415.4  25420.13  503.12  1.98
416.9  26098.35  510.70  1.96
418.4  26798.63  530.37  1.98
419.8  27536.60  544.96  1.98
421.3  28270.45  562.25  1.99
422.7  29040.60  585.97  2.02
424.2  29818.13  608.14  2.04
425.7  30595.10  633.99  2.07
427.1  31380.98  662.24  2.11
428.6  32178.00  695.88  2.16
430.0  32944.93  724.06  2.20
431.5  33805.13  759.04  2.25
432.9  34676.55  793.05  2.29
434.4  35583.30  829.49  2.33
435.9  36428.00  871.20  2.39
437.3  37303.75  906.45  2.43
438.8  38172.90  946.89  2.48
440.2  39050.55  988.42  2.53
441.7  40012.40  1029.89  2.57
443.1  40929.25  1072.11  2.62
444.6  41893.80  1117.12  2.67
446.0  42843.45  1165.03  2.72
447.5  43815.75  1211.75  2.77
448.9  44788.80  1258.79  2.81
450.4  45804.15  1310.79  2.86
451.8  46696.00  1358.44  2.91
453.3  47619.15  1405.62  2.95
454.7  48642.10  1452.26  2.99
456.2  49514.40  1489.01  3.01
457.6  50484.83  1531.56  3.03
459.1  51501.13  1575.65  3.06
460.5  52443.38  1613.92  3.08
462.0  53531.95  1654.17  3.09
463.4  54580.80  1695.41  3.11
464.8  55569.38  1736.62  3.13
466.3  56548.80  1772.76  3.13
467.7  57538.60  1812.32  3.15
469.2  58608.30  1849.59  3.16
470.6  59614.15  1888.59  3.17
472.0  60677.33  1929.75  3.18
473.5  61698.00  1969.97  3.19
474.9  62757.00  2014.54  3.21
476.4  63907.20  2058.79  3.22
477.8  64989.00  2105.40  3.24
479.2  66004.00  2147.66  3.25
480.7  67106.10  2192.76  3.27
482.1  68276.25  2241.54  3.28
483.6  69490.05  2296.04  3.30
485.0  70580.10  2349.36  3.33
486.4  71789.70  2416.41  3.37
487.9  72891.00  2480.12  3.40
489.3  74052.03  2559.35  3.46
490.7  75126.95  2635.63  3.51
492.2  76351.80  2722.16  3.57
493.6  77469.20  2818.10  3.64
495.0  78594.75  2925.00  3.72
496.5  79773.30  3050.44  3.82
497.9  80917.95  3186.57  3.94
499.3  82091.95  3332.76  4.06
500.7  83358.50  3506.23  4.21
502.2  84534.00  3698.67  4.38
503.6  85804.20  3921.70  4.57
505.0  86903.80  4167.58  4.80
506.5  88221.53  4456.98  5.05
507.9  89409.58  4780.71  5.35
509.3  90768.40  5149.55  5.67
510.7  92005.88  5554.16  6.04
512.2  93407.18  6005.88  6.43
513.6  94910.90  6511.89  6.86
515.0  96374.38  7065.63  7.33
516.4  97764.98  7669.08  7.84
517.8  99397.63  8332.40  8.38
519.3  100734.78  9012.02  8.95
520.7  102326.15  9741.60  9.52
522.1  103638.60  10477.52  10.11
523.5  105014.50  11232.26  10.70
524.9  106480.35  12004.17  11.27
526.3  107955.05  12761.66  11.82
527.8  109459.35  13514.63  12.35
529.2  110453.70  14208.36  12.86
530.6  111987.50  14952.86  13.35
532.0  113722.00  15688.27  13.80
533.4  115061.70  16329.82  14.19
534.8  115970.03  16869.81  14.55
536.3  117648.00  17493.63  14.87
537.7  119662.20  18143.04  15.16
539.1  121142.43  18682.35  15.42
540.5  122355.70  19160.42  15.66
541.9  124108.50  19714.94  15.89
543.3  125391.98  20184.37  16.10
544.7  126722.40  20655.93  16.30
546.1  128523.73  21198.07  16.49
547.5  129763.20  21630.51  16.67
549.0  131450.00  22110.21  16.82
550.4  132961.25  22537.14  16.95
551.8  134541.08  22929.87  17.04
553.2  136070.25  23269.46  17.10
554.6  137425.60  23519.25  17.11
556.0  138979.80  23740.53  17.08
557.4  140595.53  23912.90  17.01
558.8  142250.40  24043.35  16.90
560.2  143724.88  24092.92  16.76
561.6  145407.90  24128.02  16.59
563.0  147006.15  24103.67  16.40
564.4  148617.85  24047.97  16.18
565.8  150131.25  23934.38  15.94
567.2  151897.50  23808.28  15.67
568.6  153402.75  23589.84  15.38
570.0  154846.28  23300.24  15.05
571.4  156578.50  23017.68  14.70
572.8  158353.25  22728.90  14.35
574.2  160003.20  22419.84  14.01
575.6  161561.25  22122.64  13.69
577.0  163104.20  21843.44  13.39
578.4  164835.13  21618.13  13.12
579.8  166376.03  21392.68  12.86
581.2  168115.30  21223.70  12.62
582.5  169533.00  21036.60  12.41
583.9  171064.60  20888.92  12.21
585.3  172876.73  20797.65  12.03
586.7  174374.53  20688.73  11.86
588.1  175885.25  20602.11  11.71
589.5  177551.50  20557.60  11.58
590.9  179192.40  20537.47  11.46
592.3  181008.65  20562.16  11.36
593.7  182481.98  20578.41  11.28
595.0  184115.70  20619.67  11.20
596.4  185573.50  20652.91  11.13
597.8  187064.03  20689.38  11.06
599.2  188628.00  20720.98  10.99
600.6  190387.60  20751.72  10.90
602.0  191709.00  20704.67  10.80
603.3  193494.00  20677.82  10.69
604.7  195196.95  20588.30  10.55
606.1  196691.40  20441.35  10.39
607.5  198347.70  20265.52  10.22
608.9  200072.00  20061.26  10.03
610.2  201455.10  19803.15  9.83
611.6  203056.88  19542.03  9.62
613.0  204626.45  19274.65  9.42
614.4  206028.00  18994.26  9.22
615.8  207514.13  18734.76  9.03
617.1  209063.40  18507.16  8.85
618.5  210707.60  18320.71  8.69
619.9  212233.50  18155.05  8.55
621.3  213884.10  18044.34  8.44
622.6  215497.75  17972.34  8.34
624.0  216979.80  17925.83  8.26
625.4  218478.15  17927.42  8.21
626.8  220067.58  17965.83  8.16
628.1  221373.90  18002.64  8.13
629.5  223186.65  18093.14  8.11
630.9  224734.68  18163.01  8.08
632.2  226056.08  18190.41  8.05
633.6  227591.25  18198.49  8.00
635.0  229086.80  18136.66  7.92
636.3  230609.00  17997.27  7.80
637.7  232008.38  17759.90  7.65
639.1  233695.00  17461.67  7.47
640.4  235201.23  17080.45  7.26
641.8  236412.98  16632.93  7.04
643.2  238002.10  16172.37  6.80
644.5  239367.00  15678.31  6.55
645.9  241012.35  15202.80  6.31
647.2  242462.33  14762.96  6.09
648.6  244174.50  14387.53  5.89
650.0  245592.00  14057.69  5.72
651.3  246190.45  13736.74  5.58
652.7  247925.80  13497.20  5.44
654.0  250022.20  13287.23  5.31
655.4  251481.55  13026.00  5.18
656.8  251606.80  12673.95  5.04
658.1  252968.80  12333.67  4.88
659.5  255436.13  12004.31  4.70
660.8  257085.00  11617.29  4.52
662.2  258137.60  11179.52  4.33
663.5  259730.90  10786.84  4.15
664.9  260846.30  10411.84  3.99
666.2  261627.00  10070.77  3.85
667.6  263368.03  9823.43  3.73
668.9  264420.98  9630.40  3.64
670.3  265971.63  9495.95  3.57
671.6  267270.00  9414.29  3.52
673.0  268442.63  9387.32  3.50
674.3  269730.50  9401.13  3.49
675.7  271081.00  9460.29  3.49
677.0  272184.95  9552.56  3.51
678.4  273528.48  9703.59  3.55
679.7  274629.73  9903.70  3.61
681.1  275959.58  10187.30  3.69
682.4  277067.70  10552.86  3.81
683.8  278327.40  11065.15  3.98
685.1  279350.25  11740.16  4.20
686.4  280608.00  12673.45  4.52
687.8  281885.25  13928.50  4.94
689.1  282975.50  15572.46  5.50
690.5  284292.00  17717.38  6.23
691.8  285185.28  20398.74  7.15
693.1  286499.85  23734.61  8.28
694.5  287673.75  27641.47  9.61
695.8  288902.25  32060.60  11.10
697.1  290085.25  36884.90  12.72
698.5  291150.20  42034.35  14.44
699.8  292280.75  47428.33  16.23
701.1  293414.50  52968.80  18.05
702.5  294254.95  58477.09  19.87
703.8  295200.00  63962.57  21.67
705.1  296368.80  69350.91  23.40
706.5  297430.88  74559.04  25.07
707.8  298417.20  79561.32  26.66
709.1  299288.95  84337.05  28.18
710.5  300427.53  88996.81  29.62
711.8  301273.00  93372.86  30.99
713.1  302298.80  97613.26  32.29
714.4  303213.10  101645.10  33.52
715.8  304082.80  105472.63  34.69
717.1  305412.75  109298.74  35.79
718.4  306364.80  112808.53  36.82
719.7  307480.48  116209.45  37.79
721.0  308025.00  119217.86  38.70
722.4  308822.25  122153.14  39.55
723.7  309806.70  124994.78  40.35
725.0  310878.00  127721.43  41.08
726.3  311835.15  130245.54  41.77
727.6  312405.78  132450.21  42.40
729.0  313315.98  134656.21  42.98
730.3  314153.10  136673.33  43.51
731.6  315094.65  138602.80  43.99
732.9  315911.58  140352.68  44.43
734.2  316707.88  142010.47  44.84
735.5  317775.70  143650.82  45.21
736.8  318575.40  145078.31  45.54
738.1  319471.30  146448.27  45.84
739.5  320487.98  147781.08  46.11
740.8  321185.43  148903.57  46.36
742.1  321901.58  149962.37  46.59
743.4  322575.00  150936.67  46.79
744.7  323498.75  151976.44  46.98
746.0  324429.30  152925.20  47.14
747.3  325035.35  153689.19  47.28
748.6  325789.00  154466.65  47.41
749.9  326508.00  155181.37  47.53
751.2  327136.50  155821.13  47.63
752.5  327947.15  156516.96  47.73
753.8  328466.78  157063.38  47.82
755.1  329186.00  157647.66  47.89
756.4  329804.58  158151.14  47.95
757.7  330839.60  158827.05  48.01
759.0  332690.35  159876.09  48.06
760.3  333907.20  160590.95  48.09
761.6  335479.20  161474.67  48.13
762.9  336033.50  161837.50  48.16
764.2  336411.40  162101.45  48.19
765.5  336704.48  162318.84  48.21
766.8  337144.00  162599.01  48.23
768.1  337677.60  162913.62  48.25
769.3  338270.10  163248.23  48.26
770.6  338921.70  163601.20  48.27
771.9  339649.63  163984.40  48.28
773.2  340061.60  164203.93  48.29
774.5  340683.20  164517.55  48.29
775.8  341353.20  164882.42  48.30
777.1  341929.50  165183.89  48.31
778.4  342242.18  165356.17  48.32
779.6  343026.50  165748.30  48.32
780.9  343470.00  165977.71  48.32
782.2  343972.75  166217.70  48.32
783.5  344253.50  166387.09  48.33
784.8  344808.45  166650.52  48.33
786.0  345173.15  166848.30  48.34
787.3  345532.55  167037.53  48.34
788.6  345969.58  167250.98  48.34
789.9  346439.80  167484.77  48.34
791.2  347086.63  167802.82  48.35
792.4  347754.35  168144.86  48.35
793.7  348228.40  168381.81  48.35
795.0  348871.05  168683.02  48.35
796.2  349505.70  169003.05  48.35
797.5  350201.63  169336.96  48.35
798.8  350876.23  169657.69  48.35
800.0  351541.45  169975.41  48.35
801.3  352011.10  170205.66  48.35
802.6  352593.45  170491.95  48.35
803.8  353199.68  170798.24  48.36
805.1  353675.00  171028.20  48.36
806.4  354139.50  171243.17  48.35
807.7  354662.55  171497.37  48.36
808.9  355224.00  171768.76  48.36
810.2  355712.70  172024.42  48.36
811.4  356248.40  172252.03  48.35
812.7  356850.00  172545.60  48.35
814.0  357675.80  172935.81  48.35
815.2  358298.50  173245.80  48.35
816.5  358703.38  173449.90  48.35
817.7  359168.70  173682.88  48.36
819.0  359679.10  173910.07  48.35
820.2  359832.00  173978.51  48.35
821.5  360548.75  174309.35  48.35
822.7  360887.03  174474.33  48.35
824.0  361233.00  174626.33  48.34
825.2  361701.45  174860.29  48.34
826.5  362031.95  174996.74  48.34
827.7  362540.73  175255.57  48.34
829.0  362952.53  175419.28  48.33
830.2  363259.70  175560.69  48.33
831.5  363737.95  175772.41  48.32
832.7  364062.83  175913.38  48.32
834.0  364402.63  176057.12  48.31
835.2  364733.60  176214.87  48.31
836.4  365074.05  176355.79  48.31
837.7  365470.60  176552.63  48.31
838.9  365863.23  176763.47  48.31
840.1  366235.43  176936.55  48.31
841.4  366663.60  177133.49  48.31
842.6  367087.80  177322.69  48.31
843.8  367363.40  177485.45  48.31
845.1  367851.30  177743.64  48.32
846.3  368292.80  177940.65  48.31
847.5  368688.60  178121.48  48.31
848.8  369069.60  178331.26  48.32
850.0  369447.05  178494.03  48.31
851.2  369976.95  178753.76  48.31
852.5  370303.70  178949.96  48.33
853.7  370815.75  179193.90  48.32
854.9  371283.70  179402.95  48.32
856.1  371706.40  179596.88  48.32
857.4  371884.48  179689.74  48.32
858.6  372426.25  179912.69  48.31
859.8  372751.88  180109.39  48.32
861.0  373253.40  180339.12  48.32
862.2  373712.35  180544.04  48.31
863.5  374064.60  180685.71  48.30
864.7  374543.40  180931.65  48.31
865.9  374927.20  181123.24  48.31
867.1  375273.15  181248.02  48.30
868.3  375672.15  181464.91  48.30
869.5  376131.80  181670.95  48.30
870.8  376686.00  181934.49  48.30
872.0  377191.35  182152.66  48.29
873.2  377620.80  182358.93  48.29
874.4  378132.30  182552.59  48.28
875.6  378532.38  182715.14  48.27
876.8  379055.00  182955.68  48.27
878.0  379427.55  183152.61  48.27
879.2  379942.05  183366.50  48.26
880.4  380410.13  183594.31  48.26
881.6  380925.80  183772.61  48.24
882.8  381348.00  183951.95  48.24
884.0  381968.90  184228.30  48.23
885.2  382459.70  184440.62  48.22
886.5  383032.35  184682.76  48.22
887.7  383416.48  184882.20  48.22
888.8  384085.20  185157.86  48.21
890.0  384684.45  185384.26  48.19
891.2  385294.40  185620.59  48.18
892.4  385896.53  185881.57  48.17
893.6  386459.85  186129.85  48.16
894.8  387285.50  186514.45  48.16
896.0  388166.75  186890.59  48.15
897.2  388895.00  187245.31  48.15
898.4  389660.70  187553.90  48.13
899.6  390258.38  187786.21  48.12
900.8  390705.05  187923.58  48.10
902.0  390902.25  187981.43  48.09
903.2  391232.63  188099.66  48.08
904.3  391515.60  188172.43  48.06
905.5  391994.93  188412.20  48.06
906.7  392596.50  188656.46  48.05
907.9  393122.10  188854.77  48.04
909.1  393531.75  188981.99  48.02
910.2  393644.70  189008.56  48.02
911.4  393833.70  189095.46  48.01
912.6  394065.10  189115.59  47.99
913.8  394196.78  189132.77  47.98
915.0  394592.10  189264.74  47.96
916.2  394699.50  189311.39  47.96
917.3  394803.68  189247.35  47.93
918.5  394983.60  189291.78  47.92
919.7  395176.20  189331.77  47.91
920.8  395217.28  189283.17  47.89
922.0  395356.50  189268.57  47.87
923.2  395577.00  189269.60  47.85
924.4  395752.50  189315.45  47.84
925.5  395926.60  189378.28  47.83
926.7  396656.75  189524.18  47.78
927.9  397360.80  189836.39  47.77
929.0  398776.50  190426.11  47.75
930.2  400917.10  191344.62  47.73
931.4  403441.43  192395.15  47.69
932.5  406090.70  193558.42  47.66
933.7  407553.35  194079.09  47.62
934.9  408086.88  194277.75  47.61
936.0  407522.38  193895.71  47.58
937.2  405517.95  192788.64  47.54
938.3  403834.40  191821.34  47.50
939.5  402188.40  190918.83  47.47
940.7  402417.90  190848.29  47.43
941.8  404003.78  191380.32  47.37
943.0  405284.25  191893.10  47.35
944.2  406213.60  192113.01  47.29
945.3  405697.50  191679.06  47.25
946.5  404948.70  191142.08  47.20
947.6  405046.80  190936.10  47.14
948.8  404930.18  190639.73  47.08
949.9  404867.40  190410.16  47.03
951.1  404659.45  189960.20  46.94
952.2  404532.00  189533.49  46.85
953.4  404137.50  189027.79  46.77
954.5  404141.40  188645.45  46.68
955.7  403981.20  188247.12  46.60
956.8  403550.80  187863.00  46.55
958.0  403130.00  187380.56  46.48
959.1  403144.85  187024.99  46.39
960.3  402686.23  186590.76  46.34
961.4  402487.80  186281.84  46.28
962.6  402540.25  186096.23  46.23
963.7  402333.00  185839.53  46.19
964.9  402142.05  185624.62  46.16
966.0  401964.53  185376.64  46.12
967.2  402036.30  185337.70  46.10
968.3  401869.35  185169.24  46.08
969.5  401749.28  184924.22  46.03
970.6  401616.48  184899.49  46.04
971.8  401828.35  184902.07  46.02
972.9  401833.58  184855.04  46.00
974.0  402160.60  184875.31  45.97
975.2  402186.38  184668.83  45.92
976.3  401906.53  184520.87  45.91
977.5  401621.85  184607.03  45.97
978.6  402100.50  184594.71  45.91
979.7  401789.85  184638.07  45.95
980.9  401323.25  184484.15  45.97
982.0  401238.20  184337.37  45.94
983.2  401587.05  184127.64  45.85
984.3  401324.40  183939.06  45.83
985.4  400952.48  183887.67  45.86
986.6  400409.50  184038.64  45.96
987.7  401118.38  184337.42  45.96
988.9  400541.40  183971.31  45.93
990.0  401690.40  184267.50  45.87
993.1  375201.87  170648.50  45.48
996.9  374701.63  170955.45  45.62
1000.7  375260.14  171644.78  45.74
1004.5  375500.92  172215.30  45.86
1008.4  375139.17  172509.09  45.99
1012.2  375110.67  172877.15  46.09
1016.0  374884.20  173160.17  46.19
1019.8  374658.90  173377.05  46.28
1023.7  374104.83  173404.26  46.35
1027.5  373114.90  173229.36  46.43
1031.3  372735.18  173267.70  46.49
1035.1  372160.19  173200.98  46.54
1038.9  371911.28  173262.62  46.59
1042.7  371689.50  173318.02  46.63
1046.5  371557.17  173369.14  46.66
1050.3  371577.78  173453.37  46.68
1054.2  371247.33  173393.92  46.71
1058.0  370808.73  173206.45  46.71
1061.8  370726.99  173227.58  46.73
1065.6  370311.00  173009.16  46.72
1069.4  369934.53  172820.63  46.72
1073.2  369097.96  172365.76  46.70
1077.0  368436.78  171983.20  46.68
1080.8  368239.58  171743.00  46.64
1084.6  367706.62  171367.35  46.60
1088.4  367518.04  171172.49  46.58
1092.2  366912.00  170715.54  46.53
1096.0  366288.55  170250.34  46.48
1099.8  365719.25  169768.83  46.42
1103.6  364945.10  169176.64  46.36
1107.4  363967.27  168437.57  46.28
1111.2  363673.30  168036.11  46.21
1114.9  363051.50  167402.25  46.11
1118.7  362609.78  166753.12  45.99
1122.5  362082.07  165974.59  45.84
1126.3  361087.13  164870.37  45.66
1130.1  360668.52  163801.77  45.42
1133.9  359051.70  161893.50  45.09
1137.7  357589.80  159784.24  44.68
1141.4  355680.33  157215.92  44.20
1145.2  354876.12  154932.10  43.66
1149.0  353653.13  152564.38  43.14
1152.8  351973.35  150203.92  42.67
1156.6  350242.20  148219.32  42.32
1160.3  348526.33  146632.67  42.07
1164.1  346148.93  145119.59  41.92
1167.9  344448.96  144109.38  41.84
1171.7  343176.75  143400.38  41.79
1175.4  341892.33  142722.39  41.74
1179.2  340646.35  142059.24  41.70
1183.0  340279.33  141719.38  41.65
1186.7  339972.73  141410.10  41.59
1190.5  339274.53  140949.47  41.54
1194.3  338290.57  140384.88  41.50
1198.0  336988.30  139760.74  41.47
1201.8  335352.20  139098.31  41.48
1205.6  334173.67  138728.29  41.51
1209.3  333398.38  138638.95  41.58
1213.1  332711.25  138611.63  41.66
1216.8  331983.21  138643.96  41.76
1220.6  330915.20  138538.40  41.87
1224.3  329708.08  138359.82  41.96
1228.1  328364.40  138125.23  42.06
1231.9  326982.68  137806.23  42.14
1235.6  325371.30  137349.89  42.21
1239.4  323907.38  136976.23  42.29
1243.1  322608.23  136592.28  42.34
1246.9  321355.79  136190.61  42.38
1250.6  320343.13  135850.12  42.41
1254.3  319210.74  135432.24  42.43
1258.1  318121.77  134976.38  42.43
1261.8  316758.00  134396.02  42.43
1265.6  315434.45  133789.43  42.41
1269.3  314297.25  133219.09  42.39
1273.1  314478.79  133156.12  42.34
1276.8  314568.40  133011.03  42.28
1280.6  313929.03  132516.22  42.21
1284.3  312223.20  131523.32  42.12
1288.0  310816.78  130608.52  42.02
1291.8  309939.73  129824.28  41.89
1295.5  308904.93  128926.08  41.74
1299.2  307746.71  127898.45  41.56
1302.9  306219.89  126621.49  41.35
1306.7  304592.17  125199.55  41.10
1310.4  302989.47  123643.07  40.81
1314.1  301548.68  122048.54  40.47
1317.9  300258.13  120367.44  40.09
1321.6  298789.70  118484.15  39.65
1325.3  297131.10  116388.60  39.17
1329.0  295839.48  114345.53  38.65
1332.8  293847.40  111914.00  38.09
1336.5  292127.67  109564.50  37.51
1340.2  291867.33  107774.33  36.93
1343.9  291650.21  105995.57  36.34
