/*** Spectra Vista SIG Data ***/
name= 1_20220824_CECA_30_avg.sig
comm= Averaged Ref/Tar of files: HR.082422.0000_moc.sig,HR.082422.0001_moc.sig,HR.082422.0002_moc.sig
data=
337.3  3324.88  282.63  8.50
338.8  3463.20  286.77  8.28
340.3  3607.45  285.56  7.92
341.8  3795.18  289.16  7.62
343.2  3996.00  292.62  7.32
344.7  4137.05  285.15  6.89
346.2  4330.10  282.45  6.52
347.7  4522.38  280.89  6.21
349.2  4725.00  278.64  5.90
350.6  4957.88  280.51  5.66
352.1  5251.58  293.97  5.60
353.6  5517.30  293.46  5.32
355.1  5758.43  300.19  5.21
356.6  6063.38  307.15  5.07
358.0  6380.00  306.24  4.80
359.5  6674.40  317.83  4.76
361.0  6972.53  329.46  4.73
362.5  7348.03  346.28  4.71
364.0  7684.90  356.12  4.63
365.4  8036.60  359.14  4.47
366.9  8398.00  371.49  4.42
368.4  8755.28  380.81  4.35
369.9  9134.45  398.43  4.36
371.3  9585.30  415.50  4.33
372.8  10009.35  432.39  4.32
374.3  10427.50  442.29  4.24
375.8  10860.85  447.11  4.12
377.2  11271.10  452.43  4.01
378.7  11701.50  463.70  3.96
380.2  12105.00  468.83  3.87
381.7  12647.70  487.99  3.86
383.1  13151.60  499.99  3.80
384.6  13676.33  513.81  3.76
386.1  14161.10  527.12  3.72
387.6  14660.80  533.35  3.64
389.0  15168.80  540.08  3.56
390.5  15664.50  554.26  3.54
392.0  16266.75  568.80  3.50
393.4  16868.55  587.56  3.48
394.9  17434.80  599.06  3.44
396.4  17983.13  620.01  3.45
397.9  18526.88  624.76  3.37
399.3  19120.38  641.57  3.36
400.8  19690.75  658.49  3.34
402.2  20351.95  677.58  3.33
403.7  20993.40  690.61  3.29
405.2  21615.28  707.09  3.27
406.6  22179.20  719.42  3.24
408.1  22780.80  737.84  3.24
409.6  23420.65  763.44  3.26
411.0  24104.15  783.24  3.25
412.5  24802.58  800.08  3.23
414.0  25448.38  818.88  3.22
415.4  26155.50  848.38  3.24
416.9  26830.80  874.53  3.26
418.4  27526.95  898.18  3.26
419.8  28264.60  930.80  3.29
421.3  29019.10  957.80  3.30
422.7  29806.20  992.63  3.33
424.2  30594.38  1022.46  3.34
425.7  31377.50  1054.38  3.36
427.1  32140.58  1083.94  3.37
428.6  32953.00  1122.20  3.41
430.0  33718.85  1153.01  3.42
431.5  34611.08  1190.30  3.44
432.9  35482.30  1227.53  3.46
434.4  36399.83  1262.78  3.47
435.9  37254.00  1299.47  3.49
437.3  38128.75  1331.26  3.49
438.8  38987.40  1365.52  3.50
440.2  39872.53  1403.71  3.52
441.7  40856.60  1443.37  3.53
443.1  41764.00  1480.72  3.55
444.6  42771.50  1519.85  3.55
446.0  43725.75  1556.01  3.56
447.5  44707.58  1593.34  3.56
448.9  45653.10  1631.30  3.57
450.4  46684.75  1671.17  3.58
451.8  47567.00  1705.35  3.59
453.3  48508.25  1744.83  3.60
454.7  49538.00  1785.78  3.60
456.2  50426.93  1819.00  3.61
457.6  51414.08  1850.66  3.60
459.1  52420.55  1885.55  3.60
460.5  53379.63  1920.40  3.60
462.0  54465.18  1959.71  3.60
463.4  55512.40  1995.76  3.60
464.8  56526.75  2030.77  3.59
466.3  57530.55  2061.54  3.58
467.7  58537.93  2095.70  3.58
469.2  59635.78  2134.04  3.58
470.6  60625.75  2168.52  3.58
472.0  61690.73  2206.16  3.58
473.5  62715.00  2246.82  3.58
474.9  63754.50  2279.19  3.57
476.4  64958.40  2319.36  3.57
477.8  66033.00  2355.90  3.57
479.2  67062.50  2393.47  3.57
480.7  68191.73  2438.69  3.58
482.1  69345.55  2481.55  3.58
483.6  70573.80  2526.96  3.58
485.0  71680.20  2566.90  3.58
486.4  72895.50  2611.79  3.58
487.9  73987.88  2654.51  3.59
489.3  75171.13  2701.55  3.59
490.7  76275.50  2753.72  3.61
492.2  77527.80  2803.08  3.62
493.6  78655.85  2860.80  3.64
495.0  79794.00  2916.36  3.65
496.5  81006.00  2978.33  3.68
497.9  82106.63  3039.54  3.70
499.3  83295.30  3106.91  3.73
500.7  84574.45  3188.96  3.77
502.2  85731.20  3270.40  3.81
503.6  87001.40  3365.23  3.87
505.0  88105.10  3462.70  3.93
506.5  89433.08  3580.90  4.00
507.9  90640.05  3706.25  4.09
509.3  92026.40  3857.02  4.19
510.7  93278.25  4022.29  4.31
512.2  94695.45  4219.53  4.46
513.6  96202.40  4444.95  4.62
515.0  97654.63  4693.71  4.81
516.4  99054.90  4973.94  5.02
517.8  100697.13  5303.74  5.27
519.3  102029.68  5654.13  5.54
520.7  103590.65  6045.25  5.84
522.1  104910.33  6457.78  6.16
523.5  106279.40  6892.02  6.48
524.9  107777.70  7348.06  6.82
526.3  109203.50  7807.22  7.15
527.8  110677.05  8262.82  7.47
529.2  111779.80  8702.45  7.79
530.6  113418.05  9170.38  8.09
532.0  115178.00  9626.93  8.36
533.4  116446.35  10020.42  8.61
534.8  117318.98  10346.48  8.82
536.3  119002.50  10719.78  9.01
537.7  121086.00  11104.80  9.17
539.1  122559.80  11419.05  9.32
540.5  123717.35  11692.40  9.45
541.9  125450.85  12015.21  9.58
543.3  126734.68  12291.11  9.70
544.7  128022.00  12563.02  9.81
546.1  129820.35  12883.14  9.92
547.5  131073.60  13143.25  10.03
549.0  132858.00  13439.49  10.12
550.4  134385.00  13692.89  10.19
551.8  135919.85  13922.47  10.24
553.2  137463.43  14112.52  10.27
554.6  138798.40  14241.66  10.26
556.0  140356.35  14340.37  10.22
557.4  141989.40  14397.38  10.14
558.8  143637.30  14413.31  10.03
560.2  145084.00  14369.67  9.90
561.6  146763.15  14305.09  9.75
563.0  148367.90  14192.53  9.57
564.4  149968.25  14053.00  9.37
565.8  151501.88  13873.82  9.16
567.2  153241.25  13679.73  8.93
568.6  154751.25  13439.22  8.68
570.0  156185.23  13170.84  8.43
571.4  157926.60  12916.50  8.18
572.8  159699.38  12669.15  7.93
574.2  161324.80  12420.27  7.70
575.6  162866.25  12191.79  7.49
577.0  164403.70  11989.41  7.29
578.4  166154.63  11823.28  7.12
579.8  167672.70  11668.44  6.96
581.2  169400.13  11545.90  6.82
582.5  170831.70  11416.97  6.68
583.9  172350.80  11315.19  6.57
585.3  174152.70  11241.75  6.46
586.7  175637.15  11161.26  6.35
588.1  177109.88  11102.11  6.27
589.5  178776.50  11064.20  6.19
590.9  180420.00  11040.96  6.12
592.3  182238.55  11040.89  6.06
593.7  183673.43  11036.18  6.01
595.0  185295.60  11051.24  5.96
596.4  186739.00  11058.81  5.92
597.8  188240.78  11069.67  5.88
599.2  189789.60  11081.71  5.84
600.6  191560.20  11094.52  5.79
602.0  192836.70  11068.34  5.74
603.3  194632.20  11057.83  5.68
604.7  196290.95  11015.54  5.61
606.1  197795.40  10947.74  5.53
607.5  199433.85  10875.03  5.45
608.9  201125.75  10784.51  5.36
610.2  202518.23  10681.47  5.27
611.6  204116.93  10583.58  5.19
613.0  205666.85  10478.59  5.09
614.4  207046.50  10368.75  5.01
615.8  208508.63  10265.64  4.92
617.1  210048.30  10182.20  4.85
618.5  211669.60  10123.20  4.78
619.9  213173.78  10076.79  4.73
621.3  214803.68  10049.71  4.68
622.6  216382.25  10039.44  4.64
624.0  217829.55  10038.97  4.61
625.4  219308.93  10045.44  4.58
626.8  220879.75  10078.86  4.56
628.1  222168.93  10103.38  4.55
629.5  223996.38  10162.40  4.54
630.9  225539.88  10204.95  4.52
632.2  226870.88  10231.56  4.51
633.6  228447.50  10247.27  4.49
635.0  229946.80  10231.87  4.45
636.3  231474.00  10183.27  4.40
637.7  232842.38  10104.64  4.34
639.1  234482.50  10014.67  4.27
640.4  235943.58  9898.34  4.20
641.8  237143.80  9764.37  4.12
643.2  238723.10  9633.59  4.04
644.5  240097.00  9504.60  3.96
645.9  241768.80  9396.15  3.89
647.2  243435.15  9307.51  3.82
648.6  245166.75  9252.13  3.77
650.0  246520.80  9192.55  3.73
651.3  247057.80  9133.04  3.70
652.7  248525.10  9101.46  3.66
654.0  250755.00  9097.19  3.63
655.4  252210.35  9072.26  3.60
656.8  252287.80  8984.44  3.56
658.1  253559.00  8942.94  3.53
659.5  256045.65  8920.35  3.48
660.8  257850.00  8877.00  3.44
662.2  258697.60  8803.84  3.40
663.5  260262.50  8747.77  3.36
664.9  261487.20  8698.98  3.33
666.2  262182.00  8645.31  3.30
667.6  263836.85  8645.09  3.28
668.9  264894.00  8659.90  3.27
670.3  266307.25  8674.25  3.26
671.6  267734.63  8705.03  3.25
673.0  268907.25  8753.07  3.26
674.3  270172.50  8817.27  3.26
675.7  271478.35  8900.64  3.28
677.0  272581.40  8991.23  3.30
678.4  273946.95  9109.96  3.33
679.7  275004.15  9232.88  3.36
681.1  276312.78  9382.09  3.40
682.4  277443.40  9546.36  3.44
683.8  278681.00  9755.99  3.50
685.1  279682.13  9996.29  3.57
686.4  280963.20  10303.76  3.67
687.8  282241.25  10697.38  3.79
689.1  283331.50  11202.98  3.95
690.5  284649.60  11898.71  4.18
691.8  285410.03  12834.72  4.50
693.1  286749.00  14131.87  4.93
694.5  287924.00  15821.87  5.50
695.8  289152.50  17959.93  6.21
697.1  290358.25  20574.23  7.09
698.5  291399.90  23677.61  8.13
699.8  292507.50  27237.64  9.31
701.1  293618.58  31232.33  10.64
702.5  294412.80  35526.34  12.07
703.8  295357.50  40098.43  13.58
705.1  296548.20  44893.57  15.14
706.5  297587.50  49801.21  16.73
707.8  298573.65  54791.56  18.35
709.1  299467.55  59811.01  19.97
710.5  300606.13  64905.37  21.59
711.8  301451.40  69948.52  23.20
713.1  302432.60  75022.72  24.81
714.4  303324.60  80051.05  26.39
715.8  304172.00  85017.79  27.95
717.1  305479.80  90058.15  29.48
718.4  306409.60  94917.55  30.98
719.7  307547.90  99736.34  32.43
721.0  308070.00  104256.86  33.84
722.4  308844.80  108725.36  35.20
723.7  309784.05  113099.43  36.51
725.0  310832.55  117354.93  37.76
726.3  311766.68  121386.39  38.94
727.6  312337.30  125078.83  40.05
729.0  313247.20  128729.77  41.10
730.3  314014.95  132115.70  42.07
731.6  314932.60  135371.50  42.98
732.9  315702.10  138382.95  43.83
734.2  316520.88  141229.52  44.62
735.5  317516.93  143985.10  45.35
736.8  318314.70  146467.81  46.01
738.1  319160.60  148800.49  46.62
739.5  320125.35  151037.11  47.18
740.8  320818.30  152994.39  47.69
742.1  321554.73  154850.36  48.16
743.4  322225.00  156571.90  48.59
744.7  323196.65  158301.36  48.98
746.0  324023.70  159860.00  49.34
747.3  324575.90  161160.47  49.65
748.6  325299.75  162435.90  49.93
749.9  325988.00  163615.77  50.19
751.2  326665.80  164702.66  50.42
752.5  327502.60  165804.95  50.63
753.8  328101.73  166690.27  50.80
755.1  328796.00  167569.26  50.96
756.4  329388.98  168318.00  51.10
757.7  330396.33  169220.29  51.22
759.0  332218.30  170489.97  51.32
760.3  333379.20  171400.37  51.41
761.6  334920.60  172466.29  51.49
762.9  335445.00  172971.61  51.56
764.2  335819.60  173366.66  51.62
765.5  336109.93  173677.06  51.67
766.8  336518.40  174047.36  51.72
768.1  337047.40  174438.84  51.75
769.3  337606.50  174847.54  51.79
770.6  338250.90  175270.99  51.82
771.9  338973.43  175722.38  51.84
773.2  339323.20  175992.37  51.87
774.5  339939.60  176354.14  51.88
775.8  340603.10  176752.14  51.89
777.1  341142.45  177092.64  51.91
778.4  341447.70  177294.87  51.92
779.6  342223.93  177721.53  51.93
780.9  342660.00  177982.86  51.94
782.2  343095.50  178237.03  51.95
783.5  343399.50  178426.16  51.96
784.8  343914.53  178707.50  51.96
786.0  344300.95  178923.82  51.97
787.3  344682.73  179136.52  51.97
788.6  345078.48  179362.06  51.98
789.9  345506.00  179604.85  51.98
791.2  346109.38  179931.89  51.99
792.4  346798.08  180280.92  51.98
793.7  347293.20  180527.32  51.98
795.0  347890.13  180847.13  51.98
796.2  348547.40  181183.89  51.98
797.5  349194.60  181544.95  51.99
798.8  349854.70  181887.14  51.99
800.0  350506.88  182219.07  51.99
801.3  350964.20  182454.90  51.99
802.6  351566.55  182756.76  51.98
803.8  352195.95  183092.19  51.99
805.1  352696.75  183339.82  51.98
806.4  353110.80  183565.80  51.99
807.7  353662.20  183838.68  51.98
808.9  354211.30  184126.67  51.98
810.2  354723.95  184381.35  51.98
811.4  355205.80  184635.68  51.98
812.7  355834.38  184966.01  51.98
814.0  356688.20  185386.63  51.97
815.2  357254.75  185709.57  51.98
816.5  357688.78  185925.45  51.98
817.7  358183.15  186171.42  51.98
819.0  358679.75  186439.40  51.98
820.2  358820.00  186527.31  51.98
821.5  359521.80  186889.59  51.98
822.7  359890.98  187077.16  51.98
824.0  360223.20  187258.01  51.98
825.2  360723.38  187521.60  51.98
826.5  361039.18  187681.75  51.98
827.7  361580.23  187976.25  51.99
829.0  362026.75  188200.08  51.99
830.2  362369.60  188377.18  51.98
831.5  362835.25  188625.14  51.99
832.7  363197.10  188815.35  51.99
834.0  363523.30  188969.65  51.98
835.2  363893.20  189175.04  51.99
836.4  364220.45  189359.98  51.99
837.7  364657.60  189610.18  52.00
838.9  365092.18  189857.69  52.00
840.1  365507.10  190068.81  52.00
841.4  365923.90  190341.88  52.02
842.6  366336.40  190544.03  52.01
843.8  366718.80  190762.53  52.02
845.1  367257.80  191057.26  52.02
846.3  367691.80  191286.28  52.02
847.5  368140.50  191524.12  52.02
848.8  368637.00  191775.41  52.02
850.0  369008.50  191975.11  52.02
851.2  369532.80  192286.13  52.03
852.5  369982.20  192524.00  52.04
853.7  370489.50  192811.89  52.04
854.9  371019.30  193061.10  52.04
856.1  371572.50  193304.42  52.02
857.4  371748.83  193429.15  52.03
858.6  372288.95  193706.76  52.03
859.8  372751.88  193923.61  52.02
861.0  373323.60  194178.55  52.01
862.2  373783.43  194450.37  52.02
863.5  374208.25  194660.80  52.02
864.7  374833.80  194949.67  52.01
865.9  375220.80  195182.48  52.02
867.1  375495.60  195339.35  52.02
868.3  376046.40  195558.10  52.00
869.5  376585.70  195815.34  52.00
870.8  377221.50  196113.94  51.99
872.0  377809.95  196390.77  51.98
873.2  378246.00  196628.38  51.98
874.4  378764.10  196868.88  51.98
875.6  379170.58  197065.52  51.97
876.8  379619.55  197334.42  51.98
878.0  380244.05  197588.33  51.96
879.2  380768.55  197832.61  51.96
880.4  381413.63  198106.83  51.94
881.6  381856.13  198327.57  51.94
882.8  382289.60  198567.54  51.94
884.0  382921.23  198865.25  51.93
885.2  383512.10  199105.73  51.92
886.5  384187.40  199414.94  51.91
887.7  384766.85  199637.73  51.89
888.8  385363.05  199973.96  51.89
890.0  385978.75  200253.74  51.88
891.2  386606.20  200534.06  51.87
892.4  387226.88  200855.70  51.87
893.6  387905.10  201129.25  51.85
894.8  388751.75  201567.95  51.85
896.0  389655.50  201989.82  51.84
897.2  390607.75  202419.22  51.82
898.4  391297.50  202762.50  51.82
899.6  392024.25  203013.30  51.79
900.8  392391.85  203229.28  51.79
902.0  392613.45  203304.82  51.78
903.2  392860.50  203452.33  51.79
904.3  393277.20  203636.77  51.78
905.5  394006.88  203930.83  51.76
906.7  394639.50  204204.88  51.74
907.9  395309.95  204462.53  51.72
909.1  395633.70  204580.90  51.71
910.2  395776.35  204656.45  51.71
911.4  395992.35  204779.36  51.71
912.6  396131.45  204896.26  51.72
913.8  396538.05  204975.99  51.69
915.0  396966.15  205146.48  51.68
916.2  397107.75  205192.56  51.67
917.3  397244.70  205188.03  51.65
918.5  397585.60  205268.06  51.63
919.7  397807.20  205355.81  51.62
920.8  397877.78  205324.72  51.60
922.0  397916.75  205335.90  51.60
923.2  398307.00  205402.60  51.57
924.4  398520.00  205488.19  51.56
925.5  398872.90  205591.61  51.54
926.7  399361.88  205828.15  51.54
927.9  400108.20  206199.60  51.54
929.0  401719.50  206867.67  51.50
930.2  403919.10  207869.92  51.46
931.4  406352.70  209068.95  51.45
932.5  409065.15  210388.29  51.43
933.7  410580.53  210997.89  51.39
934.9  411000.63  211254.58  51.40
936.0  410804.88  210930.32  51.35
937.2  408661.50  209774.84  51.33
938.3  407010.25  208822.88  51.31
939.5  405572.40  207967.75  51.28
940.7  405855.90  207959.71  51.24
941.8  407336.85  208658.85  51.23
943.0  408869.25  209288.89  51.19
944.2  409501.30  209546.52  51.17
945.3  409217.25  209177.24  51.12
946.5  408514.05  208656.08  51.08
947.6  408670.10  208604.01  51.04
948.8  408616.65  208405.02  51.00
949.9  408618.00  208217.52  50.96
951.1  408268.90  207911.96  50.93
952.2  408000.00  207582.63  50.88
953.4  407868.00  207186.84  50.80
954.5  408142.80  206993.73  50.72
955.7  407836.80  206725.44  50.69
956.8  407690.90  206394.88  50.63
958.0  407338.50  205948.59  50.56
959.1  407207.90  205702.12  50.52
960.3  406825.78  205391.77  50.49
961.4  406709.70  205211.15  50.46
962.6  406855.75  205162.07  50.43
963.7  406748.85  204993.57  50.40
964.9  406660.50  204802.93  50.36
966.0  406336.50  204677.01  50.37
967.2  406262.70  204618.14  50.37
968.3  405939.60  204396.33  50.35
969.5  405942.90  204286.78  50.32
970.6  405947.35  204241.32  50.31
971.8  406020.30  204281.99  50.31
972.9  405892.50  204284.36  50.33
974.0  406071.40  204342.40  50.32
975.2  405938.75  204148.69  50.29
976.3  405491.78  204079.26  50.33
977.5  405781.78  204056.03  50.29
978.6  405301.30  203990.03  50.33
979.7  405187.65  204054.07  50.36
980.9  404930.65  204092.95  50.40
982.0  405077.80  203745.63  50.30
983.2  404652.60  203581.72  50.31
984.3  404043.40  203453.71  50.35
985.4  404423.93  203415.95  50.30
986.6  403480.13  203491.78  50.43
987.7  404379.50  203991.13  50.45
988.9  403988.40  203589.67  50.39
990.0  405328.90  203783.72  50.28
993.1  368355.69  184011.09  49.95
996.9  368254.40  184480.43  50.10
1000.7  368954.31  185177.30  50.19
1004.5  369224.33  185685.23  50.29
1008.4  368800.25  185831.04  50.39
1012.2  368608.88  186062.28  50.48
1016.0  368401.80  186305.73  50.57
1019.8  368190.90  186521.59  50.66
1023.7  367806.52  186582.66  50.73
1027.5  367158.27  186451.51  50.78
1031.3  367105.88  186570.54  50.82
1035.1  366774.86  186498.69  50.85
1038.9  366660.62  186498.68  50.86
1042.7  366502.83  186457.58  50.87
1046.5  366346.17  186422.68  50.89
1050.3  366315.88  186446.31  50.90
1054.2  365960.58  186316.10  50.91
1058.0  365490.18  186063.57  50.91
1061.8  365358.48  186006.89  50.91
1065.6  365055.17  185779.53  50.89
1069.4  364913.87  185673.25  50.88
1073.2  364293.31  185291.61  50.86
1077.0  363662.80  184908.25  50.85
1080.8  363194.79  184578.19  50.82
1084.6  362297.83  184016.62  50.79
1088.4  361808.73  183662.47  50.76
1092.2  361091.25  183153.29  50.72
1096.0  360539.11  182683.38  50.67
1099.8  360042.58  182242.18  50.62
1103.6  359341.77  181698.31  50.56
1107.4  358387.84  181008.57  50.51
1111.2  358105.60  180648.41  50.45
1114.9  357376.25  180054.83  50.38
1118.7  356810.85  179443.86  50.29
1122.5  356171.40  178745.64  50.19
1126.3  355115.66  177763.69  50.06
1130.1  354624.83  176916.75  49.89
1133.9  353042.90  175321.62  49.66
1137.7  351627.40  173609.21  49.37
1141.4  349849.50  171538.76  49.03
1145.2  349087.64  169829.87  48.65
1149.0  347975.83  168021.39  48.29
1152.8  346351.40  166141.93  47.97
1156.6  344707.18  164500.80  47.72
1160.3  343051.33  163100.93  47.54
1164.1  340720.67  161583.25  47.42
1167.9  338962.50  160507.14  47.35
1171.7  337719.38  159762.75  47.31
1175.4  336479.23  159082.20  47.28
1179.2  335375.73  158437.78  47.24
1183.0  335025.33  158146.30  47.20
1186.7  334599.53  157793.79  47.16
1190.5  333667.27  157237.61  47.12
1194.3  332555.27  156614.97  47.09
1198.0  331327.70  155978.44  47.08
1201.8  329856.10  155266.97  47.07
1205.6  328657.33  154769.29  47.09
1209.3  327784.13  154514.36  47.14
1213.1  326945.70  154289.53  47.19
1216.8  326126.53  154090.50  47.25
1220.6  325124.80  153782.28  47.30
1224.3  323984.33  153408.61  47.35
1228.1  322757.80  153029.97  47.41
1231.9  321484.45  152591.67  47.46
1235.6  320006.18  152026.22  47.51
1239.4  318636.50  151512.01  47.55
1243.1  317366.60  151004.05  47.58
1246.9  316152.98  150497.35  47.60
1250.6  315142.47  150063.57  47.62
1254.3  314044.78  149571.53  47.63
1258.1  313012.93  149073.91  47.63
1261.8  311710.13  148437.28  47.62
1265.6  310279.45  147721.84  47.61
1269.3  308982.80  147013.24  47.58
1273.1  308998.04  146918.37  47.55
1276.8  309189.20  146851.85  47.50
1280.6  308822.63  146506.61  47.44
1284.3  307319.60  145589.05  47.37
1288.0  305846.83  144655.24  47.30
1291.8  304693.67  143815.06  47.20
1295.5  303484.13  142901.90  47.09
1299.2  302321.97  141942.99  46.95
1302.9  300897.45  140786.67  46.79
1306.7  299347.53  139501.48  46.60
1310.4  297843.08  138152.59  46.38
1314.1  296466.32  136786.24  46.14
1317.9  295208.96  135378.30  45.86
1321.6  293791.64  133800.73  45.54
1325.3  292137.30  132021.29  45.19
1329.0  290826.55  130326.56  44.81
1332.8  288811.60  128226.27  44.40
1336.5  287043.87  126215.11  43.97
1340.2  286695.50  124824.07  43.54
1343.9  286266.46  123365.90  43.09
1347.6  285639.60  121839.19  42.65
1351.4  285804.50  120691.61  42.23
