/*** Spectra Vista SIG Data ***/
name= 18_20220926_ACSA_02_avg.sig
comm= Averaged Ref/Tar of files: HR.092622.0051_moc.sig,HR.092622.0052_moc.sig,HR.092622.0053_moc.sig
data=
337.3  6217.05  508.06  8.17
338.8  6413.33  513.07  8.00
340.3  6805.80  516.74  7.59
341.8  7016.07  471.77  6.72
343.2  7461.30  497.42  6.67
344.7  7843.25  469.45  5.99
346.2  8225.00  471.57  5.73
347.7  8548.20  453.79  5.31
349.2  8820.00  473.76  5.37
350.6  9253.00  457.78  4.95
352.1  9763.50  471.67  4.83
353.6  10320.00  486.19  4.71
355.1  10777.05  496.72  4.61
356.6  11409.82  511.92  4.49
358.0  11905.10  531.93  4.47
359.5  12398.25  544.71  4.39
361.0  13046.00  537.65  4.12
362.5  13649.75  545.99  4.00
364.0  14370.05  565.75  3.94
365.4  15085.28  582.76  3.86
366.9  15710.75  613.98  3.91
368.4  16391.33  648.53  3.96
369.9  17101.33  671.33  3.93
371.3  17998.57  700.33  3.89
372.8  18702.00  720.37  3.85
374.3  19567.20  722.37  3.69
375.8  20390.45  753.64  3.70
377.2  21130.20  765.18  3.62
378.7  21947.92  786.61  3.58
380.2  22777.20  801.42  3.52
381.7  23702.33  808.83  3.41
383.1  24710.45  836.57  3.39
384.6  25621.55  862.23  3.37
386.1  26573.40  885.78  3.33
387.6  27444.15  911.30  3.32
389.0  28484.25  929.67  3.26
390.5  29515.52  957.26  3.24
392.0  30601.50  979.80  3.20
393.4  31715.50  1000.10  3.15
394.9  32711.73  1018.00  3.11
396.4  33834.53  1065.97  3.15
397.9  34936.40  1102.20  3.15
399.3  35875.72  1118.03  3.12
400.8  37057.90  1142.24  3.08
402.2  38280.00  1173.92  3.07
403.7  39500.60  1201.92  3.04
405.2  40629.47  1229.33  3.03
406.6  41887.40  1262.36  3.01
408.1  42939.05  1297.27  3.02
409.6  44143.80  1323.17  3.00
411.0  45372.98  1362.02  3.00
412.5  46740.63  1400.33  3.00
414.0  48093.73  1435.40  2.98
415.4  49407.00  1475.76  2.99
416.9  50683.77  1511.01  2.98
418.4  52041.62  1564.40  3.01
419.8  53378.50  1602.53  3.00
421.3  54862.50  1653.96  3.01
422.7  56310.80  1708.03  3.03
424.2  57815.10  1756.74  3.04
425.7  59244.17  1800.52  3.04
427.1  60724.60  1850.19  3.05
428.6  62211.80  1901.58  3.06
430.0  63734.55  1961.67  3.08
431.5  65389.78  2020.89  3.09
432.9  67040.67  2073.27  3.09
434.4  68739.52  2125.58  3.09
435.9  70387.73  2186.07  3.11
437.3  72065.00  2243.60  3.11
438.8  73692.62  2301.69  3.12
440.2  75374.13  2353.70  3.12
441.7  77221.93  2423.12  3.14
443.1  79036.20  2486.34  3.15
444.6  80803.63  2552.76  3.16
446.0  82613.77  2621.17  3.17
447.5  84550.00  2686.67  3.18
448.9  86306.97  2748.40  3.18
450.4  88200.00  2816.67  3.19
451.8  89997.75  2884.35  3.20
453.3  91815.65  2952.12  3.22
454.7  93614.85  3020.49  3.23
456.2  95420.73  3083.03  3.23
457.6  97333.20  3153.24  3.24
459.1  99161.30  3220.77  3.25
460.5  100992.97  3281.50  3.25
462.0  103025.40  3354.72  3.26
463.4  104995.33  3421.16  3.26
464.8  106975.05  3491.46  3.26
466.3  108895.65  3563.07  3.27
467.7  110921.60  3623.04  3.27
469.2  112763.00  3688.78  3.27
470.6  114811.08  3761.33  3.28
472.0  116852.50  3829.86  3.28
473.5  118846.27  3905.78  3.29
474.9  120999.60  3985.57  3.29
476.4  123079.87  4058.80  3.30
477.8  125178.67  4132.80  3.30
479.2  127252.18  4207.49  3.31
480.7  129393.70  4282.04  3.31
482.1  131601.22  4360.02  3.31
483.6  133789.80  4449.12  3.33
485.0  136051.75  4543.14  3.34
486.4  138166.43  4630.50  3.35
487.9  140421.33  4723.40  3.36
489.3  142579.80  4820.88  3.38
490.7  144772.57  4927.54  3.40
492.2  147001.42  5039.40  3.43
493.6  149273.07  5158.15  3.46
495.0  151572.85  5296.85  3.49
496.5  153770.40  5428.08  3.53
497.9  156062.50  5584.20  3.58
499.3  158332.50  5750.67  3.63
500.7  160630.80  5935.45  3.70
502.2  162989.97  6141.76  3.77
503.6  165289.60  6384.48  3.86
505.0  167551.82  6639.38  3.96
506.5  170005.73  6943.36  4.08
507.9  172470.57  7291.10  4.23
509.3  174802.80  7673.34  4.39
510.7  177435.05  8116.81  4.57
512.2  180084.40  8612.57  4.78
513.6  182892.58  9189.91  5.02
515.0  185621.10  9832.39  5.30
516.4  188457.20  10547.17  5.60
517.8  191240.50  11325.10  5.92
519.3  194153.60  12178.35  6.27
520.7  196800.20  13080.27  6.65
522.1  199453.15  14019.81  7.03
523.5  202028.02  14986.23  7.42
524.9  204899.25  15982.68  7.80
526.3  207488.70  16944.48  8.17
527.8  210260.17  17903.98  8.52
529.2  212889.60  18858.24  8.86
530.6  215722.80  19812.72  9.18
532.0  218677.33  20706.01  9.47
533.4  221089.53  21491.81  9.72
534.8  223593.70  22226.38  9.94
536.3  226667.95  22960.91  10.13
537.7  229728.33  23655.07  10.30
539.1  232663.17  24310.22  10.45
540.5  235553.50  24920.90  10.58
541.9  238495.65  25522.98  10.70
543.3  241063.00  26076.13  10.82
544.7  244024.00  26661.07  10.93
546.1  246830.27  27234.95  11.03
547.5  249825.60  27806.40  11.13
549.0  253043.20  28385.39  11.22
550.4  255896.55  28905.24  11.30
551.8  258803.62  29377.12  11.35
553.2  261723.55  29772.92  11.38
554.6  264579.80  30083.02  11.37
556.0  267502.90  30308.04  11.33
557.4  270613.47  30476.19  11.26
558.8  273450.70  30541.04  11.17
560.2  276613.33  30565.33  11.05
561.6  279524.30  30479.20  10.90
563.0  282301.50  30308.29  10.74
564.4  285458.60  30119.79  10.55
565.8  288467.70  29862.45  10.35
567.2  291600.20  29554.22  10.14
568.6  294610.05  29180.61  9.90
570.0  297496.33  28727.18  9.66
571.4  300885.23  28292.91  9.40
572.8  304022.67  27825.71  9.15
574.2  306903.45  27362.58  8.92
575.6  309929.50  26944.75  8.69
577.0  312912.42  26568.23  8.49
578.4  316312.50  26276.25  8.31
579.8  319351.67  25977.86  8.13
581.2  322417.33  25723.97  7.98
582.5  325305.00  25494.00  7.84
583.9  328347.93  25302.93  7.71
585.3  331210.33  25128.93  7.59
586.7  334180.00  25003.44  7.48
588.1  337135.47  24906.15  7.39
589.5  340454.50  24853.10  7.30
590.9  343413.55  24809.77  7.22
592.3  346342.95  24800.46  7.16
593.7  349290.78  24827.72  7.11
595.0  352206.40  24875.52  7.06
596.4  355513.50  24954.60  7.02
597.8  358143.53  24996.25  6.98
599.2  361254.40  25055.94  6.94
600.6  364426.70  25094.19  6.89
602.0  367392.00  25098.24  6.83
603.3  370257.33  25046.67  6.76
604.7  373251.68  24955.71  6.69
606.1  376245.05  24826.49  6.60
607.5  379530.63  24668.96  6.50
608.9  382600.17  24463.41  6.39
610.2  385741.95  24248.40  6.29
611.6  388648.33  23991.00  6.17
613.0  391440.03  23732.60  6.06
614.4  394189.30  23464.45  5.95
615.8  397427.67  23248.07  5.85
617.1  400098.78  23031.60  5.76
618.5  403331.80  22887.81  5.67
619.9  406027.80  22744.28  5.60
621.3  408980.22  22654.06  5.54
622.6  411859.50  22608.30  5.49
624.0  414552.50  22594.00  5.45
625.4  417641.50  22636.45  5.42
626.8  420592.03  22716.98  5.40
628.1  423432.33  22822.57  5.39
629.5  426218.80  22924.25  5.38
630.9  429116.77  23019.40  5.36
632.2  432183.38  23102.19  5.35
633.6  434668.65  23100.05  5.31
635.0  437622.22  23056.12  5.27
636.3  440652.47  22943.83  5.21
637.7  443355.80  22727.65  5.13
639.1  446326.83  22447.19  5.03
640.4  449024.42  22100.05  4.92
641.8  451850.40  21728.40  4.81
643.2  454424.63  21333.47  4.69
644.5  457286.67  20962.67  4.58
645.9  459903.50  20611.41  4.48
647.2  462746.90  20316.19  4.39
648.6  465496.53  20077.71  4.31
650.0  468178.80  19883.04  4.25
651.3  470656.67  19755.89  4.20
652.7  473947.00  19664.70  4.15
654.0  476912.60  19574.64  4.10
655.4  479179.75  19451.88  4.06
656.8  480777.50  19289.20  4.01
658.1  483333.90  19126.52  3.96
659.5  486633.60  18979.20  3.90
660.8  489937.70  18804.24  3.84
662.2  492693.15  18612.28  3.78
663.5  495410.87  18446.39  3.72
664.9  497459.83  18290.04  3.68
666.2  499575.05  18182.36  3.64
667.6  502084.50  18131.70  3.61
668.9  504921.60  18149.76  3.59
670.3  507582.83  18184.72  3.58
671.6  509987.20  18294.19  3.59
673.0  512276.80  18424.21  3.60
674.3  514721.90  18611.41  3.62
675.7  517244.40  18831.96  3.64
677.0  519592.70  19085.70  3.67
678.4  521845.20  19366.99  3.71
679.7  524209.30  19738.78  3.77
681.1  526748.73  20157.99  3.83
682.4  528981.25  20633.80  3.90
683.8  531326.00  21198.80  3.99
685.1  533568.20  21887.22  4.10
686.4  535763.80  22757.76  4.25
687.8  538302.45  23909.38  4.44
689.1  540638.93  25443.51  4.71
690.5  542623.83  27486.85  5.07
691.8  545329.03  30280.07  5.55
693.1  547752.00  33953.20  6.20
694.5  550095.60  38566.71  7.01
695.8  552542.80  44154.48  7.99
697.1  554786.07  50645.39  9.13
698.5  557091.25  58003.80  10.41
699.8  559475.20  66056.91  11.81
701.1  561362.20  74600.40  13.29
702.5  563441.25  83499.77  14.82
703.8  565911.15  92599.97  16.36
705.1  567738.93  101598.11  17.90
706.5  570054.55  110610.86  19.40
707.8  571888.30  119385.77  20.88
709.1  574096.92  128048.14  22.30
710.5  576305.53  136509.72  23.69
711.8  578235.33  144732.27  25.03
713.1  580213.33  152758.93  26.33
714.4  582329.03  160672.56  27.59
715.8  584642.62  168446.22  28.81
717.1  586868.77  176040.49  30.00
718.4  589088.15  183434.07  31.14
719.7  591303.75  190618.38  32.24
721.0  593071.65  197441.01  33.29
722.4  594920.40  204084.12  34.30
723.7  596915.43  210532.62  35.27
725.0  598646.33  216667.76  36.19
726.3  600972.67  222738.53  37.06
727.6  602685.00  228389.00  37.90
729.0  604549.63  233789.22  38.67
730.3  606537.58  238951.68  39.40
731.6  608095.67  243687.27  40.07
732.9  610073.32  248342.03  40.71
734.2  611685.25  252629.85  41.30
735.5  613475.13  256729.51  41.85
736.8  615507.67  260667.19  42.35
738.1  617359.65  264288.24  42.81
739.5  619114.00  267671.34  43.23
740.8  621044.05  270904.74  43.62
742.1  622613.70  273813.85  43.98
743.4  624438.97  276643.36  44.30
744.7  626416.00  279352.27  44.60
746.0  627907.25  281691.79  44.86
747.3  629533.33  283912.91  45.10
748.6  631154.47  285968.67  45.31
749.9  632998.32  287982.65  45.50
751.2  634366.88  289673.93  45.66
752.5  635998.08  291359.51  45.81
753.8  637353.90  292848.54  45.95
755.1  638999.73  294360.56  46.07
756.4  640092.82  295570.38  46.18
757.7  642110.33  297096.43  46.27
759.0  645760.27  299278.22  46.35
760.3  648430.27  301003.89  46.42
761.6  651312.58  302729.67  46.48
762.9  652776.67  303767.57  46.53
764.2  653616.90  304446.67  46.58
765.5  654536.97  305138.33  46.62
766.8  655126.90  305640.85  46.65
768.1  656201.70  306355.98  46.69
769.3  657464.20  307126.51  46.71
770.6  658933.27  307956.39  46.74
771.9  660165.67  308684.36  46.76
773.2  661638.90  309478.65  46.77
774.5  662559.90  310037.60  46.79
775.8  663670.85  310661.00  46.81
777.1  664873.48  311356.50  46.83
778.4  666221.83  312081.63  46.84
779.6  667554.00  312797.84  46.86
780.9  668290.50  313246.98  46.87
782.2  669281.98  313805.64  46.89
783.5  670235.67  314324.83  46.90
784.8  671048.00  314811.35  46.91
786.0  671966.62  315279.56  46.92
787.3  672833.13  315776.00  46.93
788.6  673774.75  316307.78  46.95
789.9  674496.93  316736.76  46.96
791.2  675830.97  317453.69  46.97
792.4  677054.58  318084.25  46.98
793.7  678620.58  318905.81  46.99
795.0  679689.40  319479.67  47.00
796.2  681080.07  320189.11  47.01
797.5  682385.42  320859.67  47.02
798.8  683830.58  321606.37  47.03
800.0  684973.33  322224.00  47.04
801.3  686259.00  322878.15  47.05
802.6  687312.00  323424.00  47.06
803.8  688446.15  323989.54  47.06
805.1  689549.25  324587.05  47.07
806.4  690534.98  325129.59  47.08
807.7  691763.17  325748.40  47.09
808.9  692908.37  326353.62  47.10
810.2  693861.00  326826.92  47.10
811.4  695068.53  327377.23  47.10
812.7  696398.47  328087.68  47.11
814.0  697735.50  328768.44  47.12
815.2  699120.70  329490.92  47.13
816.5  700245.00  330083.83  47.14
817.7  701184.67  330518.37  47.14
819.0  701988.00  330896.53  47.14
820.2  702843.70  331359.56  47.15
821.5  703980.40  331942.53  47.15
822.7  704998.93  332511.04  47.16
824.0  705934.67  332957.82  47.17
825.2  706743.70  333337.16  47.17
826.5  707490.17  333739.33  47.17
827.7  708685.43  334278.21  47.17
829.0  709589.20  334752.67  47.18
830.2  710500.53  335250.80  47.19
831.5  711443.40  335716.47  47.19
832.7  712485.00  336212.64  47.19
834.0  713135.25  336556.35  47.19
835.2  714218.87  337075.96  47.20
836.4  715009.33  337453.55  47.20
837.7  715777.50  337881.75  47.20
838.9  717017.57  338495.45  47.21
840.1  717911.70  338990.52  47.22
841.4  719019.47  339475.41  47.21
842.6  719894.93  339926.72  47.22
843.8  720656.73  340343.12  47.23
845.1  721409.70  340765.92  47.24
846.3  722341.20  341221.58  47.24
847.5  723263.67  341718.43  47.25
848.8  724163.33  342163.11  47.25
850.0  725385.47  342727.92  47.25
851.2  726361.47  343191.59  47.25
852.5  727605.13  343780.08  47.25
853.7  728254.35  344160.99  47.26
854.9  729375.40  344706.96  47.26
856.1  730307.30  345204.09  47.27
857.4  731253.75  345652.69  47.27
858.6  732324.13  346127.04  47.26
859.8  733365.07  346709.96  47.28
861.0  734397.07  347208.26  47.28
862.2  735392.00  347679.08  47.28
863.5  736346.23  348128.87  47.28
864.7  737341.67  348545.83  47.27
865.9  738408.08  349055.07  47.27
867.1  739075.00  349366.67  47.27
868.3  740339.52  349987.67  47.27
869.5  741452.77  350543.11  47.28
870.8  742579.50  351059.64  47.28
872.0  743485.93  351510.67  47.28
873.2  744466.27  351906.97  47.27
874.4  745491.10  352300.12  47.26
875.6  746611.03  352883.94  47.26
876.8  748073.70  353561.12  47.26
878.0  748995.10  354025.23  47.27
879.2  750036.60  354544.86  47.27
880.4  751094.67  355040.80  47.27
881.6  752192.00  355455.49  47.26
882.8  753548.23  356084.70  47.25
884.0  754521.52  356480.76  47.25
885.2  755896.50  357119.57  47.24
886.5  757153.60  357764.49  47.25
887.7  758284.15  358207.85  47.24
888.8  759791.63  358811.33  47.22
890.0  760725.00  359219.00  47.22
891.2  761908.55  359662.55  47.21
892.4  763382.95  360342.95  47.20
893.6  765110.57  361158.77  47.20
894.8  766620.45  361905.01  47.21
896.0  768378.10  362682.89  47.20
897.2  770224.95  363474.54  47.19
898.4  772158.80  364405.72  47.19
899.6  773530.13  364999.19  47.19
900.8  774155.63  365257.01  47.18
902.0  774933.87  365451.77  47.16
903.2  775222.73  365554.76  47.15
904.3  776441.25  366093.00  47.15
905.5  777694.50  366676.20  47.15
906.7  778968.08  367238.58  47.14
907.9  780078.97  367729.65  47.14
909.1  781230.45  368176.78  47.13
910.2  781830.00  368392.50  47.12
911.4  781942.80  368393.28  47.11
912.6  782466.67  368600.00  47.11
913.8  783587.23  369042.19  47.10
915.0  784113.60  369211.76  47.09
916.2  784391.15  369377.23  47.09
917.3  785254.38  369714.67  47.08
918.5  785742.20  369856.86  47.07
919.7  785797.67  369776.83  47.06
920.8  786162.45  369852.49  47.05
922.0  786316.48  369915.15  47.04
923.2  787046.80  370137.49  47.03
924.4  787828.00  370382.43  47.01
925.5  788673.07  370728.72  47.01
926.7  789688.45  371026.42  46.98
927.9  791294.63  371711.91  46.98
929.0  794413.80  373093.92  46.96
930.2  798732.13  375009.84  46.95
931.4  803839.65  377291.63  46.94
932.5  808454.17  379295.40  46.92
933.7  811601.70  380573.67  46.89
934.9  813044.17  381161.67  46.88
936.0  812371.20  380623.92  46.85
937.2  809461.95  379163.20  46.84
938.3  805408.50  377107.03  46.82
939.5  803462.40  375899.16  46.78
940.7  803548.90  375724.58  46.76
941.8  806450.67  377015.69  46.75
943.0  808763.65  377790.04  46.71
944.2  810568.00  378541.60  46.70
945.3  810147.20  378085.20  46.67
946.5  808937.50  377153.00  46.62
947.6  809899.00  377391.50  46.60
948.8  808757.23  376676.48  46.57
949.9  809211.08  376698.98  46.55
951.1  809577.75  376567.77  46.51
952.2  809442.22  375845.63  46.43
953.4  809495.50  375339.32  46.37
954.5  807777.25  374333.05  46.34
955.7  807544.87  373854.87  46.30
956.8  807933.07  373785.80  46.26
958.0  807320.70  373129.92  46.22
959.1  807105.60  372738.24  46.18
960.3  806908.33  372158.33  46.12
961.4  807633.00  372361.32  46.11
962.6  807216.00  371898.24  46.07
963.7  807522.80  372099.65  46.08
964.9  808370.47  371931.39  46.01
966.0  808679.90  371985.83  46.00
967.2  809345.60  372099.84  45.98
968.3  810474.37  372459.30  45.96
969.5  810886.12  372773.45  45.97
970.6  810904.87  373063.07  46.01
971.8  810989.08  373014.53  46.00
972.9  812569.33  373258.20  45.94
974.0  813234.73  373452.91  45.92
975.2  812261.25  373059.00  45.93
976.3  813670.07  373433.78  45.89
977.5  813841.50  373138.65  45.85
978.6  813858.70  373334.65  45.87
979.7  813530.67  373361.71  45.89
980.9  814007.40  373514.51  45.89
982.0  813942.30  373333.41  45.87
983.2  814823.33  373778.53  45.87
984.3  814273.60  372766.19  45.78
985.4  813491.93  372621.67  45.81
986.6  814000.27  372972.25  45.82
987.7  813319.75  372661.17  45.82
988.9  815096.32  373016.52  45.76
990.0  814793.93  373266.37  45.81
993.1  834171.00  380481.43  45.61
996.9  835824.60  381993.63  45.70
1000.7  836461.88  382987.61  45.79
1004.5  835865.53  383386.26  45.87
1008.4  836975.92  384579.87  45.95
1012.2  838696.00  385939.58  46.02
1016.0  839269.98  386796.19  46.09
1019.8  838985.85  387186.30  46.15
1023.7  838887.73  387568.38  46.20
1027.5  837940.40  387547.72  46.25
1031.3  837532.62  387676.97  46.29
1035.1  837244.50  387808.96  46.32
1038.9  837053.63  387946.54  46.35
1042.7  836815.30  388040.20  46.37
1046.5  836059.00  387817.50  46.39
1050.3  834560.94  387188.16  46.39
1054.2  832604.03  386449.37  46.41
1058.0  831675.60  386020.29  46.41
1061.8  830438.50  385555.92  46.43
1065.6  828860.54  384763.06  46.42
1069.4  827481.13  384064.57  46.41
1073.2  826483.13  383512.54  46.40
1077.0  825319.73  382873.33  46.39
1080.8  824242.83  382134.24  46.36
1084.6  822818.33  381233.02  46.33
1088.4  821155.22  380357.88  46.32
1092.2  819648.90  379387.47  46.29
1096.0  818326.83  378514.90  46.25
1099.8  817008.63  377587.11  46.22
1103.6  815485.97  376523.10  46.17
1107.4  814182.99  375532.33  46.12
1111.2  812734.47  374510.26  46.08
1114.9  811615.50  373533.43  46.02
1118.7  810759.08  372573.43  45.95
1122.5  810509.27  371747.77  45.87
1126.3  807855.30  369693.45  45.76
1130.1  807266.23  368216.30  45.61
1133.9  803917.88  365069.58  45.41
1137.7  801454.80  361918.83  45.16
1141.4  797993.48  357973.15  44.86
1145.2  797323.38  354961.36  44.52
1149.0  795441.15  351605.78  44.20
1152.8  792269.60  347932.91  43.92
1156.6  788875.79  344702.63  43.70
1160.3  785673.60  342041.38  43.53
1164.1  781027.00  339162.22  43.43
1167.9  777782.42  337197.79  43.35
1171.7  775270.37  335732.91  43.31
1175.4  773247.26  334590.78  43.27
1179.2  771645.75  333588.43  43.23
1183.0  771921.00  333386.20  43.19
1186.7  771512.00  332894.33  43.15
1190.5  769537.54  331753.70  43.11
1194.3  766630.08  330224.53  43.07
1198.0  763868.68  328944.88  43.06
1201.8  761530.00  327961.33  43.07
1205.6  759788.75  327385.45  43.09
1209.3  758322.75  327113.14  43.14
1213.1  756514.67  326707.62  43.19
1216.8  754187.20  326190.82  43.25
1220.6  751862.33  325658.93  43.31
1224.3  749466.67  325082.74  43.38
1228.1  747556.16  324733.03  43.44
1231.9  745488.90  324242.19  43.49
1235.6  743257.63  323578.12  43.54
1239.4  741092.90  323020.28  43.59
1243.1  739023.30  322350.17  43.62
1246.9  737167.66  321680.12  43.64
1250.6  735188.77  320941.96  43.65
1254.3  733339.20  320221.71  43.67
1258.1  731512.00  319448.28  43.67
1261.8  729183.47  318441.10  43.67
1265.6  726676.38  317291.79  43.66
1269.3  723849.27  315895.45  43.64
1273.1  724066.83  315765.97  43.61
1276.8  724754.27  315767.90  43.57
1280.6  725027.31  315566.26  43.52
1284.3  722958.82  314304.59  43.47
1288.0  720891.49  312928.77  43.41
1291.8  718653.60  311310.00  43.32
1295.5  716387.65  309636.27  43.22
1299.2  713990.55  307795.52  43.11
1302.9  711238.73  305664.01  42.98
1306.7  708307.43  303286.05  42.82
1310.4  705458.45  300708.30  42.63
1314.1  703201.88  298237.23  42.41
1317.9  700893.38  295520.34  42.16
1321.6  698220.25  292444.97  41.88
1325.3  695466.00  289087.55  41.57
1329.0  692866.53  285675.13  41.23
1332.8  688967.50  281517.50  40.86
1336.5  685329.88  277433.95  40.48
