/*** Spectra Vista SIG Data ***/
name= 3_20220926_QURU_46_avg.sig
comm= Averaged Ref/Tar of files: HR.092622.0006_moc.sig,HR.092622.0007_moc.sig,HR.092622.0008_moc.sig
data=
337.3  6417.60  410.65  6.40
338.8  6541.60  375.64  5.74
340.3  6900.33  378.10  5.48
341.8  6985.83  380.18  5.44
343.2  7461.30  389.14  5.22
344.7  7814.63  384.39  4.92
346.2  8225.00  376.00  4.57
347.7  8706.50  361.83  4.16
349.2  8920.80  338.40  3.79
350.6  9350.40  340.90  3.65
352.1  9834.25  343.64  3.49
353.6  10320.00  373.48  3.62
355.1  10777.05  380.14  3.53
356.6  11518.28  378.05  3.28
358.0  12031.75  385.98  3.21
359.5  12560.85  394.89  3.14
361.0  13223.90  378.39  2.86
362.5  13842.00  406.47  2.94
364.0  14596.35  414.88  2.84
365.4  15214.38  437.33  2.87
366.9  15819.10  443.72  2.80
368.4  16516.05  468.32  2.84
369.9  17225.00  479.52  2.78
371.3  18173.65  515.25  2.84
372.8  18909.80  519.50  2.75
374.3  19777.60  531.01  2.68
375.8  20654.58  533.28  2.58
377.2  21428.55  541.54  2.53
378.7  22228.85  551.83  2.48
380.2  23040.83  562.40  2.44
381.7  24001.25  582.76  2.43
383.1  24991.65  602.57  2.41
384.6  25972.05  605.86  2.33
386.1  26942.48  627.68  2.33
387.6  27864.75  635.91  2.28
389.0  28886.18  654.07  2.26
390.5  29966.40  678.80  2.27
392.0  31050.00  690.00  2.22
393.4  32160.75  704.57  2.19
394.9  33135.90  731.99  2.21
396.4  34357.40  756.59  2.20
397.9  35470.80  777.74  2.19
399.3  36451.18  789.20  2.17
400.8  37674.45  811.25  2.15
402.2  38854.20  824.84  2.12
403.7  40142.25  862.98  2.15
405.2  41305.60  873.71  2.12
406.6  42582.00  910.31  2.14
408.1  43672.80  935.01  2.14
409.6  44913.75  953.27  2.12
411.0  46134.28  976.82  2.12
412.5  47484.05  1015.68  2.14
414.0  48861.75  1044.20  2.14
415.4  50193.90  1083.60  2.16
416.9  51521.83  1104.31  2.14
418.4  52889.20  1134.72  2.15
419.8  54262.25  1161.50  2.14
421.3  55751.85  1194.60  2.14
422.7  57223.40  1232.89  2.15
424.2  58765.58  1261.06  2.15
425.7  60214.00  1298.13  2.16
427.1  61768.40  1336.18  2.16
428.6  63262.68  1366.85  2.16
430.0  64793.85  1406.80  2.17
431.5  66498.58  1437.99  2.16
432.9  68156.75  1472.80  2.16
434.4  69894.73  1507.71  2.16
435.9  71571.10  1548.57  2.16
437.3  73272.00  1584.82  2.16
438.8  74936.30  1619.04  2.16
440.2  76686.58  1658.87  2.16
441.7  78578.68  1703.64  2.17
443.1  80412.75  1746.64  2.17
444.6  82230.28  1787.22  2.17
446.0  84076.48  1829.28  2.18
447.5  86075.00  1878.57  2.18
448.9  87835.70  1922.79  2.19
450.4  89750.00  1971.43  2.20
451.8  91580.63  2019.57  2.21
453.3  93416.40  2060.52  2.21
454.7  95292.90  2106.64  2.21
456.2  97115.55  2151.07  2.21
457.6  99060.30  2196.13  2.22
459.1  100919.18  2236.85  2.22
460.5  102783.50  2279.98  2.22
462.0  104843.70  2324.14  2.22
463.4  106862.70  2373.22  2.22
464.8  108867.15  2419.95  2.22
466.3  110817.98  2459.96  2.22
467.7  112880.00  2507.58  2.22
469.2  114790.20  2549.51  2.22
470.6  116827.38  2601.42  2.23
472.0  118917.80  2647.62  2.23
473.5  120964.63  2688.53  2.22
474.9  123176.05  2739.26  2.22
476.4  125294.60  2787.94  2.23
477.8  127428.00  2840.00  2.23
479.2  129503.53  2898.58  2.24
480.7  131678.33  2949.36  2.24
482.1  133928.30  3010.58  2.25
483.6  136152.00  3055.71  2.24
485.0  138448.28  3117.21  2.25
486.4  140571.53  3171.14  2.26
487.9  142860.25  3231.26  2.26
489.3  145052.78  3291.88  2.27
490.7  147285.65  3359.81  2.28
492.2  149564.63  3429.32  2.29
493.6  151857.80  3506.50  2.31
495.0  154155.30  3581.50  2.32
496.5  156378.60  3658.50  2.34
497.9  158729.75  3750.91  2.36
499.3  161056.50  3853.59  2.39
500.7  163347.60  3964.69  2.43
502.2  165793.65  4083.22  2.46
503.6  168128.40  4221.94  2.51
505.0  170459.85  4372.84  2.57
506.5  172927.35  4548.97  2.63
507.9  175404.98  4757.32  2.71
509.3  177736.50  4980.21  2.80
510.7  180422.78  5248.38  2.91
512.2  183096.38  5573.68  3.04
513.6  185979.30  5948.99  3.20
515.0  188753.25  6376.82  3.38
516.4  191663.00  6863.05  3.58
517.8  194483.25  7409.40  3.81
519.3  197417.60  8025.29  4.07
520.7  200133.50  8690.07  4.34
522.1  202852.00  9400.15  4.63
523.5  205452.68  10144.96  4.94
524.9  208372.58  10913.60  5.24
526.3  211077.23  11663.04  5.53
527.8  213886.00  12415.07  5.80
529.2  216432.00  13154.74  6.08
530.6  219210.30  13886.23  6.33
532.0  222193.08  14574.21  6.56
533.4  224759.25  15174.47  6.75
534.8  227285.03  15727.41  6.92
536.3  230356.85  16267.72  7.06
537.7  233382.00  16767.14  7.18
539.1  236324.73  17222.09  7.29
540.5  239219.25  17656.71  7.38
541.9  242191.68  18079.53  7.46
543.3  244764.80  18472.90  7.55
544.7  247742.00  18901.14  7.63
546.1  250548.20  19317.13  7.71
547.5  253497.60  19734.17  7.78
549.0  256668.40  20154.13  7.85
550.4  259582.05  20529.60  7.91
551.8  262500.43  20856.22  7.95
553.2  265422.30  21118.42  7.96
554.6  268309.10  21302.65  7.94
556.0  271280.10  21403.50  7.89
557.4  274401.10  21433.24  7.81
558.8  277316.15  21370.99  7.71
560.2  280520.00  21268.57  7.58
561.6  283499.15  21082.57  7.44
563.0  286331.50  20833.18  7.28
564.4  289518.60  20559.07  7.10
565.8  292557.70  20218.23  6.91
567.2  295735.20  19842.09  6.71
568.6  298788.08  19408.44  6.50
570.0  301707.25  18940.07  6.28
571.4  305147.33  18486.96  6.06
572.8  308352.60  18024.92  5.85
574.2  311251.50  17576.70  5.65
575.6  314319.38  17166.13  5.46
577.0  317402.25  16806.87  5.30
578.4  320840.63  16512.50  5.15
579.8  323950.63  16232.48  5.01
581.2  327030.50  15998.81  4.89
582.5  329940.00  15788.57  4.79
583.9  333054.40  15608.95  4.69
585.3  335965.90  15456.41  4.60
586.7  338969.40  15329.60  4.52
588.1  341997.40  15229.32  4.45
589.5  345384.30  15175.17  4.39
590.9  348369.15  15127.74  4.34
592.3  351326.48  15105.34  4.30
593.7  354317.95  15111.62  4.26
595.0  357315.00  15139.54  4.24
596.4  360637.75  15176.12  4.21
597.8  363347.60  15189.09  4.18
599.2  366484.95  15219.66  4.15
600.6  369686.63  15215.91  4.12
602.0  372681.00  15192.51  4.08
603.3  375622.00  15127.05  4.03
604.7  378689.00  15030.67  3.97
606.1  381743.03  14896.60  3.90
607.5  385080.53  14754.75  3.83
608.9  388187.80  14576.10  3.75
610.2  391386.60  14395.54  3.68
611.6  394322.50  14195.24  3.60
613.0  397188.35  13991.88  3.52
614.4  399997.70  13810.91  3.45
615.8  403291.20  13661.95  3.39
617.1  406016.63  13504.99  3.33
618.5  409320.00  13408.48  3.28
619.9  412072.95  13307.24  3.23
621.3  415044.83  13253.16  3.19
622.6  418011.75  13226.57  3.16
624.0  420734.25  13221.22  3.14
625.4  423907.13  13241.59  3.12
626.8  426875.15  13281.98  3.11
628.1  429745.40  13323.30  3.10
629.5  432522.13  13384.95  3.09
630.9  435375.30  13454.01  3.09
632.2  438459.50  13526.38  3.08
633.6  440905.40  13548.91  3.07
635.0  443876.48  13566.86  3.06
636.3  446966.78  13544.88  3.03
637.7  449687.55  13479.17  3.00
639.1  452723.70  13375.27  2.95
640.4  455483.25  13240.29  2.91
641.8  458348.40  13093.71  2.86
643.2  460966.10  12928.28  2.80
644.5  463855.00  12776.67  2.75
645.9  466549.30  12621.63  2.71
647.2  469366.98  12505.17  2.66
648.6  472234.80  12408.61  2.63
650.0  475023.60  12325.37  2.59
651.3  477438.80  12269.65  2.57
652.7  480864.75  12242.50  2.55
654.0  483840.90  12211.18  2.52
655.4  486253.43  12167.80  2.50
656.8  487865.70  12088.95  2.48
658.1  490567.35  12018.40  2.45
659.5  493819.20  11947.88  2.42
660.8  496969.20  11894.10  2.39
662.2  499818.70  11835.04  2.37
663.5  502651.40  11786.07  2.34
664.9  504640.98  11746.19  2.33
666.2  506770.23  11726.37  2.31
667.6  509280.75  11754.22  2.31
668.9  512049.60  11824.46  2.31
670.3  515014.50  11894.75  2.31
671.6  517237.60  11993.14  2.32
673.0  519569.60  12126.40  2.33
674.3  522090.80  12269.40  2.35
675.7  524646.90  12460.37  2.38
677.0  527010.23  12639.35  2.40
678.4  529230.20  12852.91  2.43
679.7  531654.98  13093.77  2.46
681.1  534268.48  13374.70  2.50
682.4  536509.88  13673.00  2.55
683.8  538925.25  14016.03  2.60
685.1  541152.60  14404.70  2.66
686.4  543342.15  14868.81  2.74
687.8  545898.60  15448.35  2.83
689.1  548268.00  16173.13  2.95
690.5  550194.00  17160.40  3.12
691.8  553028.58  18561.14  3.36
693.1  555451.50  20478.14  3.69
694.5  557830.50  23031.98  4.13
695.8  560277.70  26307.40  4.70
697.1  562506.40  30356.93  5.40
698.5  564856.50  35219.92  6.24
699.8  567323.20  40834.51  7.20
701.1  569220.23  47106.65  8.28
702.5  571335.50  53937.84  9.44
703.8  573796.30  61236.79  10.67
705.1  575664.15  68793.43  11.95
706.5  577980.35  76624.27  13.26
707.8  579847.93  84550.27  14.58
709.1  582171.28  92614.39  15.91
710.5  584451.60  100723.57  17.23
711.8  586391.00  108830.95  18.56
713.1  588326.00  116955.91  19.88
714.4  590432.08  125088.02  21.19
715.8  592755.08  133228.92  22.48
717.1  595038.50  141297.76  23.75
718.4  597324.83  149278.14  24.99
719.7  599612.40  157157.14  26.21
721.0  601341.40  164781.50  27.40
722.4  603199.35  172263.69  28.56
723.7  605173.85  179576.19  29.67
725.0  606898.98  186604.77  30.75
726.3  609252.80  193574.95  31.77
727.6  611004.00  200085.86  32.75
729.0  612965.50  206366.53  33.67
730.3  614996.05  212393.46  34.54
731.6  616521.90  217953.15  35.35
732.9  618490.93  223388.22  36.12
734.2  620140.13  228426.39  36.83
735.5  621981.25  233232.37  37.50
736.8  624006.95  237813.37  38.11
738.1  625901.85  242059.95  38.67
739.5  627721.50  246009.06  39.19
740.8  629655.13  249786.87  39.67
742.1  631285.20  253212.39  40.11
743.4  632985.15  256473.53  40.52
744.7  634942.00  259597.33  40.89
746.0  636489.80  262315.05  41.21
747.3  638098.30  264858.40  41.51
748.6  639663.25  267203.98  41.77
749.9  641494.83  269494.48  42.01
751.2  642794.75  271439.45  42.23
752.5  644324.00  273361.93  42.43
753.8  645744.15  275074.29  42.60
755.1  647403.18  276760.43  42.75
756.4  648640.00  278123.71  42.88
757.7  650691.25  279754.36  42.99
759.0  654323.55  281993.74  43.10
760.3  657107.85  283745.93  43.18
761.6  659966.75  285498.49  43.26
762.9  661432.75  286593.74  43.33
764.2  662287.65  287323.38  43.38
765.5  663217.88  288042.15  43.43
766.8  663790.35  288569.07  43.47
768.1  664930.35  289282.20  43.51
769.3  666220.30  290052.89  43.54
770.6  667659.05  290868.12  43.57
771.9  668885.88  291577.54  43.59
773.2  670345.65  292361.55  43.61
774.5  671288.10  292884.93  43.63
775.8  672416.73  293458.36  43.64
777.1  673693.35  294091.50  43.65
778.4  675019.25  294754.62  43.67
779.6  676458.60  295423.20  43.67
780.9  677099.25  295817.40  43.69
782.2  678126.25  296311.14  43.70
783.5  679058.75  296792.48  43.71
784.8  679943.25  297188.75  43.71
786.0  680794.90  297621.83  43.72
787.3  681755.45  298042.97  43.72
788.6  682694.38  298502.99  43.72
789.9  683373.00  298871.65  43.73
791.2  684855.10  299517.31  43.73
792.4  685994.38  300050.80  43.74
793.7  687619.35  300772.23  43.74
795.0  688779.35  301273.23  43.74
796.2  690167.70  301912.80  43.74
797.5  691400.63  302462.02  43.75
798.8  692839.88  303109.83  43.75
800.0  693980.00  303646.67  43.75
801.3  695283.75  304215.75  43.75
802.6  696456.00  304710.85  43.75
803.8  697568.03  305237.05  43.76
805.1  698635.88  305729.93  43.76
806.4  699613.75  306183.90  43.76
807.7  700806.98  306726.54  43.77
808.9  701963.83  307280.67  43.77
810.2  702951.90  307692.00  43.77
811.4  703999.20  308213.07  43.78
812.7  705394.90  308836.99  43.78
814.0  706709.85  309424.50  43.78
815.2  708091.50  310070.85  43.79
816.5  709222.50  310618.33  43.80
817.7  710143.25  311026.93  43.80
819.0  710955.00  311376.53  43.80
820.2  711787.20  311777.83  43.80
821.5  712848.20  312300.42  43.81
822.7  713847.05  312797.47  43.82
824.0  714758.85  313239.15  43.82
825.2  715511.55  313556.47  43.82
826.5  716298.90  313941.84  43.83
827.7  717350.23  314453.17  43.84
829.0  718382.33  314917.21  43.84
830.2  719299.00  315371.93  43.84
831.5  720168.53  315778.97  43.85
832.7  721014.75  316188.51  43.85
834.0  721730.93  316481.98  43.85
835.2  722779.00  316981.34  43.86
836.4  723460.40  317363.35  43.87
837.7  724185.00  317775.00  43.88
838.9  725347.40  318344.50  43.89
840.1  726202.95  318784.08  43.90
841.4  727142.50  319231.47  43.90
842.6  728072.10  319621.27  43.90
843.8  728794.30  320026.20  43.91
845.1  729727.35  320455.46  43.91
846.3  730646.70  320908.70  43.92
847.5  731480.75  321376.71  43.94
848.8  732422.05  321805.17  43.94
850.0  733515.00  322316.25  43.94
851.2  734300.30  322758.34  43.95
852.5  735527.70  323306.09  43.96
853.7  736290.68  323638.59  43.96
854.9  737388.60  324223.53  43.97
856.1  738380.65  324698.67  43.97
857.4  739170.08  325086.86  43.98
858.6  740110.00  325532.00  43.98
859.8  741282.70  326015.58  43.98
861.0  742270.90  326492.80  43.99
862.2  743318.10  327000.20  43.99
863.5  744263.43  327456.13  44.00
864.7  745200.00  327873.21  44.00
865.9  746064.50  328325.98  44.01
867.1  746712.50  328622.32  44.01
868.3  747854.65  329154.36  44.01
869.5  749300.15  329675.79  44.00
870.8  750212.55  330178.16  44.01
872.0  751200.78  330621.47  44.01
873.2  752005.95  330993.57  44.01
874.4  752848.95  331349.25  44.01
875.6  753942.13  331865.63  44.02
876.8  755436.00  332477.20  44.01
878.0  756449.40  332912.43  44.01
879.2  757418.85  333380.85  44.02
880.4  758454.00  333849.71  44.02
881.6  759411.70  334248.92  44.01
882.8  760633.65  334836.55  44.02
884.0  761627.75  335221.00  44.01
885.2  763040.75  335804.64  44.01
886.5  764393.18  336366.97  44.00
887.7  765441.15  336719.81  43.99
888.8  766807.70  337341.47  43.99
890.0  767707.50  337715.00  43.99
891.2  768736.80  338202.33  43.99
892.4  770058.30  338859.48  44.00
893.6  772076.58  339572.36  43.98
894.8  773621.55  340257.16  43.98
896.0  774893.13  340868.36  43.99
897.2  776840.63  341609.40  43.97
898.4  778745.10  342429.40  43.97
899.6  780013.00  343040.20  43.98
900.8  780594.10  343278.25  43.98
902.0  781254.35  343497.47  43.97
903.2  781417.60  343578.42  43.97
904.3  782730.00  344000.89  43.95
905.5  783857.25  344498.78  43.95
906.7  785000.75  345003.90  43.95
907.9  785893.60  345467.91  43.96
909.1  787053.58  345926.90  43.95
910.2  787657.50  346072.50  43.94
911.4  787603.28  346074.84  43.94
912.6  788367.50  346290.00  43.92
913.8  789328.40  346696.17  43.92
915.0  789849.80  346856.02  43.91
916.2  789787.95  346937.15  43.93
917.3  790815.68  347269.06  43.91
918.5  791027.85  347367.47  43.91
919.7  791403.00  347355.50  43.89
920.8  791743.73  347405.89  43.88
922.0  791790.73  347402.81  43.88
923.2  792138.60  347619.27  43.88
924.4  792807.25  347888.87  43.88
925.5  793817.40  348157.79  43.86
926.7  794527.93  348469.31  43.86
927.9  796112.55  348982.35  43.84
929.0  799024.50  350217.00  43.83
930.2  803635.40  352034.54  43.81
931.4  808744.85  354196.32  43.80
932.5  813357.05  356077.49  43.78
933.7  816061.05  357263.71  43.78
934.9  817468.75  357697.50  43.76
936.0  816419.93  357163.20  43.75
937.2  813439.65  355688.46  43.73
938.3  809760.25  353878.57  43.70
939.5  807534.00  352872.00  43.70
940.7  807683.80  352680.72  43.67
941.8  810553.25  353860.37  43.66
943.0  812473.58  354579.93  43.64
944.2  814716.00  355194.29  43.60
945.3  814108.80  354740.05  43.57
946.5  812323.75  353854.17  43.56
947.6  813726.50  354025.53  43.51
948.8  812388.60  353391.26  43.50
949.9  813039.33  353329.73  43.46
951.1  812799.95  353099.42  43.44
952.2  812583.83  352562.61  43.39
953.4  812689.05  352083.93  43.32
954.5  811017.38  351060.50  43.29
955.7  810697.10  350634.78  43.25
956.8  811289.73  350468.49  43.20
958.0  809991.00  349682.14  43.17
959.1  809676.00  349358.40  43.15
960.3  809375.00  348989.28  43.12
961.4  810466.80  348962.23  43.06
962.6  809949.60  348568.46  43.04
963.7  810488.00  348575.73  43.01
964.9  810226.08  348565.18  43.02
966.0  810756.10  348603.87  43.00
967.2  810768.00  348589.60  42.99
968.3  812488.65  349125.00  42.97
969.5  812963.38  349195.22  42.95
970.6  813636.50  349258.83  42.93
971.8  813011.50  349184.68  42.95
972.9  813414.00  349330.00  42.95
974.0  814337.28  349411.20  42.91
975.2  812953.13  348705.00  42.89
976.3  814155.55  348923.81  42.86
977.5  813841.50  348862.34  42.87
978.6  813587.78  348873.99  42.88
979.7  813243.20  348738.13  42.88
980.9  813090.73  348598.40  42.87
982.0  812966.35  348181.78  42.83
983.2  812396.20  348219.33  42.86
984.3  810954.55  347604.63  42.86
985.4  810746.30  347406.67  42.85
986.6  811915.23  347665.81  42.82
987.7  810670.50  347051.75  42.81
988.9  811353.05  347321.67  42.81
990.0  810848.20  347365.45  42.84
993.1  852630.00  364081.80  42.70
996.9  852441.70  364844.07  42.80
1000.7  852132.30  365401.24  42.88
1004.5  851056.07  365584.28  42.96
1008.4  851759.78  366536.58  43.03
1012.2  852652.96  367568.75  43.11
1016.0  852458.93  368011.07  43.17
1019.8  851070.01  367989.23  43.24
1023.7  849988.65  367903.90  43.28
1027.5  847887.00  367458.13  43.34
1031.3  846742.23  367322.96  43.38
1035.1  845905.65  367252.30  43.42
1038.9  845576.08  367323.25  43.44
1042.7  845089.73  367390.75  43.47
1046.5  844338.25  367243.88  43.49
1050.3  842726.90  366666.75  43.51
1054.2  840674.73  365914.80  43.53
1058.0  839678.40  365549.14  43.53
1061.8  838461.08  365147.93  43.55
1065.6  836618.25  364313.55  43.55
1069.4  834706.02  363469.39  43.54
1073.2  833012.38  362687.46  43.54
1077.0  831459.20  361929.75  43.53
1080.8  830619.17  361357.85  43.50
1084.6  829669.50  360766.74  43.48
1088.4  828527.05  360157.14  43.47
1092.2  827123.50  359324.07  43.44
1096.0  825775.00  358502.00  43.41
1099.8  824325.50  357581.59  43.38
1103.6  822647.07  356547.40  43.34
1107.4  821161.53  355558.06  43.30
1111.2  819629.42  354570.81  43.26
1114.9  818442.00  353668.93  43.21
1118.7  817661.50  352808.61  43.15
1122.5  817448.56  352041.90  43.07
1126.3  814917.60  350131.05  42.97
1130.1  814260.68  348647.08  42.82
1133.9  810900.88  345542.12  42.61
1137.7  808390.80  342390.69  42.35
1141.4  804755.65  338441.58  42.06
1145.2  803876.42  335399.09  41.72
1149.0  801931.35  332071.24  41.41
1152.8  798701.80  328501.65  41.13
1156.6  795268.36  325406.83  40.92
1160.3  792169.50  322899.71  40.76
1164.1  787556.13  320154.84  40.65
1167.9  784460.29  318312.04  40.58
1171.7  781912.63  316854.48  40.52
1175.4  779577.07  315601.36  40.48
1179.2  777663.00  314433.64  40.43
1183.0  777793.38  314045.07  40.38
1186.7  777737.33  313612.67  40.32
1190.5  776157.33  312643.30  40.28
1194.3  773230.38  311276.73  40.26
1198.0  770307.38  309992.25  40.24
1201.8  767844.00  308960.67  40.24
1205.6  766158.54  308399.83  40.25
1209.3  764905.50  308161.71  40.29
1213.1  763438.83  307920.52  40.33
1216.8  761558.67  307659.58  40.40
1220.6  759402.50  307340.40  40.47
1224.3  757120.83  306972.02  40.54
1228.1  755138.58  306768.32  40.62
1231.9  752892.40  306361.81  40.69
1235.6  750511.03  305802.36  40.75
1239.4  748194.93  305307.98  40.81
1243.1  746002.80  304705.03  40.85
1246.9  743996.00  304097.59  40.87
1250.6  741964.70  303411.89  40.89
1254.3  740030.40  302747.66  40.91
1258.1  737978.00  301990.67  40.92
1261.8  735521.03  301014.23  40.93
1265.6  733035.04  299970.10  40.92
1269.3  730501.93  298827.72  40.91
1273.1  730938.94  298791.38  40.88
1276.8  731278.80  298659.97  40.84
1280.6  730870.33  298210.66  40.80
1284.3  728295.15  296819.93  40.76
1288.0  726260.28  295531.54  40.69
1291.8  724437.00  294175.80  40.61
1295.5  722547.22  292751.11  40.52
1299.2  720252.00  291043.63  40.41
1302.9  717461.71  288960.23  40.28
1306.7  714465.68  286638.08  40.12
1310.4  711509.25  284094.32  39.93
1314.1  709115.63  281646.16  39.72
1317.9  706631.68  278916.41  39.47
1321.6  703851.63  275861.41  39.19
1325.3  701011.13  272533.95  38.88
1329.0  698328.40  269171.47  38.55
1332.8  694550.00  265137.68  38.17
1336.5  690903.42  261139.69  37.80
1340.2  688971.90  257764.78  37.41
