/*** Spectra Vista SIG Data ***/
name= 24_20220926_TITO_08_avg.sig
comm= Averaged Ref/Tar of files: HR.092622.0068_moc.sig,HR.092622.0069_moc.sig
data=
337.3  3027.13  198.50  6.56
338.8  3174.60  202.02  6.36
340.3  3326.35  192.09  5.77
341.8  3520.83  210.34  5.97
343.2  3640.80  226.44  6.22
344.7  3795.85  217.52  5.73
346.2  3962.45  208.34  5.26
347.7  4168.45  196.63  4.72
349.2  4384.80  181.44  4.14
350.6  4590.63  201.99  4.40
352.1  4894.33  203.64  4.16
353.6  5135.60  225.55  4.39
355.1  5388.00  225.63  4.19
356.6  5670.08  222.87  3.93
358.0  5965.30  229.68  3.85
359.5  6210.90  225.57  3.63
361.0  6553.58  236.41  3.61
362.5  6908.90  248.84  3.60
364.0  7254.78  260.95  3.60
365.4  7615.10  269.76  3.54
366.9  7956.00  279.02  3.51
368.4  8318.88  278.21  3.34
369.9  8675.03  289.17  3.33
371.3  9078.00  304.38  3.35
372.8  9504.90  323.91  3.41
374.3  9916.88  333.25  3.36
375.8  10348.80  339.57  3.28
377.2  10786.90  347.01  3.22
378.7  11190.40  344.32  3.08
380.2  11593.90  357.77  3.09
381.7  12080.18  370.25  3.06
383.1  12558.70  382.69  3.05
384.6  13055.90  396.54  3.04
386.1  13539.53  399.97  2.95
387.6  14014.00  415.03  2.96
389.0  14498.80  420.76  2.90
390.5  15000.75  430.11  2.87
392.0  15552.60  441.72  2.84
393.4  16106.58  454.56  2.82
394.9  16677.90  469.80  2.82
396.4  17206.88  483.87  2.81
397.9  17732.50  489.44  2.76
399.3  18309.98  501.44  2.74
400.8  18893.15  518.44  2.74
402.2  19517.25  530.28  2.72
403.7  20102.63  541.69  2.69
405.2  20739.30  558.73  2.69
406.6  21320.80  575.36  2.70
408.1  21899.40  583.08  2.66
409.6  22520.70  601.43  2.67
411.0  23186.10  621.29  2.68
412.5  23844.63  639.33  2.68
414.0  24511.13  649.97  2.65
415.4  25221.38  667.80  2.65
416.9  25867.05  686.19  2.65
418.4  26593.20  705.92  2.65
419.8  27300.00  729.82  2.67
421.3  28038.73  757.57  2.70
422.7  28814.40  779.52  2.71
424.2  29581.88  798.19  2.70
425.7  30366.90  823.15  2.71
427.1  31127.78  848.22  2.72
428.6  31930.00  875.75  2.74
430.0  32671.78  901.40  2.76
431.5  33536.48  925.35  2.76
432.9  34412.85  955.18  2.78
434.4  35325.45  984.13  2.79
435.9  36162.00  1012.20  2.80
437.3  37028.75  1038.13  2.80
438.8  37860.68  1065.64  2.81
440.2  38727.15  1091.48  2.82
441.7  39690.80  1124.26  2.83
443.1  40611.25  1152.75  2.84
444.6  41579.40  1188.17  2.86
446.0  42532.05  1224.84  2.88
447.5  43505.55  1256.31  2.89
448.9  44440.50  1290.00  2.90
450.4  45454.50  1319.61  2.90
451.8  46345.00  1348.10  2.91
453.3  47266.13  1378.11  2.92
454.7  48273.20  1415.00  2.93
456.2  49157.33  1446.82  2.94
457.6  50126.40  1481.49  2.96
459.1  51114.70  1515.06  2.96
460.5  52055.50  1546.15  2.97
462.0  53139.73  1577.02  2.97
463.4  54169.80  1607.01  2.97
464.8  55167.00  1640.03  2.97
466.3  56142.08  1675.99  2.99
467.7  57130.43  1705.89  2.99
469.2  58200.13  1741.08  2.99
470.6  59206.70  1768.90  2.99
472.0  60255.08  1804.42  2.99
473.5  61274.25  1840.49  3.00
474.9  62315.25  1873.88  3.01
476.4  63475.20  1912.32  3.01
477.8  64539.50  1951.70  3.02
479.2  65554.50  1985.05  3.03
480.7  66657.38  2017.82  3.03
482.1  67813.85  2054.79  3.03
483.6  69013.20  2092.36  3.03
485.0  70102.43  2129.28  3.04
486.4  71309.55  2172.32  3.05
487.9  72393.75  2217.15  3.06
489.3  73551.38  2260.29  3.07
490.7  74611.58  2304.47  3.09
492.2  75852.00  2356.41  3.11
493.6  76971.10  2408.46  3.13
495.0  78097.50  2461.39  3.15
496.5  79274.35  2521.17  3.18
497.9  80404.33  2575.47  3.20
499.3  81563.65  2644.44  3.24
500.7  82831.10  2716.11  3.28
502.2  83993.80  2798.82  3.33
503.6  85264.00  2893.72  3.39
505.0  86361.75  2988.60  3.46
506.5  87689.63  3104.23  3.54
507.9  88861.05  3227.41  3.63
509.3  90220.80  3374.40  3.74
510.7  91450.13  3537.79  3.87
512.2  92842.65  3722.97  4.01
513.6  94336.90  3939.08  4.18
515.0  95776.93  4176.46  4.36
516.4  97183.80  4442.45  4.57
517.8  98818.50  4757.30  4.81
519.3  100143.63  5072.63  5.07
520.7  101722.00  5430.33  5.34
522.1  103023.70  5794.04  5.62
523.5  104375.10  6174.38  5.92
524.9  105852.60  6576.03  6.21
526.3  107323.65  6969.80  6.49
527.8  108820.80  7374.51  6.78
529.2  109827.90  7746.51  7.05
530.6  111351.70  8148.36  7.32
532.0  113078.00  8540.00  7.55
533.4  114410.10  8880.77  7.76
534.8  115282.33  9166.25  7.95
536.3  116951.40  9487.95  8.11
537.7  118956.60  9828.00  8.26
539.1  120427.58  10106.50  8.39
540.5  121644.75  10350.95  8.51
541.9  123390.23  10636.36  8.62
543.3  124662.75  10879.35  8.73
544.7  125981.40  11122.98  8.83
546.1  127768.30  11401.28  8.92
547.5  129012.80  11627.84  9.01
549.0  130691.00  11887.70  9.10
550.4  132196.25  12110.38  9.16
551.8  133762.23  12318.46  9.21
553.2  135274.15  12490.39  9.23
554.6  136614.40  12615.20  9.23
556.0  138151.80  12720.15  9.21
557.4  139769.53  12796.81  9.16
558.8  141412.05  12846.42  9.08
560.2  142874.13  12844.25  8.99
561.6  144532.20  12827.97  8.88
563.0  146126.25  12776.36  8.74
564.4  147721.10  12697.98  8.60
565.8  149238.75  12583.19  8.43
567.2  150983.75  12460.33  8.25
568.6  152478.38  12297.45  8.07
570.0  153913.40  12103.23  7.86
571.4  155628.20  11920.74  7.66
572.8  157396.50  11740.22  7.46
574.2  159028.80  11557.28  7.27
575.6  160582.50  11382.75  7.09
577.0  162109.80  11224.29  6.92
578.4  163834.13  11100.87  6.78
579.8  165366.23  10981.58  6.64
581.2  167085.13  10890.92  6.52
582.5  168515.10  10800.27  6.41
583.9  170038.00  10732.10  6.31
585.3  171839.25  10689.57  6.22
586.7  173328.35  10637.32  6.14
588.1  174818.25  10602.10  6.06
589.5  176461.25  10588.90  6.00
590.9  178088.80  10593.32  5.95
592.3  179904.25  10619.81  5.90
593.7  181366.58  10635.60  5.86
595.0  182987.10  10669.12  5.83
596.4  184446.85  10690.23  5.80
597.8  185926.50  10718.89  5.77
599.2  187466.40  10738.20  5.73
600.6  189228.33  10762.61  5.69
602.0  190527.60  10741.35  5.64
603.3  192328.70  10728.89  5.58
604.7  194020.90  10693.85  5.51
606.1  195504.60  10627.38  5.44
607.5  197150.15  10557.94  5.36
608.9  198849.65  10479.90  5.27
610.2  200236.05  10376.10  5.18
611.6  201839.25  10276.76  5.09
613.0  203412.65  10174.25  5.00
614.4  204791.25  10067.15  4.92
615.8  206256.38  9977.18  4.84
617.1  207799.20  9904.86  4.77
618.5  209449.60  9847.92  4.70
619.9  210979.80  9804.24  4.65
621.3  212617.80  9777.65  4.60
622.6  214216.75  9775.25  4.56
624.0  215697.45  9778.31  4.53
625.4  217177.13  9792.18  4.51
626.8  218777.65  9838.47  4.50
628.1  220092.13  9876.16  4.49
629.5  221897.70  9943.10  4.48
630.9  223409.45  9997.90  4.48
632.2  224715.05  10035.62  4.47
633.6  226272.63  10071.22  4.45
635.0  227762.40  10079.20  4.43
636.3  229294.20  10068.60  4.39
637.7  230670.50  10020.17  4.34
639.1  232347.50  9955.75  4.28
640.4  233822.58  9859.12  4.22
641.8  235058.28  9739.58  4.14
643.2  236650.23  9627.16  4.07
644.5  238016.50  9497.30  3.99
645.9  239665.50  9376.29  3.91
647.2  241127.08  9262.82  3.84
648.6  242838.00  9183.38  3.78
650.0  244252.80  9108.72  3.73
651.3  244866.60  9025.01  3.69
652.7  246542.80  8984.89  3.64
654.0  248625.30  8967.64  3.61
655.4  250069.50  8914.14  3.56
656.8  250222.10  8805.33  3.52
658.1  251584.10  8744.04  3.48
659.5  253991.33  8716.21  3.43
660.8  255690.00  8651.25  3.38
662.2  256726.40  8563.52  3.34
663.5  258313.30  8501.17  3.29
664.9  259454.00  8446.62  3.26
666.2  260228.40  8396.04  3.23
667.6  261983.88  8398.67  3.21
668.9  263024.43  8404.08  3.20
670.3  264584.38  8437.62  3.19
671.6  265876.13  8482.73  3.19
673.0  267070.88  8546.89  3.20
674.3  268338.20  8632.26  3.22
675.7  269690.28  8732.87  3.24
677.0  270775.35  8845.24  3.27
678.4  272118.88  8972.99  3.30
679.7  273220.13  9116.15  3.34
681.1  274546.78  9293.58  3.39
682.4  275675.40  9491.95  3.44
683.8  276913.00  9724.00  3.51
685.1  277912.13  9998.29  3.60
686.4  279209.40  10327.44  3.70
687.8  280483.50  10748.98  3.83
689.1  281573.75  11294.10  4.01
690.5  282861.60  12037.71  4.26
691.8  283746.88  13004.04  4.58
693.1  285072.90  14326.13  5.03
694.5  286217.75  15990.98  5.59
695.8  287491.75  18047.58  6.28
697.1  288674.75  20513.68  7.11
698.5  289742.80  23381.00  8.07
699.8  290852.23  26620.45  9.15
701.1  292008.65  30200.84  10.34
702.5  292834.30  33994.13  11.61
703.8  293805.00  37975.50  12.93
705.1  294978.45  42105.18  14.27
706.5  296043.63  46298.35  15.64
707.8  297031.50  50522.18  17.01
709.1  297904.80  54705.18  18.36
710.5  299021.05  58913.45  19.70
711.8  299890.40  63028.72  21.02
713.1  300916.20  67131.92  22.31
714.4  301852.80  71139.23  23.57
715.8  302700.20  75059.57  24.80
717.1  304027.05  79005.02  25.99
718.4  304976.00  82761.28  27.14
719.7  306109.50  86450.09  28.24
721.0  306675.00  89856.00  29.30
722.4  307469.25  93212.68  30.32
723.7  308425.05  96486.74  31.28
725.0  309514.50  99658.22  32.20
726.3  310488.48  102641.75  33.06
727.6  311036.28  105362.49  33.87
729.0  311986.33  108050.11  34.63
730.3  312817.65  110561.45  35.34
731.6  313751.95  112953.48  36.00
732.9  314561.63  115176.34  36.61
734.2  315375.50  117279.39  37.19
735.5  316411.25  119342.33  37.72
736.8  317248.20  121197.06  38.20
738.1  318132.90  122953.55  38.65
739.5  319134.18  124648.72  39.06
740.8  319888.25  126139.26  39.43
742.1  320588.50  127534.27  39.78
743.4  321250.00  128837.50  40.11
744.7  322189.65  130157.27  40.40
746.0  323111.10  131366.24  40.66
747.3  323733.58  132385.42  40.89
748.6  324501.50  133382.43  41.10
749.9  325234.00  134305.60  41.30
751.2  325855.15  135135.36  41.47
752.5  326665.80  135990.46  41.63
753.8  327241.25  136698.19  41.77
755.1  327938.00  137402.20  41.90
756.4  328583.75  138028.56  42.01
757.7  329640.15  138784.19  42.10
759.0  331484.00  139844.82  42.19
760.3  332692.80  140603.76  42.26
761.6  334255.60  141512.00  42.34
762.9  334803.00  141946.20  42.40
764.2  335227.80  142298.31  42.45
765.5  335542.40  142583.90  42.49
766.8  336001.60  142919.68  42.54
768.1  336526.80  143282.82  42.58
769.3  337108.80  143650.05  42.61
770.6  337803.70  144034.74  42.64
771.9  338522.63  144450.41  42.67
773.2  338954.00  144703.68  42.69
774.5  339567.80  145050.62  42.72
775.8  340256.90  145427.08  42.74
777.1  340850.95  145747.09  42.76
778.4  341182.88  145965.66  42.78
779.6  341986.13  146359.96  42.80
780.9  342450.00  146631.00  42.82
782.2  342944.25  146897.03  42.83
783.5  343277.50  147095.40  42.85
784.8  343791.23  147371.25  42.87
786.0  344176.35  147601.16  42.89
787.3  344588.30  147831.78  42.90
788.6  345014.83  148072.18  42.92
789.9  345473.80  148326.08  42.93
791.2  346141.95  148665.79  42.95
792.4  346831.05  148997.54  42.96
793.7  347326.60  149257.92  42.97
795.0  347957.78  149577.54  42.99
796.2  348615.85  149908.93  43.00
797.5  349333.50  150255.08  43.01
798.8  349995.60  150579.83  43.02
800.0  350685.25  150912.39  43.03
801.3  351144.70  151165.14  43.05
802.6  351749.93  151460.42  43.06
803.8  352381.83  151781.81  43.07
805.1  352884.88  152042.63  43.09
806.4  353339.40  152274.27  43.10
807.7  353893.05  152549.53  43.11
808.9  354445.00  152828.12  43.12
810.2  354961.25  153086.19  43.13
811.4  355446.40  153342.40  43.14
812.7  356078.13  153660.00  43.15
814.0  356893.95  154053.26  43.16
815.2  357547.00  154366.45  43.17
816.5  357984.70  154591.22  43.18
817.7  358483.10  154825.62  43.19
819.0  358940.45  155081.74  43.21
820.2  359084.00  155188.00  43.22
821.5  359789.70  155529.35  43.23
822.7  360162.63  155727.89  43.24
824.0  360452.70  155917.71  43.26
825.2  360956.25  156161.32  43.26
826.5  361228.28  156347.88  43.28
827.7  361820.35  156604.73  43.28
829.0  362221.65  156806.80  43.29
830.2  362517.95  156974.08  43.30
831.5  362985.70  157225.27  43.31
832.7  363298.95  157388.81  43.32
834.0  363626.75  157580.22  43.34
835.2  363998.25  157758.84  43.34
836.4  364273.80  157937.34  43.36
837.7  364657.60  158150.18  43.37
838.9  365037.10  158384.69  43.39
840.1  365395.05  158589.97  43.40
841.4  365867.00  158819.28  43.41
842.6  366220.80  159013.58  43.42
843.8  366543.00  159210.34  43.44
845.1  367020.40  159479.39  43.45
846.3  367391.30  159679.69  43.46
847.5  367775.10  159917.31  43.48
848.8  368142.60  160129.98  43.50
850.0  368507.30  160321.35  43.51
851.2  368961.75  160585.61  43.52
852.5  369339.20  160807.87  43.54
853.7  369837.00  161056.58  43.55
854.9  370226.10  161290.61  43.57
856.1  370635.20  161530.27  43.58
857.4  370867.10  161640.54  43.58
858.6  371327.85  161883.57  43.60
859.8  371711.25  162087.75  43.61
861.0  372130.20  162302.40  43.61
862.2  372575.15  162527.21  43.62
863.5  372915.40  162712.36  43.63
864.7  373381.80  162943.44  43.64
865.9  373752.80  163160.86  43.65
867.1  374012.60  163315.38  43.67
868.3  374399.70  163524.80  43.68
869.5  374921.40  163774.69  43.68
870.8  375462.00  164016.00  43.68
872.0  375876.83  164246.04  43.70
873.2  376292.25  164466.68  43.71
874.4  376710.75  164654.98  43.71
875.6  377016.65  164847.06  43.72
876.8  377603.30  165074.42  43.72
878.0  378039.50  165316.76  43.73
879.2  378537.00  165547.95  43.73
880.4  379072.13  165753.12  43.73
881.6  379488.03  165978.44  43.74
882.8  379807.20  166175.28  43.75
884.0  380410.55  166440.44  43.75
885.2  380881.10  166665.08  43.76
886.5  381521.90  166931.38  43.75
887.7  381886.05  167158.42  43.77
888.8  382533.53  167434.86  43.77
890.0  383020.35  167685.81  43.78
891.2  383607.80  167919.77  43.77
892.4  384186.08  168184.75  43.78
893.6  384821.90  168448.71  43.77
894.8  385623.75  168843.58  43.78
896.0  386380.25  169231.18  43.80
897.2  387182.25  169582.40  43.80
898.4  387921.60  169899.84  43.80
899.6  388492.50  170116.09  43.79
900.8  388912.83  170282.46  43.78
902.0  389084.10  170371.35  43.79
903.2  389387.70  170525.34  43.79
904.3  389533.80  170666.01  43.81
905.5  390206.53  170937.51  43.81
906.7  390780.50  171158.00  43.80
907.9  391279.70  171389.26  43.80
909.1  391546.58  171530.80  43.81
910.2  391631.48  171562.30  43.81
911.4  391914.90  171648.66  43.80
912.6  392120.30  171750.15  43.80
913.8  392225.18  171824.94  43.81
915.0  392592.90  172031.16  43.82
916.2  392798.25  172101.15  43.81
917.3  392748.08  172079.42  43.81
918.5  393032.10  172174.34  43.81
919.7  393202.95  172238.42  43.80
920.8  393221.90  172227.47  43.80
922.0  393335.25  172304.83  43.81
923.2  393529.50  172399.50  43.81
924.4  393676.88  172470.60  43.81
925.5  393822.10  172526.91  43.81
926.7  394521.13  172743.59  43.79
927.9  395481.00  173071.74  43.76
929.0  396863.55  173651.72  43.76
930.2  398965.80  174536.28  43.75
931.4  401296.28  175580.53  43.75
932.5  403899.00  176729.30  43.76
933.7  405322.80  177328.73  43.75
934.9  406144.38  177544.50  43.71
936.0  405717.00  177238.59  43.69
937.2  403532.55  176270.43  43.68
938.3  401661.45  175423.93  43.67
939.5  400158.00  174715.92  43.66
940.7  400355.10  174787.92  43.66
941.8  401898.68  175319.75  43.62
943.0  403312.50  175898.03  43.61
944.2  404021.80  176165.93  43.60
945.3  403659.75  175876.35  43.57
946.5  402884.55  175396.46  43.54
947.6  402949.10  175367.72  43.52
948.8  402795.90  175185.18  43.49
949.9  402893.40  175054.32  43.45
951.1  402654.20  174777.59  43.41
952.2  402288.00  174542.40  43.39
953.4  402065.00  174172.90  43.32
954.5  401824.80  174018.78  43.31
955.7  401839.20  173823.30  43.26
956.8  401589.70  173557.35  43.22
958.0  401358.00  173257.30  43.17
959.1  401113.33  173040.79  43.14
960.3  400846.43  172757.22  43.10
961.4  400611.40  172628.80  43.09
962.6  400622.25  172596.03  43.08
963.7  400370.40  172340.82  43.05
964.9  400133.85  172253.36  43.05
966.0  399907.13  172127.23  43.04
967.2  399923.10  172146.56  43.04
968.3  399969.90  172008.77  43.01
969.5  399512.68  171910.67  43.03
970.6  399595.40  171906.87  43.02
971.8  399732.38  171959.78  43.02
972.9  399648.00  171879.87  43.01
974.0  400205.20  172107.79  43.00
975.2  399798.50  171927.00  43.00
976.3  400113.90  171912.74  42.97
977.5  399730.98  171804.91  42.98
978.6  400100.00  171842.95  42.95
979.7  400090.95  171716.32  42.92
980.9  399519.55  171802.43  43.00
982.0  399798.35  171774.11  42.97
983.2  399543.35  171619.71  42.95
984.3  398605.40  171405.76  43.00
985.4  398638.18  171258.20  42.96
986.6  398567.13  171033.82  42.91
987.7  399161.70  171535.18  42.97
988.9  399162.60  171453.78  42.95
990.0  400235.00  171664.43  42.89
993.1  372526.35  160008.27  42.95
996.9  372136.60  160229.88  43.06
1000.7  372548.63  160758.22  43.15
1004.5  372852.08  161200.43  43.23
1008.4  372541.25  161408.56  43.33
1012.2  372405.54  161676.99  43.41
1016.0  372256.20  161875.42  43.48
1019.8  371990.85  162032.07  43.56
1023.7  371410.98  162005.50  43.62
1027.5  370423.65  161790.27  43.68
1031.3  370057.83  161795.79  43.72
1035.1  369501.18  161697.04  43.76
1038.9  369253.13  161739.29  43.80
1042.7  369031.33  161761.48  43.83
1046.5  368887.33  161802.93  43.86
1050.3  368899.57  161880.82  43.88
1054.2  368588.50  161842.13  43.91
1058.0  368134.26  161692.36  43.92
1061.8  368057.73  161736.49  43.94
1065.6  367668.07  161568.61  43.94
1069.4  367306.07  161429.20  43.95
1073.2  366488.03  161070.17  43.95
1077.0  365854.63  160771.01  43.94
1080.8  365611.46  160613.40  43.93
1084.6  365107.98  160340.43  43.92
1088.4  364917.47  160230.01  43.91
1092.2  364279.50  159893.04  43.89
1096.0  363717.19  159550.11  43.87
1099.8  363164.75  159194.01  43.84
1103.6  362367.57  158740.43  43.81
1107.4  361385.74  158174.92  43.77
1111.2  361124.90  157943.42  43.74
1114.9  360529.17  157514.63  43.69
1118.7  360077.85  157125.20  43.64
1122.5  359583.47  156634.59  43.56
1126.3  358607.90  155854.14  43.46
1130.1  358187.70  155149.07  43.32
1133.9  356565.30  153707.25  43.11
1137.7  355096.90  152167.87  42.85
1141.4  353257.13  150281.68  42.54
1145.2  352445.46  148739.11  42.20
1149.0  351273.13  147124.38  41.88
1152.8  349616.55  145474.53  41.61
1156.6  347877.02  144048.03  41.41
1160.3  346166.00  142855.79  41.27
1164.1  343846.77  141578.06  41.17
1167.9  342148.96  140690.18  41.12
1171.7  340885.13  140043.94  41.08
1175.4  339572.43  139430.01  41.06
1179.2  338350.70  138833.29  41.03
1183.0  338007.33  138571.72  41.00
1186.7  337733.90  138344.75  40.96
1190.5  337040.93  137974.66  40.94
1194.3  336056.33  137499.13  40.92
1198.0  334751.45  136964.68  40.92
1201.8  333144.75  136356.70  40.93
1205.6  331962.67  136010.00  40.97
1209.3  331218.73  135921.47  41.04
1213.1  330543.75  135865.10  41.10
1216.8  329821.07  135837.08  41.19
1220.6  328759.20  135665.20  41.27
1224.3  327559.17  135424.79  41.34
1228.1  326249.80  135140.40  41.42
1231.9  324851.88  134778.54  41.49
1235.6  323262.90  134293.52  41.54
1239.4  321840.00  133896.46  41.60
1243.1  320548.36  133499.86  41.65
1246.9  319318.33  133092.83  41.68
1250.6  318316.67  132747.66  41.70
1254.3  317193.89  132338.72  41.72
1258.1  316060.62  131921.15  41.74
1261.8  314731.87  131385.52  41.75
1265.6  313406.82  130830.22  41.74
1269.3  312283.18  130310.41  41.73
1273.1  312469.18  130303.06  41.70
1276.8  312551.20  130221.86  41.66
1280.6  311915.93  129827.42  41.62
1284.3  310206.00  128960.23  41.57
1288.0  308835.29  128185.04  41.51
1291.8  307942.00  127562.05  41.42
1295.5  306936.67  126852.94  41.33
1299.2  305774.08  126041.73  41.22
1302.9  304284.46  125009.37  41.08
1306.7  302683.62  123856.25  40.92
1310.4  301094.24  122628.33  40.73
1314.1  299646.60  121399.66  40.51
1317.9  298372.29  120127.37  40.26
1321.6  296921.13  118706.60  39.98
1325.3  295273.65  117117.23  39.66
1329.0  293974.92  115610.78  39.33
1332.8  291999.40  113747.70  38.95
1336.5  290280.40  111967.92  38.57
1340.2  290032.17  110753.50  38.19
1343.9  289810.00  109542.37  37.80
1347.6  289563.90  108306.71  37.40
1351.4  290408.00  107517.97  37.02
1355.1  291541.43  106843.95  36.65
1358.8  292464.00  106025.15  36.25
