/*** Spectra Vista SIG Data ***/
name= 38_20220825_BENI_58_avg.sig
comm= Averaged Ref/Tar of files: HR.082522.0032_moc.sig,HR.082522.0033_moc.sig,HR.082522.0034_moc.sig
data=
337.3  3374.50  293.97  8.71
338.8  3511.30  284.94  8.11
340.3  3748.00  260.58  6.95
341.8  3932.35  270.87  6.89
343.2  4084.80  274.86  6.73
344.7  4307.65  268.09  6.22
346.2  4452.65  258.33  5.80
347.7  4679.68  243.44  5.20
349.2  4876.20  232.56  4.77
350.6  5141.50  229.44  4.46
352.1  5430.20  232.72  4.29
353.6  5690.80  233.98  4.11
355.1  5994.15  239.25  3.99
356.6  6292.80  241.60  3.84
358.0  6603.30  235.15  3.56
359.5  6890.70  237.78  3.45
361.0  7211.93  242.82  3.37
362.5  7611.50  248.14  3.26
364.0  7971.65  249.61  3.13
365.4  8345.70  258.52  3.10
366.9  8729.50  264.15  3.03
368.4  9109.85  268.07  2.94
369.9  9512.80  279.52  2.94
371.3  9932.40  299.55  3.02
372.8  10354.50  311.01  3.00
374.3  10776.88  311.24  2.89
375.8  11211.20  310.57  2.77
377.2  11647.70  316.14  2.71
378.7  12078.10  316.14  2.62
380.2  12508.50  322.29  2.58
381.7  13053.08  326.36  2.50
383.1  13528.90  334.18  2.47
384.6  14080.95  331.92  2.36
386.1  14566.48  343.35  2.36
387.6  15065.05  352.15  2.34
389.0  15544.00  356.31  2.29
390.5  16062.75  365.13  2.27
392.0  16637.05  374.83  2.25
393.4  17236.40  384.37  2.23
394.9  17826.30  392.25  2.20
396.4  18397.13  403.16  2.19
397.9  18962.50  409.51  2.16
399.3  19525.58  415.33  2.13
400.8  20114.48  425.86  2.12
402.2  20769.30  430.68  2.07
403.7  21378.60  445.27  2.08
405.2  22041.43  457.27  2.07
406.6  22643.20  471.51  2.08
408.1  23255.40  479.98  2.06
409.6  23881.60  492.10  2.06
411.0  24573.85  502.23  2.04
412.5  25260.73  516.46  2.04
414.0  25937.38  529.36  2.04
415.4  26672.25  546.28  2.05
416.9  27370.50  561.36  2.05
418.4  28087.20  575.55  2.05
419.8  28847.00  590.03  2.05
421.3  29589.50  604.69  2.04
422.7  30380.40  621.43  2.05
424.2  31185.00  641.89  2.06
425.7  31996.90  658.83  2.06
427.1  32805.23  674.30  2.06
428.6  33619.50  688.79  2.05
430.0  34386.55  707.59  2.06
431.5  35297.63  725.21  2.05
432.9  36200.15  745.34  2.06
434.4  37130.40  766.73  2.06
435.9  37996.00  784.53  2.06
437.3  38885.00  803.26  2.07
438.8  39774.75  820.45  2.06
440.2  40667.55  840.84  2.07
441.7  41674.00  866.79  2.08
443.1  42612.00  888.63  2.09
444.6  43623.00  914.50  2.10
446.0  44608.05  938.40  2.10
447.5  45612.33  965.07  2.12
448.9  46594.80  989.74  2.12
450.4  47643.05  1017.99  2.14
451.8  48542.00  1047.43  2.16
453.3  49501.95  1073.89  2.17
454.7  50578.83  1104.44  2.18
456.2  51484.93  1135.08  2.20
457.6  52502.63  1158.34  2.21
459.1  53526.53  1183.51  2.21
460.5  54503.13  1210.63  2.22
462.0  55614.80  1236.06  2.22
463.4  56690.60  1264.58  2.23
464.8  57733.88  1292.09  2.24
466.3  58736.70  1320.22  2.25
467.7  59776.53  1342.35  2.25
469.2  60888.45  1369.43  2.25
470.6  61918.35  1396.70  2.26
472.0  63013.78  1424.93  2.26
473.5  64042.75  1455.82  2.27
474.9  65122.50  1490.96  2.29
476.4  66326.40  1520.64  2.29
477.8  67454.00  1554.95  2.31
479.2  68512.50  1586.16  2.32
480.7  69668.18  1621.75  2.33
482.1  70862.80  1657.48  2.34
483.6  72119.95  1700.42  2.36
485.0  73257.98  1738.65  2.37
486.4  74525.10  1785.63  2.40
487.9  75669.75  1829.66  2.42
489.3  76879.23  1880.03  2.45
490.7  77983.60  1931.36  2.48
492.2  79277.10  1998.92  2.52
493.6  80443.15  2064.67  2.57
495.0  81607.50  2145.56  2.63
496.5  82840.38  2228.36  2.69
497.9  83999.70  2327.32  2.77
499.3  85217.73  2432.98  2.86
500.7  86537.55  2560.54  2.96
502.2  87760.60  2704.48  3.08
503.6  89074.60  2881.07  3.23
505.0  90200.05  3076.22  3.41
506.5  91560.68  3307.63  3.61
507.9  92789.68  3572.12  3.85
509.3  94216.80  3882.67  4.12
510.7  95515.88  4229.27  4.43
512.2  96982.50  4640.27  4.78
513.6  98527.10  5104.23  5.18
515.0  100015.98  5620.09  5.62
516.4  101450.48  6189.48  6.10
517.8  103126.63  6821.16  6.61
519.3  104506.88  7492.99  7.17
520.7  106133.70  8215.37  7.74
522.1  107481.73  8945.33  8.32
523.5  108892.60  9702.46  8.91
524.9  110344.50  10453.47  9.47
526.3  111743.45  11186.71  10.01
527.8  113350.05  11928.65  10.52
529.2  114640.60  12637.75  11.02
530.6  116264.70  13349.05  11.48
532.0  118034.00  14035.20  11.89
533.4  119405.70  14631.01  12.25
534.8  120373.95  15124.11  12.56
536.3  122098.50  15678.29  12.84
537.7  124147.80  16241.04  13.08
539.1  125653.38  16703.78  13.29
540.5  126922.65  17120.64  13.49
541.9  128783.18  17595.21  13.66
543.3  130114.58  18003.20  13.84
544.7  131521.80  18417.41  14.00
546.1  133383.25  18888.95  14.16
547.5  134657.60  19264.00  14.31
549.0  136499.00  19693.35  14.43
550.4  138029.38  20057.98  14.53
551.8  139624.65  20393.04  14.61
553.2  141203.00  20680.64  14.65
554.6  142594.40  20880.82  14.64
556.0  144175.50  21045.39  14.60
557.4  145850.95  21162.91  14.51
558.8  147559.95  21235.83  14.39
560.2  149078.38  21225.27  14.24
561.6  150818.48  21196.31  14.05
563.0  152463.63  21107.82  13.84
564.4  154114.40  20975.41  13.61
565.8  155688.13  20787.56  13.35
567.2  157519.75  20574.89  13.06
568.6  159068.63  20284.88  12.75
570.0  160575.23  19939.80  12.42
571.4  162357.65  19600.38  12.07
572.8  164193.88  19258.54  11.73
574.2  165883.20  18916.69  11.40
575.6  167501.25  18583.93  11.09
577.0  169081.90  18276.73  10.81
578.4  170875.25  18022.12  10.55
579.8  172457.78  17773.79  10.31
581.2  174226.90  17572.17  10.09
582.5  175710.60  17369.93  9.89
583.9  177283.20  17201.70  9.70
585.3  179149.28  17082.51  9.54
586.7  180687.65  16956.85  9.38
588.1  182250.88  16858.83  9.25
589.5  183958.25  16800.00  9.13
590.9  185640.40  16761.49  9.03
592.3  187522.10  16770.39  8.94
593.7  189009.60  16773.49  8.87
595.0  190694.93  16800.26  8.81
596.4  192203.90  16821.93  8.75
597.8  193745.35  16842.59  8.69
599.2  195346.80  16856.27  8.63
600.6  197156.70  16861.33  8.55
602.0  198515.48  16794.55  8.46
603.3  200363.85  16731.80  8.35
604.7  202102.83  16616.04  8.22
606.1  203646.60  16440.66  8.07
607.5  205351.98  16237.61  7.91
608.9  207111.05  16012.18  7.73
610.2  208528.43  15739.38  7.55
611.6  210190.73  15470.45  7.36
613.0  211793.65  15197.82  7.18
614.4  213230.25  14919.15  7.00
615.8  214738.88  14663.16  6.83
617.1  216339.90  14438.76  6.67
618.5  218033.60  14256.77  6.54
619.9  219621.38  14097.44  6.42
621.3  221316.08  13987.30  6.32
622.6  222985.50  13908.87  6.24
624.0  224519.40  13863.51  6.17
625.4  226080.53  13851.62  6.13
626.8  227743.43  13876.29  6.09
628.1  229113.23  13908.07  6.07
629.5  231036.03  13983.30  6.05
630.9  232669.25  14039.56  6.03
632.2  234068.28  14063.06  6.01
633.6  235725.63  14070.55  5.97
635.0  237308.40  14022.10  5.91
636.3  238895.70  13904.26  5.82
637.7  240348.38  13709.37  5.70
639.1  242060.00  13463.33  5.56
640.4  243632.20  13150.20  5.40
641.8  244879.85  12791.22  5.22
643.2  246545.95  12422.49  5.04
644.5  247962.75  12030.40  4.85
645.9  249739.20  11655.48  4.67
647.2  251542.03  11312.75  4.50
648.6  253449.00  11014.84  4.35
650.0  255009.60  10745.28  4.21
651.3  255571.53  10468.63  4.10
652.7  256777.00  10239.47  3.99
654.0  258930.30  10048.52  3.88
655.4  260523.23  9825.35  3.77
656.8  260868.40  9551.73  3.66
658.1  262048.80  9268.95  3.54
659.5  264488.70  8995.60  3.40
660.8  266265.00  8706.43  3.27
662.2  267187.20  8394.24  3.14
663.5  268923.15  8140.65  3.03
664.9  270283.00  7917.27  2.93
666.2  271150.80  7724.75  2.85
667.6  273034.75  7614.31  2.79
668.9  274196.83  7543.94  2.75
670.3  275346.75  7501.38  2.72
671.6  277027.13  7517.44  2.71
673.0  278266.13  7571.81  2.72
674.3  279565.00  7656.28  2.74
675.7  280970.60  7777.97  2.77
677.0  282184.30  7918.51  2.81
678.4  283615.93  8106.46  2.86
679.7  284805.28  8328.39  2.92
681.1  286158.23  8609.67  3.01
682.4  287366.30  8951.13  3.11
683.8  288692.30  9393.97  3.25
685.1  289726.88  9960.04  3.44
686.4  291108.60  10725.77  3.68
687.8  292431.75  11760.29  4.02
689.1  293544.25  13143.60  4.48
690.5  295020.00  14991.95  5.08
691.8  295905.85  17362.26  5.87
693.1  297303.90  20375.94  6.85
694.5  298525.50  23974.60  8.03
695.8  299776.75  28135.90  9.39
697.1  301028.00  32791.63  10.89
698.5  302159.70  37870.95  12.53
699.8  303323.48  43302.34  14.28
701.1  304570.60  48974.11  16.08
702.5  305417.20  54711.02  17.91
703.8  306472.50  60501.43  19.74
705.1  307693.43  66272.92  21.54
706.5  308819.75  71921.35  23.29
707.8  309882.75  77426.79  24.99
709.1  310830.98  82727.52  26.61
710.5  312081.18  87926.48  28.17
711.8  313002.80  92872.49  29.67
713.1  314073.20  97693.96  31.11
714.4  315054.40  102300.93  32.47
715.8  315968.70  106701.04  33.77
717.1  317392.35  111096.53  35.00
718.4  318416.00  115178.67  36.17
719.7  319616.98  119142.33  37.28
721.0  320197.50  122710.29  38.32
722.4  321044.35  126184.65  39.30
723.7  322105.65  129553.25  40.22
725.0  323240.40  132776.33  41.08
726.3  324251.95  135775.71  41.87
727.6  324868.23  138438.62  42.61
729.0  325878.88  141088.31  43.29
730.3  326724.75  143516.80  43.93
731.6  327688.25  145844.56  44.51
732.9  328573.18  147983.78  45.04
734.2  329470.63  149989.58  45.52
735.5  330596.83  151962.54  45.97
736.8  331491.90  153717.30  46.37
738.1  332425.10  155367.75  46.74
739.5  333469.95  156975.87  47.07
740.8  334255.08  158344.86  47.37
742.1  335057.10  159643.02  47.65
743.4  335800.00  160850.48  47.90
744.7  336841.50  162099.19  48.12
746.0  337814.10  163225.99  48.32
747.3  338461.50  164131.58  48.49
748.6  339282.00  165058.48  48.65
749.9  340054.00  165907.24  48.79
751.2  340812.95  166690.56  48.91
752.5  341728.20  167517.90  49.02
753.8  342390.83  168173.32  49.12
755.1  343174.00  168848.46  49.20
756.4  343857.05  169431.71  49.27
757.7  344972.25  170202.20  49.34
759.0  346930.53  171347.16  49.39
760.3  348242.40  172163.20  49.44
761.6  349949.60  173146.24  49.48
762.9  350612.25  173568.78  49.50
764.2  351018.10  173886.21  49.54
765.5  351406.08  174144.47  49.56
766.8  351886.40  174473.23  49.58
768.1  352501.00  174831.83  49.60
769.3  353201.10  175220.42  49.61
770.6  353958.80  175634.61  49.62
771.9  354807.78  176067.45  49.62
773.2  355255.60  176328.30  49.63
774.5  355927.00  176705.51  49.65
775.8  356730.25  177115.92  49.65
777.1  357379.00  177469.64  49.66
778.4  357808.00  177693.93  49.66
779.6  358691.58  178139.38  49.66
780.9  359280.00  178432.00  49.66
782.2  359793.50  178719.88  49.67
783.5  360205.00  178925.78  49.67
784.8  360775.80  179247.67  49.68
786.0  361277.70  179503.51  49.69
787.3  361773.65  179756.42  49.69
788.6  362295.80  180014.93  49.69
789.9  362861.80  180290.56  49.69
791.2  363569.58  180677.08  49.70
792.4  364373.75  181065.41  49.69
793.7  364895.00  181352.46  49.70
795.0  365682.08  181728.52  49.70
796.2  366447.08  182099.16  49.69
797.5  367251.60  182513.28  49.70
798.8  367995.58  182886.86  49.70
800.0  368772.48  183280.48  49.70
801.3  369339.10  183548.90  49.70
802.6  370050.75  183904.52  49.70
803.8  370783.45  184272.58  49.70
805.1  371321.13  184563.17  49.70
806.4  371894.10  184842.33  49.70
807.7  372514.95  185140.23  49.70
808.9  373179.95  185460.61  49.70
810.2  373787.05  185775.01  49.70
811.4  374373.60  186072.40  49.70
812.7  375050.00  186428.51  49.71
814.0  375987.55  186864.11  49.70
815.2  376668.50  187233.24  49.71
816.5  377177.55  187469.90  49.70
817.7  377679.90  187740.95  49.71
819.0  378319.15  188019.32  49.70
820.2  378532.00  188126.40  49.70
821.5  379301.75  188508.05  49.70
822.7  379721.43  188709.65  49.70
824.0  380097.90  188898.17  49.70
825.2  380657.48  189182.33  49.70
826.5  380989.23  189349.43  49.70
827.7  381558.63  189639.29  49.70
829.0  382052.73  189842.81  49.69
830.2  382446.30  190023.63  49.69
831.5  382945.40  190267.19  49.69
832.7  383261.55  190441.07  49.69
834.0  383644.33  190606.13  49.68
835.2  384062.80  190798.81  49.68
836.4  384386.75  190976.74  49.68
837.7  384820.00  191188.69  49.68
838.9  385249.63  191426.01  49.69
840.1  385620.08  191612.97  49.69
841.4  386066.50  191861.38  49.70
842.6  386508.60  192034.72  49.68
843.8  386877.20  192233.67  49.69
845.1  387377.45  192495.22  49.69
846.3  387825.30  192709.22  49.69
847.5  388237.50  192932.36  49.69
848.8  388660.20  193137.36  49.69
850.0  388993.85  193333.13  49.70
851.2  389583.00  193609.52  49.70
852.5  389979.50  193812.45  49.70
853.7  390521.25  194083.33  49.70
854.9  390915.40  194303.78  49.70
856.1  391456.65  194519.72  49.69
857.4  391689.38  194633.20  49.69
858.6  392128.80  194881.00  49.70
859.8  392523.75  195103.64  49.70
861.0  392979.60  195336.51  49.71
862.2  393471.20  195555.08  49.70
863.5  393888.30  195751.17  49.70
864.7  394435.80  195992.34  49.69
865.9  394892.00  196193.31  49.68
867.1  395219.50  196360.50  49.68
868.3  395582.25  196584.61  49.70
869.5  396103.40  196842.74  49.69
870.8  396729.00  197113.54  49.68
872.0  397218.53  197327.51  49.68
873.2  397705.35  197549.80  49.67
874.4  398191.95  197778.97  49.67
875.6  398555.90  197977.24  49.67
876.8  399136.85  198226.95  49.66
878.0  399595.10  198449.94  49.66
879.2  400191.30  198712.64  49.65
880.4  400731.00  198962.19  49.65
881.6  401308.38  199203.93  49.64
882.8  401635.20  199420.28  49.65
884.0  402314.03  199735.95  49.65
885.2  402893.80  199959.34  49.63
886.5  403556.70  200266.21  49.63
887.7  404122.23  200491.68  49.61
888.8  404895.90  200818.91  49.60
890.0  405485.70  201109.57  49.60
891.2  406095.80  201388.96  49.59
892.4  406707.00  201713.64  49.60
893.6  407367.80  201967.95  49.58
894.8  408399.50  202428.15  49.57
896.0  409406.25  202867.00  49.55
897.2  410354.75  203303.90  49.54
898.4  411041.40  203697.81  49.56
899.6  411656.63  203972.91  49.55
900.8  412000.90  204150.99  49.55
902.0  412399.20  204274.50  49.53
903.2  412829.10  204430.09  49.52
904.3  413205.30  204614.03  49.52
905.5  413902.83  204886.77  49.50
906.7  414615.50  205205.84  49.49
907.9  415230.90  205478.05  49.49
909.1  415719.00  205621.87  49.46
910.2  415908.60  205727.91  49.46
911.4  416139.75  205848.41  49.47
912.6  416430.30  205956.64  49.46
913.8  416746.95  206055.67  49.44
915.0  417333.00  206224.62  49.41
916.2  417514.50  206377.97  49.43
917.3  417672.23  206343.09  49.40
918.5  417881.20  206457.55  49.41
919.7  418329.00  206576.10  49.38
920.8  418230.60  206581.49  49.39
922.0  418533.50  206650.03  49.37
923.2  418918.50  206671.40  49.33
924.4  419276.25  206779.69  49.32
925.5  419637.30  206909.10  49.31
926.7  420291.00  207159.69  49.29
927.9  421219.80  207576.74  49.28
929.0  422761.95  208285.92  49.27
930.2  425233.30  209365.20  49.24
931.4  427804.20  210560.34  49.22
932.5  430669.05  211855.39  49.19
933.7  432408.05  212539.55  49.15
934.9  433015.63  212820.92  49.15
936.0  432633.50  212562.20  49.13
937.2  430500.90  211419.89  49.11
938.3  428906.90  210468.91  49.07
939.5  427399.20  209588.85  49.04
940.7  427859.10  209619.77  48.99
941.8  429615.83  210352.95  48.96
943.0  431096.25  211002.86  48.95
944.2  431967.25  211359.10  48.93
945.3  431447.25  211033.27  48.91
946.5  431032.05  210482.54  48.83
947.6  431363.40  210452.89  48.79
948.8  431317.58  210267.66  48.75
949.9  431516.40  210165.20  48.70
951.1  431128.75  209752.97  48.65
952.2  431052.00  209455.54  48.59
953.4  430872.75  209089.59  48.53
954.5  430887.60  208859.04  48.47
955.7  430970.40  208610.40  48.40
956.8  431006.20  208341.45  48.34
958.0  430596.00  208066.55  48.32
959.1  430683.30  207826.08  48.25
960.3  430283.23  207424.31  48.21
961.4  430399.25  207284.12  48.16
962.6  430591.00  207290.13  48.14
963.7  430545.38  207180.47  48.12
964.9  430507.88  207112.36  48.11
966.0  430510.95  207008.73  48.08
967.2  430564.50  206992.97  48.07
968.3  430361.10  206815.22  48.06
969.5  430265.93  206768.34  48.06
970.6  430777.70  206864.59  48.02
971.8  431172.00  206962.56  48.00
972.9  430870.50  207025.99  48.05
974.0  431165.70  207061.34  48.02
975.2  431182.00  206981.65  48.00
976.3  431305.58  206981.60  47.99
977.5  431497.68  207031.00  47.98
978.6  431707.90  207137.49  47.98
979.7  432370.05  207314.34  47.95
980.9  432437.08  207210.77  47.92
982.0  431955.00  207265.26  47.98
983.2  431731.63  207104.67  47.97
984.3  431233.40  206892.59  47.98
985.4  431616.95  207019.65  47.96
986.6  432344.00  206872.39  47.85
987.7  433077.40  207432.40  47.90
988.9  432943.20  207502.83  47.93
990.0  432981.50  207886.56  48.01
993.1  373155.88  177778.22  47.64
996.9  374216.35  178634.02  47.74
1000.7  375512.38  179618.16  47.83
1004.5  376307.08  180258.68  47.90
1008.4  376178.33  180526.34  47.99
1012.2  376344.58  180859.19  48.06
1016.0  376548.60  181211.72  48.12
1019.8  376963.13  181627.60  48.18
1023.7  377216.05  181941.74  48.23
1027.5  377241.48  182113.61  48.28
1031.3  377746.63  182513.11  48.32
1035.1  377814.79  182659.50  48.35
1038.9  377916.73  182808.11  48.37
1042.7  377881.08  182845.44  48.39
1046.5  377765.33  182844.52  48.40
1050.3  377879.44  182936.38  48.41
1054.2  377647.08  182858.34  48.42
1058.0  377160.58  182616.29  48.42
1061.8  377025.24  182564.99  48.42
1065.6  376888.30  182445.35  48.41
1069.4  377052.07  182476.16  48.40
1073.2  376868.44  182307.89  48.37
1077.0  376483.48  182022.51  48.35
1080.8  375942.71  181616.81  48.31
1084.6  374686.67  180872.17  48.27
1088.4  373884.97  180376.75  48.24
1092.2  372966.75  179795.11  48.21
1096.0  372413.58  179359.92  48.16
1099.8  371991.97  178962.32  48.11
1103.6  371388.93  178475.51  48.06
1107.4  370545.99  177843.67  48.00
1111.2  370349.00  177542.49  47.94
1114.9  369658.92  177001.56  47.88
1118.7  369007.65  176384.72  47.80
1122.5  368315.13  175668.34  47.70
1126.3  367165.23  174676.83  47.57
1130.1  366685.82  173804.63  47.40
1133.9  365060.50  172160.18  47.16
1137.7  363655.00  170405.69  46.86
1141.4  361889.78  168291.00  46.50
1145.2  361240.93  166551.60  46.11
1149.0  360173.33  164733.54  45.74
1152.8  358577.30  162847.55  45.41
1156.6  356898.85  161237.31  45.18
1160.3  355169.33  159858.41  45.01
1164.1  352716.17  158364.07  44.90
1167.9  350869.79  157304.71  44.83
1171.7  349555.50  156564.75  44.79
1175.4  348430.23  155945.11  44.76
1179.2  347439.60  155367.98  44.72
1183.0  347213.67  155105.70  44.67
1186.7  346618.53  154695.71  44.63
1190.5  345440.20  154072.23  44.60
1194.3  344187.10  153441.12  44.58
1198.0  343014.10  152888.01  44.57
1201.8  341569.10  152254.70  44.58
1205.6  340315.33  151750.39  44.59
1209.3  339320.87  151432.38  44.63
1213.1  338260.05  151110.19  44.67
1216.8  337210.13  150847.45  44.73
1220.6  336089.60  150561.16  44.80
1224.3  334849.42  150200.06  44.86
1228.1  333621.80  149871.16  44.92
1231.9  332423.83  149503.58  44.97
1235.6  330981.15  149001.67  45.02
1239.4  329681.13  148555.07  45.06
1243.1  328419.99  148082.11  45.09
1246.9  327213.51  147604.29  45.11
1250.6  326225.27  147203.06  45.12
1254.3  325172.83  146737.77  45.13
1258.1  324199.52  146295.51  45.13
1261.8  322941.20  145696.68  45.12
1265.6  321448.62  144971.15  45.10
1269.3  319899.43  144167.42  45.07
1273.1  319776.85  143985.02  45.03
1276.8  320128.00  143975.60  44.97
1280.6  320181.10  143805.33  44.91
1284.3  318930.80  143021.01  44.84
1288.0  317427.13  142080.04  44.76
1291.8  315997.87  141093.16  44.65
1295.5  314470.93  140036.05  44.53
1299.2  313155.54  139025.95  44.40
1302.9  311714.03  137898.14  44.24
1306.7  310178.17  136644.94  44.05
1310.4  308705.96  135326.75  43.84
1314.1  307346.23  133975.99  43.59
1317.9  306158.96  132575.87  43.30
1321.6  304760.03  131012.94  42.99
1325.3  303114.53  129229.32  42.63
1329.0  301723.57  127509.34  42.26
1332.8  299576.20  125383.38  41.85
1336.5  297715.27  123350.31  41.43
1340.2  297327.33  121931.09  41.01
1343.9  296851.46  120472.93  40.58
1347.6  296130.15  118937.78  40.16
