/*** Spectra Vista SIG Data ***/
name= 51_20220926_ACRU_29_avg.sig
comm= Averaged Ref/Tar of files: HR.092722.0066_moc.sig,HR.092722.0067_moc.sig
data=
337.3  3076.75  238.20  7.74
338.8  3174.60  240.50  7.58
340.3  3326.35  234.25  7.04
341.8  3566.55  219.48  6.15
343.2  3729.60  213.12  5.71
344.7  3881.15  196.19  5.05
346.2  4085.00  212.42  5.20
347.7  4286.43  220.22  5.14
349.2  4460.40  226.80  5.08
350.6  4737.53  213.01  4.50
352.1  5001.50  200.06  4.00
353.6  5274.40  194.32  3.68
355.1  5556.38  202.05  3.64
356.6  5866.73  216.32  3.69
358.0  6124.80  223.30  3.65
359.5  6427.20  222.48  3.46
361.0  6733.13  227.43  3.38
362.5  7113.83  228.35  3.21
364.0  7455.50  235.14  3.15
365.4  7839.90  247.28  3.15
366.9  8204.63  259.68  3.16
368.4  8564.35  267.30  3.12
369.9  8945.28  270.25  3.02
371.3  9345.00  288.36  3.09
372.8  9796.95  297.36  3.04
374.3  10185.63  301.00  2.96
375.8  10645.25  296.45  2.78
377.2  11055.90  312.04  2.82
378.7  11486.30  317.42  2.76
380.2  11862.90  322.80  2.72
381.7  12377.45  329.71  2.66
383.1  12855.15  328.79  2.56
384.6  13406.58  334.49  2.49
386.1  13863.83  351.33  2.53
387.6  14310.45  355.74  2.49
389.0  14766.80  364.48  2.47
390.5  15266.25  366.39  2.40
392.0  15870.00  380.88  2.40
393.4  16421.88  394.13  2.40
394.9  16965.00  396.72  2.34
396.4  17491.50  414.00  2.37
397.9  18040.00  430.50  2.39
399.3  18613.88  445.72  2.39
400.8  19167.33  448.65  2.34
402.2  19811.85  461.54  2.33
403.7  20415.60  467.06  2.29
405.2  21047.08  482.97  2.29
406.6  21622.40  496.48  2.30
408.1  22193.20  515.28  2.32
409.6  22806.05  539.97  2.37
411.0  23485.00  550.83  2.35
412.5  24157.00  566.44  2.34
414.0  24837.13  586.80  2.36
415.4  25539.38  608.18  2.38
416.9  26175.45  628.37  2.40
418.4  26873.33  646.16  2.40
419.8  27627.60  669.76  2.42
421.3  28359.58  698.74  2.46
422.7  29127.60  720.36  2.47
424.2  29902.50  749.25  2.51
425.7  30660.30  772.62  2.52
427.1  31428.45  797.58  2.54
428.6  32240.00  824.60  2.56
430.0  32990.45  843.73  2.56
431.5  33864.83  868.64  2.57
432.9  34749.80  890.72  2.56
434.4  35640.60  919.67  2.58
435.9  36484.00  943.60  2.59
437.3  37358.75  973.50  2.61
438.8  38213.63  999.12  2.61
440.2  39090.98  1026.80  2.63
441.7  40066.00  1055.92  2.64
443.1  40969.00  1081.20  2.64
444.6  41946.20  1116.12  2.66
446.0  42895.35  1149.59  2.68
447.5  43880.38  1181.35  2.69
448.9  44827.50  1215.18  2.71
450.4  45830.05  1245.79  2.72
451.8  46722.00  1274.00  2.73
453.3  47658.38  1310.12  2.75
454.7  48681.63  1343.85  2.76
456.2  49554.08  1372.76  2.77
457.6  50524.65  1401.84  2.77
459.1  51514.45  1431.11  2.78
460.5  52470.13  1457.88  2.78
462.0  53559.00  1493.16  2.79
463.4  54594.50  1526.18  2.80
464.8  55597.13  1556.78  2.80
466.3  56562.83  1584.83  2.80
467.7  57538.60  1610.18  2.80
469.2  58608.30  1641.15  2.80
470.6  59628.20  1671.95  2.80
472.0  60691.40  1703.08  2.81
473.5  61726.25  1740.20  2.82
474.9  62771.25  1772.70  2.82
476.4  63936.00  1811.52  2.83
477.8  65003.50  1844.40  2.84
479.2  66004.00  1873.40  2.84
480.7  67091.63  1907.81  2.84
482.1  68261.80  1950.75  2.86
483.6  69461.15  1994.10  2.87
485.0  70565.63  2035.19  2.88
486.4  71775.15  2083.56  2.90
487.9  72847.13  2120.63  2.91
489.3  73993.13  2164.58  2.93
490.7  75053.33  2214.64  2.95
492.2  76293.00  2275.56  2.98
493.6  77425.25  2335.21  3.02
495.0  78550.88  2395.58  3.05
496.5  79729.28  2462.47  3.09
497.9  80829.90  2529.97  3.13
499.3  82003.90  2609.22  3.18
500.7  83285.25  2710.25  3.25
502.2  84461.00  2817.80  3.34
503.6  85731.20  2940.44  3.43
505.0  86830.55  3067.71  3.53
506.5  88147.65  3223.91  3.66
507.9  89305.80  3400.86  3.81
509.3  90650.00  3608.24  3.98
510.7  91903.50  3840.53  4.18
512.2  93305.85  4105.11  4.40
513.6  94810.45  4414.06  4.66
515.0  96246.35  4762.53  4.95
516.4  97651.58  5151.20  5.28
517.8  99298.75  5593.50  5.63
519.3  100650.33  6057.88  6.02
520.7  102227.80  6569.78  6.43
522.1  103540.78  7090.92  6.85
523.5  104889.40  7633.88  7.28
524.9  106382.70  8194.23  7.70
526.3  107840.25  8747.76  8.11
527.8  109340.55  9290.16  8.50
529.2  110379.20  9792.28  8.87
530.6  111886.35  10320.19  9.22
532.0  113568.00  10827.60  9.53
533.4  114925.95  11261.82  9.80
534.8  115864.23  11619.49  10.03
536.3  117467.40  12015.06  10.23
537.7  119397.60  12423.60  10.41
539.1  120834.30  12753.91  10.55
540.5  122054.45  13040.51  10.68
541.9  123790.58  13383.47  10.81
543.3  125114.18  13663.13  10.92
544.7  126448.80  13946.76  11.03
546.1  128264.40  14287.68  11.14
547.5  129494.40  14551.04  11.24
549.0  131142.00  14850.00  11.32
550.4  132653.13  15115.13  11.39
551.8  134235.85  15355.98  11.44
553.2  135745.53  15551.19  11.46
554.6  137082.40  15683.20  11.44
556.0  138607.20  15787.89  11.39
557.4  140213.50  15853.01  11.31
558.8  141867.45  15874.83  11.19
560.2  143341.00  15819.80  11.04
561.6  145022.18  15743.84  10.86
563.0  146618.58  15614.04  10.65
564.4  148216.95  15451.53  10.42
565.8  149748.75  15246.88  10.18
567.2  151499.75  15032.80  9.92
568.6  152989.50  14755.20  9.64
570.0  154418.25  14445.30  9.35
571.4  156136.50  14148.42  9.06
572.8  157908.25  13857.30  8.78
574.2  159532.80  13567.68  8.50
575.6  161100.00  13297.50  8.25
577.0  162618.30  13046.98  8.02
578.4  164346.00  12842.38  7.81
579.8  165882.60  12645.45  7.62
581.2  167594.43  12484.80  7.45
582.5  169029.90  12324.78  7.29
583.9  170545.40  12189.40  7.15
585.3  172340.10  12089.57  7.01
586.7  173833.40  11988.93  6.90
588.1  175327.50  11904.33  6.79
589.5  176975.75  11848.20  6.69
590.9  178609.60  11799.84  6.61
592.3  180418.80  11791.98  6.54
593.7  181886.25  11780.15  6.48
595.0  183500.10  11796.44  6.43
596.4  184951.90  11805.22  6.38
597.8  186449.50  11811.96  6.34
599.2  187994.40  11814.00  6.28
600.6  189761.33  11816.61  6.23
602.0  191064.60  11784.47  6.17
603.3  192857.15  11761.40  6.10
604.7  194540.55  11705.80  6.02
606.1  196029.00  11616.84  5.93
607.5  197679.30  11510.41  5.82
608.9  199383.55  11386.12  5.71
610.2  200760.53  11235.11  5.60
611.6  202369.28  11090.42  5.48
613.0  203947.30  10941.54  5.36
614.4  205315.05  10787.37  5.25
615.8  206782.88  10649.93  5.15
617.1  208328.40  10528.14  5.05
618.5  209967.60  10425.12  4.97
619.9  211487.25  10340.04  4.89
621.3  213115.28  10287.18  4.83
622.6  214704.75  10251.05  4.77
624.0  216176.40  10237.17  4.74
625.4  217647.38  10235.78  4.70
626.8  219207.63  10262.07  4.68
628.1  220481.53  10276.92  4.66
629.5  222277.78  10328.13  4.65
630.9  223778.50  10363.60  4.63
632.2  225037.58  10378.52  4.61
633.6  226563.75  10384.60  4.58
635.0  228003.20  10344.08  4.54
636.3  229501.80  10279.66  4.48
637.7  230879.00  10160.90  4.40
639.1  232540.00  10027.50  4.31
640.4  234017.00  9859.12  4.21
641.8  235218.70  9668.28  4.11
643.2  236794.43  9481.15  4.00
644.5  238162.50  9289.25  3.90
645.9  239739.30  9110.61  3.80
647.2  240802.80  8946.18  3.72
648.6  242352.00  8829.00  3.64
650.0  243756.00  8726.40  3.58
651.3  244706.83  8641.55  3.53
652.7  246796.35  8606.87  3.49
654.0  248808.50  8564.60  3.44
655.4  250228.93  8508.74  3.40
656.8  250494.50  8385.38  3.35
658.1  251970.00  8303.66  3.30
659.5  254239.65  8230.85  3.24
660.8  255622.50  8136.00  3.18
662.2  256614.40  8019.20  3.13
663.5  258158.25  7929.70  3.07
664.9  259233.00  7845.50  3.03
666.2  260050.80  7765.56  2.99
667.6  261782.95  7742.31  2.96
668.9  262709.08  7730.58  2.94
670.3  264517.25  7746.23  2.93
671.6  265588.50  7779.15  2.93
673.0  266783.25  7836.68  2.94
674.3  268050.90  7916.22  2.95
675.7  269381.23  8013.23  2.97
677.0  270444.98  8114.01  3.00
678.4  271722.43  8250.57  3.04
679.7  272757.60  8400.34  3.08
681.1  274016.98  8587.18  3.13
682.4  275122.90  8800.22  3.20
683.8  276294.20  9061.00  3.28
685.1  277314.75  9372.15  3.38
686.4  278632.20  9772.44  3.51
687.8  279838.25  10283.95  3.67
689.1  280861.75  10969.25  3.91
690.5  282235.80  11908.08  4.22
691.8  283027.68  13152.37  4.65
693.1  284370.75  14831.22  5.22
694.5  285535.25  16939.65  5.93
695.8  286763.75  19533.15  6.81
697.1  287924.00  22608.95  7.85
698.5  288971.00  26159.48  9.05
699.8  290035.93  30144.15  10.39
701.1  291192.35  34506.82  11.85
702.5  291977.40  39106.21  13.39
703.8  292882.50  43924.50  15.00
705.1  294036.60  48899.96  16.63
706.5  295059.13  53946.13  18.28
707.8  296025.75  59030.82  19.94
709.1  296855.53  64126.33  21.60
710.5  297971.78  69305.73  23.26
711.8  298775.40  74428.48  24.91
713.1  299756.60  79611.00  26.56
714.4  300670.90  84775.68  28.20
715.8  301496.00  89935.90  29.83
717.1  302797.80  95246.76  31.46
718.4  303766.40  100437.12  33.06
719.7  304828.43  105659.47  34.66
721.0  305325.00  110650.50  36.24
722.4  306048.60  115667.97  37.79
723.7  306998.10  120692.79  39.31
725.0  308060.10  125660.16  40.79
726.3  309004.85  130495.09  42.23
727.6  309529.83  135041.83  43.63
729.0  310404.50  139613.25  44.98
730.3  311182.88  143970.72  46.27
731.6  312062.00  148206.30  47.49
732.9  312839.28  152213.85  48.66
734.2  313669.13  156051.50  49.75
735.5  314670.40  159847.67  50.80
736.8  315447.00  163316.70  51.77
738.1  316292.60  166640.36  52.69
739.5  317248.53  169829.38  53.53
740.8  317930.25  172690.71  54.32
742.1  318606.50  175387.18  55.05
743.4  319225.00  177915.00  55.73
744.7  320125.30  180419.16  56.36
746.0  320981.70  182738.01  56.93
747.3  321589.48  184729.53  57.44
748.6  322338.50  186661.75  57.91
749.9  322998.00  188416.80  58.33
751.2  323580.10  190000.67  58.72
752.5  324338.45  191580.13  59.07
753.8  324842.35  192908.07  59.39
755.1  325442.00  194199.20  59.67
756.4  326012.23  195347.59  59.92
757.7  327032.65  196662.87  60.14
759.0  328809.05  198365.90  60.33
760.3  329973.60  199620.96  60.50
761.6  331489.20  201053.44  60.65
762.9  331967.50  201802.00  60.79
764.2  332322.60  202400.98  60.90
765.5  332569.65  202876.68  61.00
766.8  332928.00  203412.48  61.10
768.1  333403.20  203960.12  61.18
769.3  333956.70  204543.64  61.25
770.6  334589.45  205136.23  61.31
771.9  335254.33  205733.85  61.37
773.2  335602.80  206115.84  61.42
774.5  336135.80  206594.96  61.46
775.8  336766.05  207102.61  61.50
777.1  337294.65  207548.00  61.53
778.4  337563.60  207817.01  61.56
779.6  338300.23  208354.42  61.59
780.9  338700.00  208722.00  61.62
782.2  339132.75  209069.85  61.65
783.5  339373.50  209303.20  61.67
784.8  339814.80  209659.32  61.70
786.0  340158.00  209926.08  61.71
787.3  340465.08  210196.35  61.74
788.6  340845.75  210477.82  61.75
789.9  341223.40  210781.20  61.77
791.2  341842.05  211196.76  61.78
792.4  342445.38  211613.77  61.79
793.7  342884.40  211916.32  61.80
795.0  343425.23  212312.76  61.82
796.2  343995.48  212722.07  61.84
797.5  344645.63  213149.00  61.85
798.8  345240.23  213562.13  61.86
800.0  345833.45  213964.38  61.87
801.3  346199.00  214231.84  61.88
802.6  346762.13  214607.43  61.89
803.8  347363.20  215012.77  61.90
805.1  347805.50  215305.30  61.90
806.4  348195.90  215592.66  61.92
807.7  348660.45  215937.09  61.93
808.9  349147.80  216265.98  61.94
810.2  349622.00  216575.80  61.95
811.4  350032.90  216892.88  61.96
812.7  350634.38  217295.00  61.97
814.0  351379.85  217823.41  61.99
815.2  351952.50  218227.25  62.00
816.5  352319.85  218519.48  62.02
817.7  352741.20  218826.38  62.04
819.0  353248.50  219135.73  62.03
820.2  353364.00  219260.80  62.05
821.5  353985.20  219713.72  62.07
822.7  354276.88  219973.12  62.09
824.0  354531.60  220191.48  62.11
825.2  354994.65  220532.63  62.12
826.5  355271.63  220726.98  62.13
827.7  355865.25  221097.50  62.13
829.0  356179.75  221386.91  62.16
830.2  356485.05  221625.01  62.17
831.5  356967.70  221943.84  62.17
832.7  357238.88  222165.41  62.19
834.0  357574.93  222396.81  62.20
835.2  357905.35  222674.49  62.22
836.4  358191.90  222906.97  62.23
837.7  358587.20  223217.28  62.25
838.9  358978.85  223549.43  62.27
840.1  359288.33  223819.88  62.30
841.4  359721.80  224117.72  62.30
842.6  360094.00  224414.28  62.32
843.8  360448.60  224684.12  62.33
845.1  360907.35  225078.94  62.36
846.3  361321.20  225362.98  62.37
847.5  361685.10  225658.86  62.39
848.8  362086.20  225953.16  62.40
850.0  362430.25  226241.68  62.42
851.2  362934.00  226618.02  62.44
852.5  363295.00  226901.84  62.46
853.7  363768.75  227265.75  62.48
854.9  364211.00  227555.86  62.48
856.1  364609.70  227911.19  62.51
857.4  364762.85  228054.78  62.52
858.6  365286.65  228412.28  62.53
859.8  365675.63  228729.38  62.55
861.0  366093.00  229006.44  62.55
862.2  366604.85  229316.38  62.55
863.5  366882.10  229581.43  62.58
864.7  367356.00  229880.64  62.58
865.9  367660.60  230182.40  62.61
867.1  368006.45  230369.22  62.60
868.3  368411.70  230642.79  62.60
869.5  368869.40  230974.58  62.62
870.8  369342.00  231336.00  62.63
872.0  369845.48  231650.24  62.63
873.2  370352.85  231933.57  62.63
874.4  370708.65  232218.09  62.64
875.6  371113.30  232432.44  62.63
876.8  371554.55  232755.90  62.64
878.0  371997.40  233012.77  62.64
879.2  372420.90  233304.42  62.65
880.4  372883.88  233614.80  62.65
881.6  373398.63  233917.54  62.65
882.8  373815.20  234184.48  62.65
884.0  374350.30  234531.68  62.65
885.2  374654.40  234790.44  62.67
886.5  375213.55  235132.64  62.67
887.7  375674.33  235379.37  62.66
888.8  376326.83  235726.82  62.64
890.0  376826.20  236080.32  62.65
891.2  377329.90  236367.62  62.64
892.4  377914.43  236726.28  62.64
893.6  378366.45  237040.27  62.65
894.8  379270.00  237512.95  62.62
896.0  380028.25  238021.35  62.63
897.2  380835.00  238475.25  62.62
898.4  381476.70  238870.50  62.62
899.6  381948.38  239141.03  62.61
900.8  382271.05  239335.84  62.61
902.0  382453.20  239418.27  62.60
903.2  382659.15  239514.68  62.59
904.3  382817.70  239687.70  62.61
905.5  383388.25  240003.28  62.60
906.7  383970.50  240347.60  62.60
907.9  384370.70  240617.44  62.60
909.1  384656.85  240696.63  62.57
910.2  384762.83  240710.66  62.56
911.4  384839.33  240833.39  62.58
912.6  384948.85  240863.48  62.57
913.8  385201.35  240904.88  62.54
915.0  385345.80  241053.54  62.56
916.2  385573.50  241103.85  62.53
917.3  385425.00  240967.71  62.52
918.5  385486.30  241049.28  62.53
919.7  385573.05  241157.46  62.55
920.8  385639.48  241067.91  62.51
922.0  385789.25  241013.85  62.47
923.2  385749.00  241059.00  62.49
924.4  386066.25  241049.25  62.44
925.5  386245.90  241119.58  62.43
926.7  386548.13  241325.63  62.43
927.9  387383.40  241713.36  62.40
929.0  388623.15  242473.77  62.39
930.2  390710.30  243672.34  62.37
931.4  393175.35  245037.42  62.32
932.5  395758.40  246534.94  62.29
933.7  397037.90  247208.67  62.26
934.9  397565.00  247474.50  62.25
936.0  396854.25  246942.48  62.22
937.2  394598.25  245461.62  62.21
938.3  392969.65  244172.72  62.14
939.5  391359.60  243005.04  62.09
940.7  391416.30  242963.46  62.07
941.8  392776.58  243630.24  62.03
943.0  394170.75  244246.05  61.96
944.2  394706.65  244531.82  61.95
945.3  394026.75  244048.35  61.94
946.5  393314.40  243306.99  61.86
947.6  393414.10  243104.36  61.79
948.8  393288.68  242725.28  61.72
949.9  393220.80  242407.20  61.65
951.1  392828.48  241712.84  61.53
952.2  392292.00  241250.40  61.50
953.4  391909.75  240700.15  61.42
954.5  391716.00  240210.36  61.32
955.7  391557.60  239861.16  61.26
956.8  391348.40  239297.78  61.15
958.0  390726.00  238599.80  61.07
959.1  390504.25  238139.88  60.98
960.3  390037.60  237610.17  60.92
961.4  389822.10  237223.87  60.85
962.6  389833.50  237112.75  60.82
963.7  389330.78  236787.69  60.82
964.9  389339.78  236565.96  60.76
966.0  389105.78  236240.96  60.71
967.2  389092.95  236150.10  60.69
968.3  388573.20  235803.15  60.68
969.5  388329.68  235625.81  60.68
970.6  388335.13  235541.86  60.65
971.8  388354.23  235587.59  60.66
972.9  388407.90  235417.65  60.61
974.0  388798.70  235560.52  60.59
975.2  388541.38  235444.48  60.60
976.3  388282.58  235264.11  60.59
977.5  388385.73  235149.22  60.55
978.6  388497.10  235178.78  60.54
979.7  388198.65  235212.71  60.59
980.9  388246.43  235112.30  60.56
982.0  387799.60  234983.52  60.59
983.2  387281.15  234923.32  60.66
984.3  386641.80  234595.32  60.68
985.4  386488.10  234554.31  60.69
986.6  386898.75  234227.28  60.54
987.7  387421.65  234670.56  60.57
988.9  386064.00  234671.76  60.79
990.0  386408.70  234756.02  60.75
993.1  388658.14  231117.43  59.47
996.9  387457.43  231106.44  59.65
1000.7  387556.52  231739.38  59.79
1004.5  387651.00  232387.14  59.95
1008.4  387245.46  232721.38  60.10
1012.2  387022.71  233178.61  60.25
1016.0  386754.00  233468.60  60.37
1019.8  386180.03  233589.13  60.49
1023.7  385069.98  233341.25  60.60
1027.5  383449.30  232739.30  60.70
1031.3  382483.48  232460.35  60.78
1035.1  381449.89  232119.09  60.85
1038.9  381001.50  232068.53  60.91
1042.7  380636.50  232092.53  60.97
1046.5  380531.67  232168.28  61.01
1050.3  380494.63  232300.44  61.05
1054.2  380120.42  232215.09  61.09
1058.0  379713.48  232030.25  61.11
1061.8  379634.52  232055.52  61.13
1065.6  379020.67  231677.13  61.13
1069.4  378292.47  231246.00  61.13
1073.2  377046.39  230445.25  61.12
1077.0  376273.30  229921.44  61.10
1080.8  376395.83  229865.28  61.07
1084.6  376378.80  229717.18  61.03
1088.4  376605.11  229707.50  60.99
1092.2  376125.75  229232.25  60.95
1096.0  375476.10  228610.13  60.89
1099.8  374745.15  227927.63  60.82
1103.6  373826.38  227093.76  60.75
1107.4  372683.38  226110.13  60.67
1111.2  372371.10  225625.74  60.59
1114.9  371770.00  224926.34  60.50
1118.7  371457.90  224279.55  60.38
1122.5  371082.40  223441.11  60.21
1126.3  370124.30  222099.47  60.01
1130.1  369747.25  220757.50  59.70
1133.9  368064.90  218276.57  59.30
1137.7  366507.70  215477.37  58.79
1141.4  364439.18  212046.83  58.18
1145.2  363496.18  209136.85  57.53
1149.0  362181.46  206150.97  56.92
1152.8  360344.90  203216.72  56.40
1156.6  358508.15  200764.24  56.00
1160.3  356653.67  198738.45  55.72
1164.1  354291.33  196766.59  55.54
1167.9  352666.67  195428.13  55.41
1171.7  351351.00  194425.88  55.34
1175.4  349906.53  193395.30  55.27
1179.2  348517.15  192381.72  55.20
1183.0  348136.67  191913.00  55.13
1186.7  348103.23  191651.99  55.06
1190.5  347673.80  191220.98  55.00
1194.3  346720.77  190531.74  54.95
1198.0  345250.95  189637.71  54.93
1201.8  343551.30  188752.00  54.94
1205.6  342459.33  188366.78  55.00
1209.3  341830.77  188367.26  55.11
1213.1  341337.90  188500.25  55.22
1216.8  340631.78  188617.12  55.37
1220.6  339518.67  188489.16  55.52
1224.3  338243.50  188254.47  55.66
1228.1  336745.20  187908.40  55.80
1231.9  335163.43  187408.93  55.92
1235.6  333409.58  186769.10  56.02
1239.4  331860.25  186212.75  56.11
1243.1  330443.08  185694.53  56.20
1246.9  329160.02  185179.04  56.26
1250.6  328090.33  184725.29  56.30
1254.3  326924.31  184176.15  56.34
1258.1  325679.32  183565.67  56.36
1261.8  324233.73  182782.85  56.37
1265.6  323029.48  182074.60  56.36
1269.3  322201.23  181514.99  56.34
1273.1  322533.83  181551.23  56.29
1276.8  322325.60  181236.40  56.23
1280.6  321212.20  180349.76  56.15
1284.3  319226.00  178907.60  56.04
1288.0  317963.11  177765.05  55.91
1291.8  317459.62  176974.62  55.75
1295.5  316697.33  175955.51  55.56
1299.2  315525.88  174625.78  55.34
1302.9  313899.19  172914.32  55.09
1306.7  312117.75  170983.32  54.78
1310.4  310416.28  168936.97  54.42
1314.1  308837.47  166815.25  54.01
1317.9  307406.04  164604.86  53.55
1321.6  305853.83  162186.24  53.03
1325.3  304165.05  159527.55  52.45
1329.0  302839.25  156964.93  51.83
1332.8  300900.60  153943.53  51.16
1336.5  299226.67  151038.22  50.48
1340.2  299056.33  148911.39  49.79
1343.9  299011.04  146871.95  49.12
1347.6  299189.25  144987.95  48.46
1351.4  300669.00  143772.84  47.82
