/*** Spectra Vista SIG Data ***/
name= 27_20220926_QUPA_23_avg.sig
comm= Averaged Ref/Tar of files: HR.092722.0000_moc.sig,HR.092722.0001_moc.sig,HR.092722.0002_moc.sig
data=
337.3  6417.60  401.10  6.25
338.8  6637.80  357.32  5.38
340.3  6994.85  378.10  5.41
341.8  7167.28  380.18  5.30
343.2  7638.95  380.68  4.98
344.7  7986.38  384.39  4.81
346.2  8389.50  360.33  4.30
347.7  8785.65  361.83  4.12
349.2  9147.60  352.80  3.86
350.6  9569.55  361.77  3.78
352.1  10046.50  343.64  3.42
353.6  10664.00  360.38  3.38
355.1  11176.20  354.80  3.17
356.6  11843.65  353.26  2.98
358.0  12348.38  367.89  2.98
359.5  12865.73  371.66  2.89
361.0  13520.40  389.68  2.88
362.5  14188.05  400.98  2.83
364.0  14935.80  414.88  2.78
365.4  15601.65  426.79  2.74
366.9  16252.50  438.56  2.70
368.4  16890.20  468.32  2.77
369.9  17649.00  479.52  2.72
371.3  18541.33  505.24  2.72
372.8  19325.40  514.55  2.66
374.3  20198.40  520.99  2.58
375.8  20971.53  528.25  2.52
377.2  21797.10  541.54  2.48
378.7  22650.25  541.80  2.39
380.2  23462.63  552.36  2.35
381.7  24370.50  562.67  2.31
383.1  25360.73  582.49  2.30
384.6  26287.50  590.84  2.25
386.1  27258.83  597.55  2.19
387.6  28127.63  615.88  2.19
389.0  29148.30  629.10  2.16
390.5  30174.50  649.08  2.15
392.0  31205.25  670.28  2.15
393.4  32314.88  689.89  2.13
394.9  33288.60  702.91  2.11
396.4  34509.20  718.04  2.08
397.9  35571.00  758.66  2.13
399.3  36451.18  770.41  2.11
400.8  37723.13  788.07  2.09
402.2  38854.20  811.17  2.09
403.7  40048.35  831.69  2.08
405.2  41213.40  856.14  2.08
406.6  42446.10  893.05  2.10
408.1  43496.70  918.24  2.11
409.6  44657.10  941.05  2.11
411.0  45926.65  972.87  2.12
412.5  47281.30  1004.10  2.12
414.0  48623.40  1040.42  2.14
415.4  49923.00  1068.86  2.14
416.9  51184.10  1104.31  2.16
418.4  52489.63  1145.10  2.18
419.8  53838.05  1181.70  2.19
421.3  55336.05  1240.80  2.24
422.7  56784.00  1277.96  2.25
424.2  58273.95  1314.12  2.26
425.7  59676.38  1349.33  2.26
427.1  61185.10  1394.66  2.28
428.6  62632.15  1441.20  2.30
430.0  64175.93  1488.06  2.32
431.5  65862.23  1542.67  2.34
432.9  67532.50  1586.30  2.35
434.4  69201.60  1637.10  2.37
435.9  70839.40  1675.04  2.36
437.3  72499.88  1729.36  2.39
438.8  74148.05  1786.70  2.41
440.2  75878.25  1832.70  2.42
441.7  77723.15  1893.76  2.44
443.1  79540.65  1946.96  2.45
444.6  81318.58  1994.65  2.45
446.0  83123.63  2053.76  2.47
447.5  85075.00  2121.43  2.49
448.9  86838.70  2186.28  2.52
450.4  88725.00  2247.62  2.53
451.8  90550.50  2301.93  2.54
453.3  92380.13  2366.22  2.56
454.7  94199.63  2426.27  2.58
456.2  95991.35  2484.43  2.59
457.6  97906.05  2550.34  2.60
459.1  99735.83  2604.35  2.61
460.5  101595.55  2661.20  2.62
462.0  103617.00  2726.83  2.63
463.4  105647.15  2785.95  2.64
464.8  107608.73  2848.35  2.65
466.3  109545.45  2911.21  2.66
467.7  111547.20  2971.28  2.66
469.2  113432.70  3035.63  2.68
470.6  115471.13  3102.58  2.69
472.0  117559.05  3165.24  2.69
473.5  119573.60  3234.03  2.70
474.9  121743.45  3300.75  2.71
476.4  123849.00  3373.06  2.72
477.8  125944.00  3448.00  2.74
479.2  127990.18  3512.47  2.74
480.7  130167.68  3586.13  2.76
482.1  132364.50  3662.16  2.77
483.6  134589.60  3735.94  2.78
485.0  136825.73  3815.26  2.79
486.4  138943.18  3895.74  2.80
487.9  141221.75  3987.29  2.82
489.3  143375.70  4076.96  2.84
490.7  145578.65  4178.08  2.87
492.2  147805.38  4277.87  2.89
493.6  150074.90  4385.15  2.92
495.0  152345.70  4513.23  2.96
496.5  154535.85  4638.60  3.00
497.9  156885.38  4777.81  3.05
499.3  159155.38  4934.55  3.10
500.7  161451.50  5123.65  3.17
502.2  163846.13  5317.05  3.25
503.6  166154.40  5532.57  3.33
505.0  168448.78  5781.00  3.43
506.5  170928.85  6068.92  3.55
507.9  173369.05  6395.89  3.69
509.3  175621.95  6762.75  3.85
510.7  178273.88  7189.93  4.03
512.2  180886.35  7667.81  4.24
513.6  183733.58  8225.08  4.48
515.0  186472.83  8844.33  4.74
516.4  189361.40  9553.47  5.05
517.8  192167.00  10329.05  5.38
519.3  195105.60  11185.68  5.73
520.7  197748.70  12078.86  6.11
522.1  200397.28  13030.21  6.50
523.5  202957.95  14007.76  6.90
524.9  205868.55  15021.59  7.30
526.3  208503.45  16025.14  7.69
527.8  211281.13  17022.33  8.06
529.2  213811.20  18012.34  8.42
530.6  216587.70  18995.92  8.77
532.0  219441.63  19966.64  9.10
533.4  221935.05  20837.82  9.39
534.8  224420.63  21675.42  9.66
536.3  227291.08  22496.59  9.90
537.7  230229.50  23293.86  10.12
539.1  233074.40  24054.89  10.32
540.5  235894.50  24795.57  10.51
541.9  238790.43  25538.53  10.69
543.3  241330.60  26241.79  10.87
544.7  244288.00  26984.57  11.05
546.1  247076.20  27703.67  11.21
547.5  249955.20  28425.60  11.37
549.0  252979.60  29130.82  11.52
550.4  255814.65  29776.50  11.64
551.8  258749.55  30381.60  11.74
553.2  261589.05  30888.89  11.81
554.6  264379.30  31297.09  11.84
556.0  267250.20  31598.90  11.82
557.4  270321.60  31826.74  11.77
558.8  273151.83  31950.21  11.70
560.2  276300.00  32040.00  11.60
561.6  279183.03  32030.14  11.47
563.0  281958.95  31948.30  11.33
564.4  285072.90  31857.47  11.18
565.8  288058.70  31695.55  11.00
567.2  291166.03  31471.29  10.81
568.6  294100.88  31158.32  10.59
570.0  296933.00  30731.85  10.35
571.4  300275.35  30299.65  10.09
572.8  303387.80  29825.48  9.83
574.2  306193.13  29325.25  9.58
575.6  309194.25  28880.70  9.34
577.0  312166.53  28472.16  9.12
578.4  315503.13  28141.67  8.92
579.8  318520.18  27827.11  8.74
581.2  321534.75  27566.69  8.57
582.5  324360.00  27327.86  8.43
583.9  327402.10  27140.55  8.29
585.3  330218.00  26971.84  8.17
586.7  333125.10  26853.20  8.06
588.1  336055.90  26768.37  7.97
589.5  339331.95  26752.80  7.88
590.9  342246.13  26745.27  7.81
592.3  345115.13  26782.86  7.76
593.7  348066.43  26868.70  7.72
595.0  350943.60  26973.32  7.69
596.4  354145.38  27120.86  7.66
597.8  356771.40  27208.40  7.63
599.2  359817.90  27310.40  7.59
600.6  362934.83  27370.12  7.54
602.0  365869.80  27367.65  7.48
603.3  368706.00  27300.00  7.40
604.7  371660.70  27169.10  7.31
606.1  374621.25  26966.68  7.20
607.5  377864.78  26714.82  7.07
608.9  380911.30  26395.60  6.93
610.2  384008.63  26053.03  6.78
611.6  386870.00  25674.52  6.64
613.0  389591.70  25290.48  6.49
614.4  392346.25  24922.40  6.35
615.8  395507.50  24602.22  6.22
617.1  398141.85  24297.69  6.10
618.5  401332.58  24082.74  6.00
619.9  404022.30  23888.65  5.91
621.3  406916.90  23759.82  5.84
622.6  409792.50  23692.50  5.78
624.0  412409.63  23652.04  5.74
625.4  415456.05  23693.37  5.70
626.8  418321.15  23764.99  5.68
628.1  421054.55  23863.87  5.67
629.5  423748.15  23982.50  5.66
630.9  426469.75  24118.63  5.66
632.2  429403.65  24254.41  5.65
633.6  431747.23  24328.01  5.63
635.0  434544.55  24382.66  5.61
636.3  437478.73  24353.61  5.57
637.7  440123.28  24228.86  5.51
639.1  443061.30  24044.17  5.43
640.4  445727.25  23780.25  5.34
641.8  448464.60  23454.68  5.23
643.2  450981.15  23079.40  5.12
644.5  453810.00  22696.67  5.00
645.9  456333.15  22280.60  4.88
647.2  458540.78  21889.27  4.77
648.6  461021.60  21543.24  4.67
650.0  463680.00  21232.28  4.58
651.3  466607.85  20977.01  4.50
652.7  470643.00  20784.86  4.42
654.0  473492.30  20542.68  4.34
655.4  475664.70  20239.55  4.26
656.8  477320.55  19882.65  4.17
658.1  479891.48  19521.60  4.07
659.5  482976.00  19106.74  3.96
660.8  485690.10  18687.80  3.85
662.2  488357.73  18273.79  3.74
663.5  491026.95  17903.35  3.65
664.9  492832.30  17562.86  3.56
666.2  494934.38  17293.56  3.49
667.6  497396.25  17083.71  3.43
668.9  499953.60  16950.86  3.39
670.3  503052.38  16876.42  3.35
671.6  505026.40  16850.97  3.34
673.0  507231.20  16895.39  3.33
674.3  509597.55  16976.30  3.33
675.7  512041.50  17117.40  3.34
677.0  514258.28  17268.01  3.36
678.4  516359.20  17478.84  3.39
679.7  518607.45  17758.63  3.42
681.1  521020.75  18115.10  3.48
682.4  523119.38  18560.25  3.55
683.8  525322.88  19149.46  3.65
685.1  527483.70  19907.03  3.77
686.4  529675.58  20898.24  3.95
687.8  531943.88  22235.71  4.18
689.1  534262.40  24025.87  4.50
690.5  536267.75  26391.52  4.92
691.8  538694.48  29552.26  5.49
693.1  541053.00  33627.57  6.22
694.5  543365.80  38639.12  7.11
695.8  545638.20  44540.70  8.16
697.1  547866.90  51274.67  9.36
698.5  550067.63  58715.09  10.67
699.8  552281.20  66708.00  12.08
701.1  554099.70  75040.30  13.54
702.5  556024.13  83585.69  15.03
703.8  558372.60  92245.12  16.52
705.1  560130.15  100744.98  17.99
706.5  562344.13  109205.38  19.42
707.8  564057.75  117425.47  20.82
709.1  566252.03  125551.05  22.17
710.5  568317.23  133492.23  23.49
711.8  570137.00  141216.10  24.77
713.1  571986.00  148759.52  26.01
714.4  573953.50  156188.95  27.21
715.8  576128.13  163492.19  28.38
717.1  578296.30  170631.54  29.51
718.4  580404.30  177567.63  30.59
719.7  582502.95  184312.24  31.64
721.0  584149.03  190701.68  32.65
722.4  585913.95  196903.07  33.61
723.7  587765.40  202891.86  34.52
725.0  589396.93  208537.83  35.38
726.3  591572.80  214109.01  36.19
727.6  593215.50  219239.79  36.96
729.0  594918.80  224133.83  37.67
730.3  596813.33  228808.33  38.34
731.6  598247.60  233022.45  38.95
732.9  600059.53  237185.96  39.53
734.2  601627.13  240967.18  40.05
735.5  603356.05  244575.31  40.54
736.8  605228.75  248065.98  40.99
738.1  606914.03  251243.26  41.40
739.5  608612.85  254173.89  41.76
740.8  610339.68  257013.74  42.11
742.1  611822.50  259534.78  42.42
743.4  613379.20  261973.30  42.71
744.7  615146.00  264315.33  42.97
746.0  616562.50  266345.60  43.20
747.3  618118.90  268266.40  43.40
748.6  619603.25  270088.79  43.59
749.9  621275.50  271868.96  43.76
751.2  622404.75  273342.51  43.92
752.5  623679.13  274828.07  44.07
753.8  624844.80  276154.24  44.20
755.1  626250.85  277509.23  44.31
756.4  627255.15  278596.67  44.42
757.7  629171.13  280011.15  44.50
759.0  632625.35  282057.10  44.59
760.3  635096.00  283667.38  44.67
761.6  637742.85  285271.01  44.73
762.9  639069.75  286195.64  44.78
764.2  639743.70  286827.91  44.83
765.5  640450.30  287458.56  44.88
766.8  640935.85  287916.08  44.92
768.1  641850.30  288588.60  44.96
769.3  642924.75  289311.63  45.00
770.6  644214.20  290082.20  45.03
771.9  645203.63  290738.30  45.06
773.2  646448.40  291488.23  45.09
774.5  647229.60  292000.38  45.12
775.8  648210.40  292571.69  45.14
777.1  649229.63  293184.53  45.16
778.4  650413.38  293816.16  45.17
779.6  651490.80  294464.29  45.20
780.9  652082.40  294844.24  45.22
782.2  652896.40  295369.18  45.24
783.5  653665.00  295819.40  45.26
784.8  654283.88  296234.25  45.28
786.0  654981.33  296628.00  45.29
787.3  655605.25  297032.67  45.31
788.6  656372.13  297481.23  45.32
789.9  656997.20  297825.99  45.33
791.2  658165.80  298459.22  45.35
792.4  659175.00  298986.03  45.36
793.7  660557.53  299705.11  45.37
795.0  661443.15  300205.31  45.39
796.2  662636.20  300812.81  45.40
797.5  663673.75  301352.56  45.41
798.8  664913.38  302010.42  45.42
800.0  665910.00  302546.67  45.43
801.3  667004.63  303095.25  45.44
802.6  667872.00  303579.43  45.45
803.8  668888.85  304090.30  45.46
805.1  669676.88  304576.07  45.48
806.4  670506.83  305043.71  45.49
807.7  671559.45  305553.32  45.50
808.9  672578.23  306107.29  45.51
810.2  673348.20  306530.20  45.52
811.4  674291.60  307027.32  45.53
812.7  675610.85  307673.46  45.54
814.0  676714.50  308277.20  45.55
815.2  677979.15  308922.16  45.57
816.5  679048.13  309462.50  45.57
817.7  679813.25  309863.48  45.58
819.0  680381.80  310237.87  45.60
820.2  681148.50  310648.56  45.61
821.5  682118.20  311179.93  45.62
822.7  683205.25  311686.15  45.62
824.0  684039.85  312154.95  45.63
825.2  684717.15  312500.31  45.64
826.5  685499.35  312878.41  45.64
827.7  686440.55  313426.90  45.66
829.0  687398.55  313894.01  45.66
830.2  688325.80  314379.37  45.67
831.5  689251.95  314847.66  45.68
832.7  690106.95  315328.37  45.69
834.0  690847.65  315656.87  45.69
835.2  691921.10  316172.67  45.69
836.4  692636.80  316591.88  45.71
837.7  693511.88  317011.60  45.71
838.9  694708.10  317630.51  45.72
840.1  695580.60  318068.14  45.73
841.4  696596.90  318579.06  45.73
842.6  697493.30  319067.07  45.74
843.8  698480.90  319519.32  45.74
845.1  699268.35  319998.02  45.76
846.3  700272.30  320524.50  45.77
847.5  701177.75  320975.88  45.78
848.8  702153.65  321456.45  45.78
850.0  703431.60  322068.65  45.79
851.2  704341.65  322567.33  45.80
852.5  705659.20  323185.04  45.80
853.7  706509.00  323589.47  45.80
854.9  707600.40  324186.20  45.81
856.1  708866.60  324698.66  45.81
857.4  709785.75  325163.53  45.81
858.6  710913.00  325687.20  45.81
859.8  712175.10  326277.11  45.81
861.0  713230.35  326810.40  45.82
862.2  714333.90  327308.40  45.82
863.5  715249.53  327808.31  45.83
864.7  716306.25  328325.00  45.84
865.9  717425.63  328852.09  45.84
867.1  718071.88  329237.80  45.85
868.3  719376.25  329804.17  45.85
869.5  720509.75  330332.71  45.85
870.8  721854.00  330900.30  45.84
872.0  722844.90  331395.15  45.85
873.2  723809.60  331864.10  45.85
874.4  724826.50  332333.28  45.85
875.6  725936.30  332935.54  45.86
876.8  727427.25  333574.69  45.86
878.0  728576.80  334023.63  45.85
879.2  729694.40  334505.76  45.84
880.4  730898.00  335035.43  45.84
881.6  731876.10  335528.16  45.84
882.8  733085.55  336164.56  45.86
884.0  734119.75  336530.91  45.84
885.2  735509.25  337132.26  45.84
886.5  736847.48  337729.12  45.83
887.7  737886.70  338202.33  45.83
888.8  739408.75  338862.19  45.83
890.0  740328.75  339255.00  45.82
891.2  741175.50  339763.08  45.84
892.4  742664.18  340352.89  45.83
893.6  744468.18  341142.68  45.82
894.8  746006.10  341831.49  45.82
896.0  747648.48  342466.56  45.81
897.2  749576.03  343327.76  45.80
898.4  751449.30  344214.20  45.81
899.6  752702.20  344754.51  45.80
900.8  753090.65  344977.85  45.81
902.0  753770.90  345181.58  45.79
903.2  753972.90  345224.90  45.79
904.3  754869.38  345672.32  45.79
905.5  756459.00  346259.57  45.77
906.7  757627.53  346813.70  45.78
907.9  758350.60  347238.54  45.79
909.1  759335.50  347635.02  45.78
910.2  759307.50  347760.00  45.80
911.4  759619.80  347783.23  45.78
912.6  760480.00  347999.05  45.76
913.8  761524.75  348406.80  45.75
915.0  761917.00  348589.94  45.75
916.2  761707.73  348623.64  45.77
917.3  762068.08  348882.44  45.78
918.5  762433.35  348976.69  45.77
919.7  762763.25  348982.05  45.75
920.8  763040.03  349000.54  45.74
922.0  762983.65  349018.16  45.74
923.2  763497.23  349152.00  45.73
924.4  764038.25  349364.20  45.73
925.5  764354.40  349681.05  45.75
926.7  765491.08  349933.36  45.71
927.9  766626.90  350441.49  45.71
929.0  769594.50  351758.57  45.71
930.2  773915.60  353578.42  45.69
931.4  778700.50  355743.79  45.68
932.5  783313.85  357657.14  45.66
933.7  785801.18  358719.82  45.65
934.9  787036.25  359177.50  45.64
936.0  785562.08  358601.36  45.65
937.2  782943.95  357077.50  45.61
938.3  778963.25  355121.93  45.59
939.5  776997.00  354003.00  45.56
940.7  777016.63  353796.48  45.53
941.8  779608.05  354965.56  45.53
943.0  781597.43  355605.71  45.50
944.2  782874.00  356309.72  45.51
945.3  782539.80  355801.20  45.47
946.5  780718.75  354821.67  45.45
947.6  781575.50  355009.74  45.42
948.8  780095.38  354169.41  45.40
949.9  780961.30  354046.35  45.33
951.1  780577.95  353674.81  45.31
952.2  780211.60  353265.08  45.28
953.4  779781.60  352837.68  45.25
954.5  778052.63  351785.00  45.21
955.7  777598.65  351248.86  45.17
956.8  778015.03  350802.07  45.09
958.0  777057.30  350106.00  45.06
959.1  776563.20  349617.60  45.02
960.3  776075.00  349165.47  44.99
961.4  776933.50  349142.15  44.94
962.6  776181.60  348706.29  44.93
963.7  775894.00  348669.87  44.94
964.9  776319.05  348516.98  44.89
966.0  776498.80  348455.57  44.88
967.2  777163.80  348488.00  44.84
968.3  778428.95  349020.36  44.84
969.5  778405.35  348979.40  44.83
970.6  778515.50  348980.10  44.83
971.8  778428.18  348606.85  44.78
972.9  779205.00  348726.67  44.75
974.0  779937.98  348907.18  44.74
975.2  778359.38  348507.32  44.77
976.3  779200.75  348715.74  44.75
977.5  779291.63  348350.49  44.70
978.6  779451.23  348254.74  44.68
979.7  780472.00  347834.67  44.57
980.9  781007.10  347987.29  44.56
982.0  779784.05  347995.89  44.63
983.2  779109.80  347624.93  44.62
984.3  777764.05  346761.70  44.58
985.4  777798.70  346286.00  44.52
986.6  779388.58  346593.50  44.47
987.7  777554.88  346042.51  44.50
988.9  779067.38  346519.54  44.48
990.0  778295.90  346097.18  44.47
993.1  860013.60  380205.17  44.21
996.9  859585.50  380507.18  44.27
1000.7  859049.88  380809.48  44.33
1004.5  857878.93  380848.37  44.39
1008.4  858744.28  381835.97  44.46
1012.2  860110.88  382865.09  44.51
1016.0  860136.08  383238.83  44.56
1019.8  858883.83  382993.83  44.59
1023.7  857417.73  382591.26  44.62
1027.5  854760.67  381794.64  44.67
1031.3  852856.17  381231.35  44.70
1035.1  851527.80  380884.38  44.73
1038.9  850763.67  380810.96  44.76
1042.7  850142.25  380843.23  44.80
1046.5  849349.38  380669.13  44.82
1050.3  847697.48  380046.74  44.83
1054.2  845544.98  379283.14  44.86
1058.0  844671.60  378926.23  44.86
1061.8  843449.92  378496.43  44.87
1065.6  841542.71  377564.29  44.87
1069.4  838948.15  376404.11  44.87
1073.2  836743.38  375308.14  44.85
1077.0  835304.80  374507.47  44.83
1080.8  834892.67  374110.52  44.81
1084.6  834689.17  373839.19  44.79
1088.4  834089.43  373493.46  44.78
1092.2  832762.23  372718.40  44.76
1096.0  831215.40  371797.68  44.73
1099.8  829606.38  370770.14  44.69
1103.6  827609.58  369595.32  44.66
1107.4  825896.96  368491.48  44.62
1111.2  824350.28  367455.58  44.58
1114.9  823300.50  366566.36  44.52
1118.7  822792.50  365775.73  44.46
1122.5  822698.28  365067.08  44.37
1126.3  820244.25  363127.05  44.27
1130.1  819595.43  361645.24  44.12
1133.9  816079.93  358385.85  43.92
1137.7  813361.60  355131.46  43.66
1141.4  809528.95  351024.26  43.36
1145.2  808508.73  347867.62  43.03
1149.0  806463.30  344444.19  42.71
1152.8  803082.35  340708.56  42.43
1156.6  799346.38  337396.83  42.21
1160.3  796078.05  334719.73  42.05
1164.1  791341.93  331810.09  41.93
1167.9  788260.71  329876.17  41.85
1171.7  785769.43  328287.14  41.78
1175.4  783300.48  326809.60  41.72
1179.2  781177.50  325456.39  41.66
1183.0  781456.88  325074.05  41.60
1186.7  781708.67  324729.33  41.54
1190.5  780446.96  323930.99  41.51
1194.3  777630.58  322576.57  41.48
1198.0  774409.45  321193.22  41.48
1201.8  771848.00  320122.00  41.47
1205.6  770337.13  319647.06  41.49
1209.3  769126.50  319532.57  41.54
1213.1  767791.17  319394.85  41.60
1216.8  765770.93  319154.42  41.68
1220.6  763383.33  318714.22  41.75
1224.3  760925.00  318214.29  41.82
1228.1  758597.23  317815.73  41.90
1231.9  756115.10  317199.54  41.95
1235.6  753533.28  316491.25  42.00
1239.4  751061.42  315863.24  42.06
1243.1  748836.90  315171.26  42.09
1246.9  746802.74  314510.66  42.11
1250.6  744732.92  313770.57  42.13
1254.3  742682.40  313052.57  42.15
1258.1  740499.33  312192.19  42.16
1261.8  738023.77  311140.50  42.16
1265.6  735816.96  310126.94  42.15
1269.3  733789.13  309175.70  42.13
1273.1  734317.41  309239.39  42.11
1276.8  734161.73  308939.90  42.08
1280.6  733184.77  308194.74  42.04
1284.3  730505.92  306637.69  41.98
1288.0  728717.82  305399.52  41.91
1291.8  727385.40  304230.60  41.83
1295.5  725852.35  302945.52  41.74
1299.2  723475.35  301184.74  41.63
1302.9  720445.83  298973.14  41.50
1306.7  717182.55  296506.80  41.34
1310.4  714030.42  293834.26  41.15
1314.1  711466.88  291229.29  40.93
1317.9  708948.39  288366.54  40.68
1321.6  706025.78  285174.07  40.39
1325.3  703229.18  281743.46  40.06
1329.0  700592.20  278288.27  39.72
1332.8  696870.00  274179.46  39.34
1336.5  693420.50  270144.69  38.96
