/*** Spectra Vista SIG Data ***/
name= 38_20220926_BENI_58_avg.sig
comm= Averaged Ref/Tar of files: HR.092722.0030_moc.sig,HR.092722.0031_moc.sig,HR.092722.0032_moc.sig
data=
337.3  3076.75  191.88  6.24
338.8  3174.60  205.23  6.46
340.3  3373.20  206.14  6.11
341.8  3566.55  201.19  5.64
343.2  3729.60  195.36  5.24
344.7  3923.80  187.66  4.78
346.2  4125.85  174.29  4.22
347.7  4325.75  188.76  4.36
349.2  4498.20  181.44  4.03
350.6  4737.53  195.87  4.13
352.1  5037.23  195.30  3.88
353.6  5309.10  194.32  3.66
355.1  5623.73  197.56  3.51
356.6  5899.50  205.39  3.48
358.0  6188.60  212.67  3.44
359.5  6427.20  206.00  3.21
361.0  6792.98  219.45  3.23
362.5  7113.83  226.39  3.18
364.0  7484.18  240.87  3.22
365.4  7868.00  247.28  3.14
366.9  8259.88  250.47  3.03
368.4  8618.90  258.20  3.00
369.9  8945.28  273.85  3.06
371.3  9371.70  291.92  3.11
372.8  9796.95  318.60  3.25
374.3  10266.25  315.33  3.07
375.8  10699.15  316.21  2.96
377.2  11082.80  322.80  2.91
378.7  11513.20  326.39  2.83
380.2  11916.70  329.97  2.77
381.7  12431.50  338.71  2.72
383.1  12909.05  362.93  2.81
384.6  13433.55  366.86  2.73
386.1  13917.88  374.75  2.69
387.6  14337.40  380.89  2.66
389.0  14820.40  389.49  2.63
390.5  15292.80  400.02  2.62
392.0  15896.45  416.15  2.62
393.4  16474.43  423.90  2.57
394.9  17017.20  441.96  2.60
396.4  17543.25  451.95  2.58
397.9  18091.25  461.25  2.55
399.3  18639.20  482.86  2.59
400.8  19242.10  495.18  2.57
402.2  19885.50  513.91  2.58
403.7  20463.75  529.65  2.59
405.2  21070.75  546.10  2.59
406.6  21645.60  556.80  2.57
408.1  22215.80  572.53  2.58
409.6  22828.00  594.11  2.60
411.0  23527.70  609.19  2.59
412.5  24198.65  627.53  2.59
414.0  24857.50  646.57  2.60
415.4  25539.38  665.15  2.60
416.9  26214.00  688.76  2.63
418.4  26910.68  714.63  2.66
419.8  27645.80  737.71  2.67
421.3  28395.23  762.91  2.69
422.7  29162.40  788.80  2.70
424.2  29919.38  812.25  2.71
425.7  30692.90  832.39  2.71
427.1  31460.10  856.66  2.72
428.6  32271.00  878.33  2.72
430.0  33020.80  904.43  2.74
431.5  33894.68  937.29  2.77
432.9  34779.10  961.04  2.76
434.4  35669.25  991.29  2.78
435.9  36512.00  1017.33  2.79
437.3  37372.50  1037.67  2.78
438.8  38240.78  1064.28  2.78
440.2  39117.93  1094.17  2.80
441.7  40092.80  1127.39  2.81
443.1  41008.75  1160.70  2.83
444.6  41985.50  1191.23  2.84
446.0  42934.28  1219.65  2.84
447.5  43919.15  1251.14  2.85
448.9  44866.20  1286.56  2.87
450.4  45881.85  1322.63  2.88
451.8  46774.00  1357.20  2.90
453.3  47710.68  1389.44  2.91
454.7  48721.15  1422.90  2.92
456.2  49593.75  1451.22  2.93
457.6  50577.75  1485.03  2.94
459.1  51567.75  1517.27  2.94
460.5  52523.63  1551.50  2.95
462.0  53613.10  1581.52  2.95
463.4  54663.00  1612.95  2.95
464.8  55666.50  1650.20  2.96
466.3  56632.95  1681.13  2.97
467.7  57608.98  1715.27  2.98
469.2  58678.68  1749.05  2.98
470.6  59684.40  1781.54  2.98
472.0  60761.78  1816.61  2.99
473.5  61796.88  1853.20  3.00
474.9  62856.75  1888.60  3.00
476.4  64022.40  1931.52  3.02
477.8  65090.50  1968.13  3.02
479.2  66076.50  2004.87  3.03
480.7  67192.95  2038.08  3.03
482.1  68348.50  2076.95  3.04
483.6  69562.30  2121.26  3.05
485.0  70652.48  2165.46  3.06
486.4  71862.45  2211.60  3.08
487.9  72934.88  2262.00  3.10
489.3  74096.20  2312.81  3.12
490.7  75156.40  2361.89  3.14
492.2  76395.90  2422.56  3.17
493.6  77513.15  2486.59  3.21
495.0  78638.63  2554.50  3.25
496.5  79832.00  2633.67  3.30
497.9  80947.30  2717.81  3.36
499.3  82121.30  2811.73  3.42
500.7  83387.80  2924.14  3.51
502.2  84563.20  3048.48  3.60
503.6  85862.60  3196.43  3.72
505.0  86947.75  3357.78  3.86
506.5  88280.63  3553.88  4.03
507.9  89439.23  3773.46  4.22
509.3  90783.20  4027.57  4.44
510.7  92005.88  4311.45  4.69
512.2  93407.18  4643.58  4.97
513.6  94925.25  5022.50  5.29
515.0  96388.60  5447.23  5.65
516.4  97779.15  5913.81  6.05
517.8  99425.88  6433.47  6.47
519.3  100777.00  6973.69  6.92
520.7  102354.25  7573.89  7.40
522.1  103666.55  8181.90  7.89
523.5  105014.50  8810.75  8.39
524.9  106522.20  9456.24  8.88
526.3  107983.75  10090.92  9.34
527.8  109489.05  10729.62  9.80
529.2  110513.30  11320.03  10.24
530.6  112030.85  11954.97  10.67
532.0  113722.00  12577.60  11.06
533.4  115088.85  13133.36  11.41
534.8  115996.48  13609.41  11.73
536.3  117596.40  14133.24  12.02
537.7  119523.60  14676.48  12.28
539.1  120969.88  15144.96  12.52
540.5  122187.00  15573.42  12.75
541.9  123931.88  16061.10  12.96
543.3  125253.08  16490.52  13.17
544.7  126585.60  16916.08  13.36
546.1  128399.70  17405.59  13.56
547.5  129640.00  17810.99  13.74
549.0  131285.00  18255.60  13.91
550.4  132791.25  18667.42  14.06
551.8  134383.20  19046.04  14.17
553.2  135881.70  19373.16  14.26
554.6  137217.60  19622.72  14.30
556.0  138741.75  19836.12  14.30
557.4  140358.05  20009.85  14.26
558.8  142022.70  20143.86  14.18
560.2  143486.25  20210.50  14.09
561.6  145168.13  20263.42  13.96
563.0  146765.23  20265.63  13.81
564.4  148364.65  20236.31  13.64
565.8  149897.50  20156.33  13.45
567.2  151661.00  20062.37  13.23
568.6  153130.88  19885.30  12.99
570.0  154560.93  19646.71  12.71
571.4  156291.20  19399.38  12.41
572.8  158064.00  19140.93  12.11
574.2  159700.80  18868.27  11.81
575.6  161257.50  18603.00  11.54
577.0  162787.80  18360.24  11.28
578.4  164493.88  18166.63  11.04
579.8  166043.25  17974.44  10.83
581.2  167744.90  17823.96  10.63
582.5  169182.00  17667.00  10.44
583.9  170710.60  17534.80  10.27
585.3  172507.05  17455.02  10.12
586.7  174001.75  17370.51  9.98
588.1  175485.13  17306.42  9.86
589.5  177147.25  17279.03  9.75
590.9  178770.80  17272.37  9.66
592.3  180581.95  17308.96  9.59
593.7  182051.03  17336.02  9.52
595.0  183679.65  17394.12  9.47
596.4  185146.15  17447.97  9.42
597.8  186632.55  17506.55  9.38
599.2  188166.00  17554.24  9.33
600.6  189934.55  17601.44  9.27
602.0  191239.13  17577.80  9.19
603.3  193046.85  17557.19  9.09
604.7  194718.33  17478.47  8.98
606.1  196208.40  17338.32  8.84
607.5  197846.40  17166.74  8.68
608.9  199538.10  16968.65  8.50
610.2  200944.80  16720.83  8.32
611.6  202555.50  16471.84  8.13
613.0  204120.70  16218.68  7.95
614.4  205504.20  15954.56  7.76
615.8  206973.00  15709.20  7.59
617.1  208519.50  15489.88  7.43
618.5  210145.20  15317.01  7.29
619.9  211651.43  15173.75  7.17
621.3  213281.10  15075.00  7.07
622.6  214887.75  15010.07  6.99
624.0  216377.25  14976.20  6.92
625.4  217835.48  14966.49  6.87
626.8  219414.65  15005.60  6.84
628.1  220676.23  15045.98  6.82
629.5  222459.55  15136.90  6.80
630.9  223929.48  15216.04  6.80
632.2  225207.33  15259.39  6.78
633.6  226735.00  15289.20  6.74
635.0  228192.40  15257.55  6.69
636.3  229674.80  15166.33  6.60
637.7  231035.38  14993.47  6.49
639.1  232662.50  14781.67  6.35
640.4  234176.08  14512.35  6.20
641.8  235396.95  14186.32  6.03
643.2  236974.68  13850.41  5.84
644.5  238345.00  13487.97  5.66
645.9  239905.35  13126.56  5.47
647.2  240955.40  12772.62  5.30
648.6  242473.50  12484.80  5.15
650.0  243864.00  12228.48  5.01
651.3  244889.43  11993.78  4.90
652.7  247003.80  11816.97  4.78
654.0  249060.40  11636.25  4.67
655.4  250479.45  11423.94  4.56
656.8  250744.20  11144.19  4.44
658.1  252174.30  10880.87  4.31
659.5  254420.25  10613.26  4.17
660.8  255780.00  10293.00  4.02
662.2  256793.60  9966.51  3.88
663.5  258313.30  9675.12  3.75
664.9  259387.70  9399.87  3.62
666.2  260228.40  9170.08  3.52
667.6  261939.23  9031.21  3.45
668.9  262866.75  8916.90  3.39
670.3  264718.63  8866.47  3.35
671.6  265765.50  8841.15  3.33
673.0  266960.25  8861.80  3.32
674.3  268249.80  8916.61  3.32
675.7  269557.83  9000.71  3.34
677.0  270621.18  9106.60  3.37
678.4  271898.63  9262.25  3.41
679.7  272933.80  9453.13  3.46
681.1  274193.58  9686.51  3.53
682.4  275277.60  9989.20  3.63
683.8  276448.90  10384.05  3.76
685.1  277447.50  10906.15  3.93
686.4  278743.20  11638.72  4.18
687.8  279949.50  12638.00  4.51
689.1  280995.25  13993.77  4.98
690.5  282325.20  15823.80  5.60
691.8  283140.05  18186.77  6.42
693.1  284461.35  21218.52  7.46
694.5  285626.25  24864.23  8.71
695.8  286854.75  29062.37  10.13
697.1  288015.00  33718.53  11.71
698.5  289061.80  38753.44  13.41
699.8  290126.63  44071.13  15.19
701.1  291260.38  49585.69  17.02
702.5  291999.95  55106.19  18.87
703.8  292950.00  60612.00  20.69
705.1  294081.45  66067.04  22.47
706.5  295103.88  71355.37  24.18
707.8  296070.45  76475.74  25.83
709.1  296900.18  81388.02  27.41
710.5  298016.43  86216.17  28.93
711.8  298820.00  90799.65  30.39
713.1  299801.20  95271.55  31.78
714.4  300715.50  99562.07  33.11
715.8  301518.30  103674.19  34.38
717.1  302820.15  107789.58  35.60
718.4  303766.40  111626.67  36.75
719.7  304828.43  115353.69  37.84
721.0  305325.00  118692.00  38.87
722.4  306093.70  121962.43  39.84
723.7  307020.75  125133.70  40.76
725.0  308037.38  128165.97  41.61
726.3  309004.85  130997.24  42.39
727.6  309529.83  133495.82  43.13
729.0  310404.50  135984.99  43.81
730.3  311205.90  138266.66  44.43
731.6  312085.15  140446.42  45.00
732.9  312862.55  142427.48  45.52
734.2  313645.75  144286.08  46.00
735.5  314646.88  146112.21  46.44
736.8  315423.30  147714.20  46.83
738.1  316292.60  149237.97  47.18
739.5  317248.53  150703.73  47.50
740.8  317905.78  151944.06  47.80
742.1  318581.73  153089.68  48.05
743.4  319200.00  154156.67  48.29
744.7  320074.95  155265.97  48.51
746.0  320931.00  156308.10  48.70
747.3  321512.90  157142.11  48.88
748.6  322235.50  157977.97  49.03
749.9  322894.00  158714.40  49.15
751.2  323475.50  159382.51  49.27
752.5  324207.70  160090.30  49.38
753.8  324685.90  160646.34  49.48
755.1  325312.00  161238.13  49.56
756.4  325856.38  161751.52  49.64
757.7  326850.13  162443.77  49.70
759.0  328625.48  163511.13  49.76
760.3  329788.80  164239.68  49.80
761.6  331303.00  165146.99  49.85
762.9  331807.00  165507.60  49.88
764.2  332161.20  165779.32  49.91
765.5  332380.48  165969.53  49.93
766.8  332737.60  166239.15  49.96
768.1  333211.40  166548.16  49.98
769.3  333763.15  166891.71  50.00
770.6  334337.90  167256.53  50.03
771.9  335028.93  167629.98  50.03
773.2  335347.20  167825.07  50.05
774.5  335878.40  168137.49  50.06
775.8  336506.40  168476.31  50.07
777.1  337032.30  168782.39  50.08
778.4  337298.78  168942.66  50.09
779.6  338002.98  169329.45  50.10
780.9  338400.00  169560.00  50.11
782.2  338800.00  169795.27  50.12
783.5  339068.50  169950.07  50.12
784.8  339475.73  170203.32  50.14
786.0  339815.35  170390.50  50.14
787.3  340118.85  170586.11  50.15
788.6  340432.03  170777.19  50.16
789.9  340869.20  170994.88  50.16
791.2  341451.15  171309.75  50.17
792.4  342049.68  171637.07  50.18
793.7  342483.60  171867.49  50.18
795.0  343019.33  172178.27  50.19
796.2  343550.55  172480.31  50.21
797.5  344159.48  172805.49  50.21
798.8  344817.53  173114.44  50.20
800.0  345405.35  173432.82  50.21
801.3  345765.80  173645.81  50.22
802.6  346285.35  173932.41  50.23
803.8  346842.75  174246.66  50.24
805.1  347241.13  174464.62  50.24
806.4  347662.50  174665.64  50.24
807.7  348160.28  174927.87  50.24
808.9  348602.50  175181.52  50.25
810.2  349028.75  175417.43  50.26
811.4  349431.40  175659.39  50.27
812.7  350025.00  175965.83  50.27
814.0  350803.75  176363.41  50.27
815.2  351409.75  176669.30  50.27
816.5  351770.28  176884.24  50.28
817.7  352184.15  177101.91  50.29
819.0  352596.75  177345.52  50.30
820.2  352704.00  177419.73  50.30
821.5  353404.75  177760.58  50.30
822.7  353688.30  177924.71  50.31
824.0  353980.80  178092.00  50.31
825.2  354435.75  178326.36  50.31
826.5  354704.33  178472.58  50.32
827.7  355240.93  178749.05  50.32
829.0  355595.05  178950.68  50.32
830.2  355842.20  179114.49  50.34
831.5  356315.75  179349.77  50.33
832.7  356678.70  179514.02  50.33
834.0  357005.95  179678.86  50.33
835.2  357275.05  179866.61  50.34
836.4  357551.70  180038.47  50.35
837.7  357936.80  180254.75  50.36
838.9  358373.03  180484.45  50.36
840.1  358728.08  180661.95  50.36
841.4  359152.80  180888.89  50.37
842.6  359573.80  181075.84  50.36
843.8  359862.60  181253.71  50.37
845.1  360313.85  181531.87  50.38
846.3  360720.20  181734.39  50.38
847.5  361076.10  181977.32  50.40
848.8  361530.00  182169.92  50.39
850.0  361929.05  182353.27  50.38
851.2  362426.40  182609.10  50.39
852.5  362780.60  182826.33  50.40
853.7  363181.50  183091.50  50.41
854.9  363682.20  183334.96  50.41
856.1  364074.10  183541.19  50.41
857.4  364355.90  183642.97  50.40
858.6  364806.10  183890.47  50.41
859.8  365190.00  184093.50  50.41
861.0  365601.60  184307.76  50.41
862.2  365965.18  184539.13  50.43
863.5  366379.33  184714.75  50.42
864.7  366920.40  184946.08  50.40
865.9  367293.60  185153.95  50.41
867.1  367635.70  185305.79  50.40
868.3  368037.45  185508.24  50.40
869.5  368415.50  185766.14  50.42
870.8  368959.50  185997.00  50.41
872.0  369381.53  186239.84  50.42
873.2  369805.80  186445.06  50.42
874.4  370313.78  186644.25  50.40
875.6  370714.43  186822.41  50.40
876.8  371151.30  187086.49  50.41
878.0  371589.15  187283.33  50.40
879.2  372007.65  187483.26  50.40
880.4  372549.38  187687.95  50.38
881.6  373060.33  187925.65  50.37
882.8  373472.80  188125.97  50.37
884.0  374004.00  188398.74  50.37
885.2  374479.00  188636.85  50.37
886.5  375035.85  188895.10  50.37
887.7  375404.25  189040.50  50.36
888.8  376053.00  189316.52  50.34
890.0  376548.85  189584.13  50.35
891.2  377048.80  189823.71  50.34
892.4  377629.35  190075.34  50.33
893.6  378173.75  190310.52  50.32
894.8  378976.75  190703.73  50.32
896.0  379730.50  191089.33  50.32
897.2  380532.75  191478.73  50.32
898.4  381169.80  191778.40  50.31
899.6  381636.75  192016.40  50.31
900.8  381954.78  192126.52  50.30
902.0  382132.35  192167.76  50.29
903.2  382442.10  192233.95  50.26
904.3  382707.60  192381.40  50.27
905.5  383276.48  192625.58  50.26
906.7  383743.50  192904.60  50.27
907.9  384140.40  193083.52  50.26
909.1  384306.53  193161.42  50.26
910.2  384407.55  193190.65  50.26
911.4  384599.48  193207.17  50.24
912.6  384584.20  193215.88  50.24
913.8  384831.68  193298.95  50.23
915.0  385220.85  193405.94  50.21
916.2  385193.25  193386.70  50.21
917.3  385168.05  193363.44  50.20
918.5  385226.10  193363.29  50.19
919.7  385309.95  193396.04  50.19
920.8  385373.43  193329.67  50.17
922.0  385385.00  193357.27  50.17
923.2  385612.50  193356.80  50.14
924.4  385651.13  193392.90  50.15
925.5  385684.70  193426.93  50.15
926.7  386121.00  193592.03  50.14
927.9  386949.60  193956.80  50.12
929.0  388328.85  194571.54  50.10
930.2  390560.20  195550.28  50.07
931.4  392715.68  196720.47  50.09
932.5  395288.75  197879.20  50.06
933.7  396559.93  198455.22  50.04
934.9  397079.38  198631.42  50.02
936.0  396690.13  198263.00  49.98
937.2  394432.80  197106.10  49.97
938.3  392468.20  196167.24  49.98
939.5  390852.00  195234.24  49.95
940.7  390900.60  195186.72  49.93
941.8  392425.73  195750.91  49.88
943.0  393812.25  196362.40  49.86
944.2  394524.00  196628.81  49.84
945.3  393841.50  196216.80  49.82
946.5  392751.45  195656.40  49.82
947.6  392842.00  195556.49  49.78
948.8  392706.60  195240.89  49.72
949.9  392826.00  195136.48  49.68
951.1  392427.43  194803.35  49.64
952.2  392088.00  194561.60  49.62
953.4  391702.50  194207.07  49.58
954.5  391294.80  193948.56  49.57
955.7  391129.20  193636.80  49.51
956.8  390694.70  193291.83  49.47
958.0  390283.00  192941.27  49.44
959.1  390278.53  192648.76  49.36
960.3  389577.65  192289.76  49.36
961.4  389118.45  191986.99  49.34
962.6  389114.25  191895.90  49.32
963.7  388840.13  191680.60  49.30
964.9  388837.73  191481.87  49.24
966.0  388334.25  191338.20  49.27
967.2  388564.65  191244.60  49.22
968.3  388301.85  190994.22  49.19
969.5  387770.53  190781.98  49.20
970.6  387757.68  190673.99  49.17
971.8  387755.38  190793.61  49.20
972.9  387783.45  190623.77  49.16
974.0  387821.00  190760.13  49.19
975.2  387859.13  190575.17  49.14
976.3  387565.53  190448.48  49.14
977.5  387629.38  190549.78  49.16
978.6  387696.90  190447.60  49.12
979.7  387773.93  190503.32  49.13
980.9  387344.58  190290.35  49.13
982.0  387319.65  190188.19  49.10
983.2  386770.23  190064.10  49.14
984.3  386098.00  189749.95  49.15
985.4  385909.53  189618.31  49.14
986.6  385670.50  189314.27  49.09
987.7  386117.20  189667.03  49.12
988.9  386064.00  189447.12  49.07
990.0  385681.00  189590.11  49.16
993.1  390310.67  190210.25  48.73
996.9  389051.90  189954.90  48.83
1000.7  389006.86  190247.99  48.91
1004.5  389090.58  190562.45  48.98
1008.4  388700.29  190645.02  49.05
1012.2  388541.38  190795.31  49.11
1016.0  388199.40  190891.52  49.17
1019.8  387554.48  190809.85  49.23
1023.7  386359.99  190432.24  49.29
1027.5  384741.10  189797.20  49.33
1031.3  383753.50  189408.07  49.36
1035.1  382728.91  188971.24  49.37
1038.9  382182.90  188770.84  49.39
1042.7  381835.92  188659.86  49.41
1046.5  381689.67  188617.67  49.42
1050.3  381691.95  188629.39  49.42
1054.2  381295.25  188458.68  49.43
1058.0  380868.37  188252.74  49.43
1061.8  380804.19  188198.18  49.42
1065.6  380252.03  187884.24  49.41
1069.4  379444.27  187447.60  49.40
1073.2  378173.41  186756.17  49.38
1077.0  377414.25  186316.08  49.37
1080.8  377483.33  186260.27  49.34
1084.6  377496.82  186137.06  49.31
1088.4  377740.99  186141.10  49.28
1092.2  377237.25  185765.36  49.24
1096.0  376573.98  185278.59  49.20
1099.8  375880.48  184761.08  49.15
1103.6  374919.03  184131.76  49.11
1107.4  373765.96  183393.14  49.07
1111.2  373423.70  183054.35  49.02
1114.9  372839.25  182564.54  48.97
1118.7  372519.68  182165.07  48.90
1122.5  372103.33  181655.34  48.82
1126.3  371163.98  180808.66  48.71
1130.1  370776.53  180058.61  48.56
1133.9  369100.90  178511.02  48.36
1137.7  367510.00  176869.44  48.13
1141.4  365423.61  174853.43  47.85
1145.2  364473.46  173275.59  47.54
1149.0  363148.33  171605.95  47.26
1152.8  361302.35  169818.20  47.00
1156.6  359459.10  168206.68  46.79
1160.3  357602.67  166782.60  46.64
1164.1  355236.43  165242.10  46.52
1167.9  353553.13  164152.61  46.43
1171.7  352272.38  163297.13  46.36
1175.4  350820.43  162402.67  46.29
1179.2  349430.73  161533.96  46.23
1183.0  349059.67  161139.19  46.16
1186.7  348975.20  160912.08  46.11
1190.5  348581.20  160541.11  46.06
1194.3  347619.07  159971.25  46.02
1198.0  346141.13  159209.08  46.00
1201.8  344452.30  158392.58  45.98
1205.6  343330.33  157926.09  46.00
1209.3  342711.43  157752.91  46.03
1213.1  342183.23  157649.84  46.07
1216.8  341534.42  157538.13  46.13
1220.6  340401.60  157200.59  46.18
1224.3  339147.25  156796.96  46.23
1228.1  337618.20  156311.34  46.30
1231.9  336019.55  155728.38  46.35
1235.6  334275.53  155043.60  46.38
1239.4  332698.38  154448.85  46.42
1243.1  331270.70  153876.36  46.45
1246.9  329960.45  153328.32  46.47
1250.6  328879.40  152864.02  46.48
1254.3  327702.74  152329.46  46.48
1258.1  326472.07  151758.64  46.48
1261.8  325002.27  151078.90  46.49
1265.6  323785.55  150473.36  46.47
1269.3  322962.85  150014.87  46.45
1273.1  323314.43  150066.04  46.41
1276.8  323096.40  149831.96  46.37
1280.6  321965.07  149175.41  46.33
1284.3  319996.80  148088.10  46.28
1288.0  318677.74  147271.70  46.21
1291.8  318190.49  146760.73  46.12
1295.5  317439.47  146104.24  46.03
1299.2  316273.58  145217.07  45.92
1302.9  314617.18  144046.09  45.78
1306.7  312831.52  142758.50  45.63
1310.4  311109.66  141409.12  45.45
1314.1  309522.22  140057.83  45.25
1317.9  308090.42  138690.10  45.02
1321.6  306522.26  137194.01  44.76
1325.3  304819.73  135547.45  44.47
1329.0  303511.72  134027.56  44.16
1332.8  301562.80  132149.60  43.82
1336.5  299883.13  130370.79  43.47
1340.2  299723.67  129264.78  43.13
1343.9  299665.00  128193.94  42.78
