/*** Spectra Vista SIG Data ***/
name= 14_20220926_LIST_48_avg.sig
comm= Averaged Ref/Tar of files: HR.092622.0038_moc.sig,HR.092622.0039_moc.sig,HR.092622.0040_moc.sig
data=
337.3  6317.33  427.84  6.77
338.8  6445.40  423.28  6.57
340.3  6900.33  403.31  5.84
341.8  7076.55  387.09  5.47
343.2  7372.48  378.99  5.14
344.7  7814.63  377.85  4.84
346.2  8142.75  361.90  4.44
347.7  8548.20  369.37  4.32
349.2  8920.80  372.96  4.18
350.6  9350.40  399.34  4.27
352.1  9834.25  377.33  3.84
353.6  10320.00  366.93  3.56
355.1  10777.05  363.67  3.37
356.6  11453.20  355.74  3.11
358.0  11968.43  388.39  3.25
359.5  12499.88  406.50  3.25
361.0  13164.60  403.24  3.06
362.5  13784.33  407.57  2.96
364.0  14483.20  414.88  2.86
365.4  15159.05  427.85  2.82
366.9  15819.10  440.62  2.79
368.4  16516.05  470.36  2.85
369.9  17225.00  473.47  2.75
371.3  18068.60  497.24  2.75
372.8  18857.85  519.50  2.75
374.3  19672.40  518.99  2.64
375.8  20496.10  528.25  2.58
377.2  21323.25  540.54  2.53
378.7  22176.18  547.82  2.47
380.2  22935.38  555.37  2.42
381.7  23895.75  583.77  2.44
383.1  24886.20  597.55  2.40
384.6  25761.75  609.87  2.37
386.1  26784.30  618.64  2.31
387.6  27707.03  630.90  2.28
389.0  28728.90  664.05  2.31
390.5  29758.30  658.98  2.21
392.0  30791.25  676.20  2.20
393.4  31955.25  698.70  2.19
394.9  32932.30  726.17  2.21
396.4  34155.00  748.88  2.19
397.9  35270.40  754.84  2.14
399.3  36204.55  782.62  2.16
400.8  37431.08  791.78  2.12
402.2  38614.95  803.88  2.08
403.7  39813.60  832.58  2.09
405.2  40982.90  866.68  2.11
406.6  42264.90  899.96  2.13
408.1  43364.63  921.59  2.13
409.6  44571.55  946.75  2.12
411.0  45802.08  974.45  2.13
412.5  47159.65  1005.64  2.13
414.0  48543.95  1043.44  2.15
415.4  49845.60  1078.44  2.16
416.9  51184.10  1115.74  2.18
418.4  52525.95  1157.56  2.20
419.8  53838.05  1192.47  2.21
421.3  55336.05  1233.54  2.23
422.7  56851.60  1284.40  2.26
424.2  58372.28  1328.48  2.28
425.7  59802.88  1370.42  2.29
427.1  61277.20  1420.39  2.32
428.6  62782.28  1457.21  2.32
430.0  64323.05  1514.41  2.35
431.5  66006.85  1573.52  2.38
432.9  67674.38  1623.05  2.40
434.4  69367.95  1674.59  2.41
435.9  71056.20  1719.95  2.42
437.3  72712.88  1775.00  2.44
438.8  74358.25  1835.75  2.47
440.2  76060.78  1884.35  2.48
441.7  77930.55  1946.10  2.50
443.1  79745.85  2004.12  2.51
444.6  81546.50  2053.01  2.52
446.0  83349.30  2112.99  2.54
447.5  85350.00  2173.33  2.55
448.9  87087.95  2233.28  2.56
450.4  89000.00  2286.67  2.57
451.8  90801.75  2341.65  2.58
453.3  92607.60  2399.44  2.59
454.7  94453.88  2454.36  2.60
456.2  96221.30  2503.90  2.60
457.6  98136.90  2568.42  2.62
459.1  99993.08  2613.66  2.61
460.5  101879.63  2665.14  2.62
462.0  103878.00  2724.84  2.62
463.4  105858.55  2776.39  2.62
464.8  107849.70  2831.01  2.62
466.3  109789.13  2891.61  2.63
467.7  111819.20  2948.48  2.64
469.2  113704.20  3000.98  2.64
470.6  115742.38  3052.47  2.64
472.0  117776.45  3101.57  2.63
473.5  119764.53  3163.90  2.64
474.9  121936.30  3228.86  2.65
476.4  124015.80  3287.81  2.65
477.8  126112.00  3345.07  2.65
479.2  128214.38  3411.58  2.66
480.7  130363.50  3472.63  2.66
482.1  132587.90  3522.27  2.66
483.6  134784.90  3589.80  2.66
485.0  137021.55  3651.67  2.67
486.4  139111.63  3717.13  2.67
487.9  141391.25  3789.27  2.68
489.3  143546.25  3869.59  2.70
490.7  145777.80  3941.27  2.70
492.2  148032.38  4017.90  2.71
493.6  150301.30  4101.61  2.73
495.0  152600.18  4188.47  2.74
496.5  154791.00  4282.74  2.77
497.9  157084.00  4384.88  2.79
499.3  159354.00  4498.38  2.82
500.7  161649.60  4614.79  2.85
502.2  164015.48  4749.33  2.90
503.6  166323.60  4891.76  2.94
505.0  168618.73  5056.96  3.00
506.5  171071.60  5230.36  3.06
507.9  173541.10  5444.43  3.14
509.3  175879.13  5657.85  3.22
510.7  178500.08  5915.13  3.31
512.2  181138.13  6199.26  3.42
513.6  184010.83  6532.01  3.55
515.0  186747.58  6894.39  3.69
516.4  189580.60  7299.36  3.85
517.8  192385.00  7753.53  4.03
519.3  195323.20  8261.55  4.23
520.7  197965.50  8787.63  4.44
522.1  200667.03  9354.93  4.66
523.5  203226.20  9964.59  4.90
524.9  206110.88  10597.68  5.14
526.3  208752.53  11217.60  5.37
527.8  211567.38  11850.75  5.60
529.2  214185.60  12476.16  5.82
530.6  216922.50  13094.40  6.04
532.0  219846.25  13703.30  6.23
533.4  222379.60  14250.01  6.41
534.8  224932.13  14789.17  6.57
536.3  228038.83  15313.92  6.72
537.7  231054.00  15791.60  6.83
539.1  233952.23  16246.88  6.94
540.5  236824.50  16681.10  7.04
541.9  239765.45  17112.07  7.14
543.3  242289.50  17521.85  7.23
544.7  245278.00  17963.73  7.32
546.1  248096.10  18384.24  7.41
547.5  251035.20  18800.64  7.49
549.0  254188.00  19215.68  7.56
550.4  257084.10  19579.56  7.62
551.8  259986.33  19912.75  7.66
553.2  262920.60  20196.52  7.68
554.6  265822.90  20400.21  7.67
556.0  268766.40  20529.88  7.64
557.4  271893.70  20595.17  7.57
558.8  274785.68  20591.82  7.49
560.2  278000.00  20562.67  7.40
561.6  280929.55  20468.47  7.29
563.0  283732.15  20330.01  7.17
564.4  286899.90  20183.61  7.04
565.8  289940.10  19989.19  6.89
567.2  293130.15  19757.03  6.74
568.6  296193.38  19476.99  6.58
570.0  299087.75  19142.07  6.40
571.4  302530.50  18824.12  6.22
572.8  305677.60  18486.75  6.05
574.2  308560.88  18155.62  5.88
575.6  311637.88  17865.13  5.73
577.0  314686.63  17605.94  5.59
578.4  318128.13  17406.67  5.47
579.8  321213.33  17212.61  5.36
581.2  324316.00  17061.30  5.26
582.5  327217.50  16917.00  5.17
583.9  330262.30  16804.05  5.09
585.3  333195.00  16717.00  5.02
586.7  336174.30  16656.64  4.95
588.1  339178.10  16611.35  4.90
589.5  342581.85  16607.46  4.85
590.9  345533.98  16610.79  4.81
592.3  348485.63  16634.22  4.77
593.7  351447.60  16677.22  4.75
595.0  354412.20  16747.68  4.73
596.4  357752.25  16832.08  4.70
597.8  360436.00  16883.93  4.68
599.2  363595.05  16947.32  4.66
600.6  366771.08  16992.03  4.63
602.0  369739.80  17003.92  4.60
603.3  372632.00  16990.13  4.56
604.7  375646.90  16941.35  4.51
606.1  378698.40  16859.28  4.45
607.5  382033.88  16751.23  4.38
608.9  385142.45  16622.76  4.32
610.2  388310.18  16487.46  4.25
611.6  391215.00  16331.33  4.17
613.0  394055.43  16169.22  4.10
614.4  396814.25  16014.06  4.04
615.8  400115.90  15897.11  3.97
617.1  402827.20  15772.13  3.92
618.5  406079.55  15698.18  3.87
619.9  408806.85  15627.62  3.82
621.3  411747.38  15611.79  3.79
622.6  414677.25  15596.10  3.76
624.0  417416.25  15602.50  3.74
625.4  420508.65  15655.04  3.72
626.8  423484.10  15706.77  3.71
628.1  426318.90  15782.67  3.70
629.5  429132.90  15867.06  3.70
630.9  432063.85  15959.26  3.69
632.2  435202.00  16048.62  3.69
633.6  437688.55  16088.63  3.68
635.0  440644.93  16126.97  3.66
636.3  443682.45  16136.32  3.64
637.7  446421.70  16093.75  3.61
639.1  449435.80  16045.85  3.57
640.4  452163.50  15961.90  3.53
641.8  454996.80  15855.12  3.48
643.2  457580.20  15736.37  3.44
644.5  460460.00  15605.33  3.39
645.9  463155.70  15473.87  3.34
647.2  466258.10  15381.01  3.30
648.6  469247.20  15307.89  3.26
650.0  472084.20  15240.72  3.23
651.3  474369.30  15166.25  3.20
652.7  477324.75  15104.00  3.16
654.0  480201.35  15025.93  3.13
655.4  482593.13  14920.08  3.09
656.8  484379.70  14803.88  3.06
658.1  486950.63  14693.49  3.02
659.5  490147.20  14572.80  2.97
660.8  493353.00  14436.10  2.93
662.2  496041.30  14279.72  2.88
663.5  498833.15  14158.64  2.84
664.9  500958.70  14040.61  2.80
666.2  503108.78  13953.25  2.77
667.6  505689.75  13908.00  2.75
668.9  508464.00  13898.88  2.73
670.3  511070.00  13902.93  2.72
671.6  513506.40  13935.47  2.71
673.0  515753.60  14020.27  2.72
674.3  518194.60  14111.02  2.72
675.7  520713.00  14241.00  2.73
677.0  523083.30  14395.91  2.75
678.4  525347.80  14550.56  2.77
679.7  527770.28  14767.49  2.80
681.1  530332.25  15011.27  2.83
682.4  532526.63  15311.50  2.88
683.8  534899.63  15661.80  2.93
685.1  537119.85  16114.02  3.00
686.4  539340.10  16655.34  3.09
687.8  541887.15  17343.12  3.20
689.1  544296.90  18212.97  3.35
690.5  546251.80  19299.64  3.53
691.8  549013.30  20752.78  3.78
693.1  551406.00  22602.60  4.10
694.5  553722.70  24967.27  4.51
695.8  556126.20  27898.08  5.02
697.1  558398.60  31452.35  5.63
698.5  560755.75  35702.70  6.37
699.8  563181.20  40629.39  7.21
701.1  565037.03  46160.45  8.17
702.5  567128.13  52275.55  9.22
703.8  569550.45  58904.67  10.34
705.1  571435.45  65846.90  11.52
706.5  573672.85  73187.30  12.76
707.8  575545.43  80743.58  14.03
709.1  577825.75  88556.92  15.33
710.5  580063.05  96553.84  16.65
711.8  581962.00  104690.67  17.99
713.1  583940.00  112946.67  19.34
714.4  586043.53  121364.92  20.71
715.8  588318.35  129914.20  22.08
717.1  590550.90  138546.02  23.46
718.4  592780.95  147192.70  24.83
719.7  595052.78  155826.27  26.19
721.0  596771.28  164263.35  27.53
722.4  598659.75  172656.12  28.84
723.7  600613.45  180925.10  30.12
725.0  602369.55  188957.64  31.37
726.3  604700.20  196943.41  32.57
727.6  606402.00  204505.80  33.72
729.0  608298.25  211830.92  34.82
730.3  610305.18  218871.76  35.86
731.6  611852.30  225433.92  36.84
732.9  613837.90  231832.08  37.77
734.2  615511.88  237789.20  38.63
735.5  617324.95  243491.01  39.44
736.8  619266.38  248940.02  40.20
738.1  621166.50  253988.08  40.89
739.5  622885.65  258713.28  41.53
740.8  624850.05  263184.90  42.12
742.1  626467.70  267262.05  42.66
743.4  628217.45  271175.10  43.17
744.7  630189.00  274883.47  43.62
746.0  631754.60  278173.27  44.03
747.3  633376.80  281229.11  44.40
748.6  634999.30  284076.35  44.74
749.9  636832.73  286827.26  45.04
751.2  638207.00  289157.39  45.31
752.5  639838.20  291488.64  45.56
753.8  641218.50  293546.88  45.78
755.1  642736.48  295550.90  45.98
756.4  643876.55  297232.52  46.16
757.7  645909.00  299131.43  46.31
759.0  649513.10  301700.51  46.45
760.3  652262.15  303753.22  46.57
761.6  655189.65  305769.02  46.67
762.9  656625.75  307048.87  46.76
764.2  657453.05  307985.04  46.85
765.5  658305.15  308885.38  46.92
766.8  658900.55  309588.12  46.99
768.1  660003.75  310497.18  47.04
769.3  661301.75  311428.89  47.09
770.6  662685.90  312401.26  47.14
771.9  663929.13  313237.23  47.18
773.2  665455.05  314176.59  47.21
774.5  666476.40  314841.84  47.24
775.8  667507.75  315581.26  47.28
777.1  668789.20  316351.89  47.30
778.4  670063.50  317137.27  47.33
779.6  671453.40  317942.72  47.35
780.9  672166.35  318438.27  47.37
782.2  673210.58  319064.82  47.39
783.5  674159.25  319654.53  47.42
784.8  674992.50  320188.75  47.44
786.0  675851.88  320714.85  47.45
787.3  676759.78  321236.29  47.47
788.6  677704.38  321788.47  47.48
789.9  678451.20  322264.32  47.50
791.2  679874.80  323046.95  47.52
792.4  681082.88  323702.32  47.53
793.7  682704.98  324540.96  47.54
795.0  683736.75  325150.39  47.55
796.2  685198.60  325910.29  47.56
797.5  686495.63  326600.33  47.58
798.8  687932.00  327385.22  47.59
800.0  689150.00  328020.00  47.60
801.3  690464.25  328708.80  47.61
802.6  691560.00  329318.40  47.62
803.8  692605.73  329934.57  47.64
805.1  693760.13  330536.45  47.64
806.4  694750.13  331105.61  47.66
807.7  695894.60  331723.87  47.67
808.9  697142.75  332363.38  47.68
810.2  698056.80  332887.52  47.69
811.4  699192.40  333492.11  47.70
812.7  700524.05  334230.81  47.71
814.0  701939.70  334934.60  47.72
815.2  703250.55  335672.02  47.73
816.5  704401.25  336301.58  47.74
817.7  705341.00  336786.57  47.75
819.0  706087.20  337204.75  47.76
820.2  706853.85  337706.56  47.78
821.5  708107.00  338322.67  47.78
822.7  709126.08  338924.44  47.79
824.0  710060.65  339463.02  47.81
825.2  710837.40  339874.86  47.81
826.5  711646.40  340302.46  47.82
827.7  712623.98  340857.15  47.83
829.0  713586.08  341377.89  47.84
830.2  714526.40  341899.97  47.85
831.5  715427.33  342433.17  47.86
832.7  716499.00  342942.78  47.86
834.0  717042.38  343337.76  47.88
835.2  718222.80  343896.45  47.88
836.4  719042.00  344326.61  47.89
837.7  719910.00  344778.75  47.89
838.9  721001.40  345463.54  47.91
840.1  721891.50  345947.80  47.92
841.4  722875.10  346512.88  47.94
842.6  723850.40  347076.99  47.95
843.8  724629.10  347562.80  47.96
845.1  725509.95  348060.46  47.97
846.3  726493.95  348577.88  47.98
847.5  727392.25  349141.87  48.00
848.8  728394.40  349697.66  48.01
850.0  729429.60  350370.51  48.03
851.2  730414.45  350913.15  48.04
852.5  731714.70  351558.60  48.05
853.7  732422.93  351948.06  48.05
854.9  733599.75  352598.22  48.06
856.1  734674.85  353180.39  48.07
857.4  735413.18  353721.08  48.10
858.6  736443.40  354256.93  48.10
859.8  737712.90  354893.04  48.11
861.0  738797.15  355434.10  48.11
862.2  739800.60  356008.52  48.12
863.5  740707.80  356529.63  48.13
864.7  741606.25  357094.17  48.15
865.9  742720.88  357680.65  48.16
867.1  743481.25  358042.08  48.16
868.3  744739.83  358669.63  48.16
869.5  746151.20  359320.19  48.16
870.8  747179.55  359936.22  48.17
872.0  748135.28  360441.49  48.18
873.2  749062.38  360954.59  48.19
874.4  750031.05  361400.89  48.18
875.6  751094.08  362039.90  48.20
876.8  752715.15  362780.00  48.20
878.0  753694.55  363316.10  48.20
879.2  754794.05  363862.90  48.21
880.4  755964.00  364425.33  48.21
881.6  756893.20  364902.67  48.21
882.8  758252.95  365562.15  48.21
884.0  759392.73  366062.71  48.20
885.2  760775.50  366761.40  48.21
886.5  762097.70  367440.80  48.21
887.7  763294.05  367941.37  48.20
888.8  764811.75  368633.82  48.20
890.0  765686.25  369092.50  48.20
891.2  766688.33  369619.38  48.21
892.4  768169.05  370368.57  48.21
893.6  770159.33  371205.16  48.20
894.8  771871.28  372043.64  48.20
896.0  773313.73  372738.40  48.20
897.2  775036.35  373578.48  48.20
898.4  777115.50  374645.04  48.21
899.6  778564.70  375289.01  48.20
900.8  779334.40  375558.56  48.19
902.0  780189.10  375877.01  48.18
903.2  780337.10  376042.81  48.19
904.3  781413.75  376535.25  48.19
905.5  782520.75  377190.00  48.20
906.7  784095.85  377765.59  48.18
907.9  785205.03  378287.80  48.18
909.1  786354.80  378798.16  48.17
910.2  786948.75  378945.00  48.15
911.4  787124.93  379044.54  48.16
912.6  787640.00  379302.33  48.16
913.8  788836.30  379835.59  48.15
915.0  789351.00  380019.09  48.14
916.2  789534.98  380103.37  48.14
917.3  790302.33  380426.57  48.14
918.5  790767.90  380670.78  48.14
919.7  791140.25  380672.20  48.12
920.8  791477.95  380731.55  48.10
922.0  791521.50  380720.05  48.10
923.2  792138.60  380903.01  48.09
924.4  792807.25  381152.37  48.08
925.5  793817.40  381466.35  48.05
926.7  794527.93  381844.07  48.06
927.9  796401.63  382426.95  48.02
929.0  799318.80  383767.20  48.01
930.2  803935.60  385616.91  47.97
931.4  809358.00  387919.57  47.93
932.5  813982.95  389977.43  47.91
933.7  816698.10  391106.23  47.89
934.9  818116.25  391694.33  47.88
936.0  817076.48  390997.41  47.85
937.2  814434.08  389328.44  47.80
938.3  810764.50  387194.17  47.76
939.5  808551.90  385897.20  47.73
940.7  808372.95  385602.40  47.70
941.8  811608.20  386768.11  47.65
943.0  813909.68  387603.39  47.62
944.2  815814.00  388155.20  47.58
945.3  815594.40  387543.52  47.52
946.5  813828.75  386383.67  47.48
947.6  814492.00  386424.40  47.44
948.8  813555.83  385443.63  47.38
949.9  814227.40  385147.51  47.30
951.1  815216.60  384569.57  47.17
952.2  814632.70  383822.58  47.12
953.4  814355.25  383059.38  47.04
954.5  812707.88  381714.90  46.97
955.7  811986.65  381019.04  46.92
956.8  812603.20  380674.24  46.85
958.0  811771.20  379597.98  46.76
959.1  811944.00  378786.24  46.65
960.3  811687.50  378325.00  46.61
961.4  812356.00  378217.84  46.56
962.6  811879.20  377815.68  46.54
963.7  812464.80  377568.80  46.47
964.9  812756.45  377397.00  46.43
966.0  813351.35  377591.57  46.42
967.2  813968.40  377576.08  46.39
968.3  815784.75  378099.29  46.35
969.5  815796.00  378287.63  46.37
970.6  815977.90  378292.19  46.36
971.8  816045.13  378111.02  46.33
972.9  817215.00  378410.67  46.30
974.0  818306.43  378568.71  46.26
975.2  817796.25  377948.25  46.22
976.3  818524.90  378579.90  46.25
977.5  817680.38  378257.15  46.26
978.6  817651.65  378319.67  46.27
979.7  818417.60  378076.16  46.20
980.9  818590.78  378036.77  46.18
982.0  818822.05  378148.09  46.18
983.2  818637.40  378494.11  46.23
984.3  816486.30  377634.13  46.25
985.4  816629.80  377642.25  46.24
986.6  818170.35  377809.55  46.18
987.7  818618.25  377076.58  46.06
988.9  818371.68  378257.10  46.22
990.0  818246.45  378198.54  46.22
993.1  836280.60  384775.97  46.01
996.9  837843.50  386652.63  46.15
1000.7  838579.50  388110.24  46.28
1004.5  838054.00  388995.35  46.42
1008.4  839304.08  390649.74  46.54
1012.2  840933.38  392392.96  46.66
1016.0  841533.75  393587.51  46.77
1019.8  841257.31  394325.17  46.87
1023.7  841278.70  395070.64  46.96
1027.5  840285.53  395391.79  47.05
1031.3  839854.37  395836.26  47.13
1035.1  839523.75  396307.31  47.21
1038.9  839350.98  396797.19  47.27
1042.7  838865.60  397182.86  47.35
1046.5  838165.13  397227.63  47.39
1050.3  836620.18  396845.29  47.43
1054.2  834691.28  396269.38  47.47
1058.0  833659.20  396006.69  47.50
1061.8  832461.00  395658.78  47.53
1065.6  830816.83  394949.27  47.54
1069.4  829337.07  394300.61  47.54
1073.2  828282.00  393715.68  47.53
1077.0  827141.33  392993.34  47.51
1080.8  826074.33  392260.79  47.48
1084.6  824649.83  391291.74  47.45
1088.4  823098.70  390381.66  47.43
1092.2  821419.20  389297.40  47.39
1096.0  820140.30  388294.67  47.34
1099.8  818726.50  387194.48  47.29
1103.6  817056.38  385945.60  47.24
1107.4  815740.70  384718.36  47.16
1111.2  814287.38  383446.18  47.09
1114.9  813030.00  382134.64  47.00
1118.7  812164.00  380802.23  46.89
1122.5  811836.78  379437.02  46.74
1126.3  809231.85  376704.45  46.55
1130.1  808570.28  374279.29  46.29
1133.9  805198.09  369866.23  45.93
1137.7  802668.60  365114.34  45.49
1141.4  799243.63  359288.24  44.95
1145.2  798509.71  354307.66  44.37
1149.0  796616.10  349048.07  43.82
1152.8  793434.05  343845.45  43.34
1156.6  790033.07  339530.32  42.98
1160.3  786829.65  336245.40  42.73
1164.1  782124.33  333024.99  42.58
1167.9  778922.54  330977.51  42.49
1171.7  776395.27  329488.57  42.44
1175.4  774311.09  328298.97  42.40
1179.2  772657.50  327244.07  42.35
1183.0  772944.63  326936.59  42.30
1186.7  772585.33  326377.67  42.24
1190.5  770543.75  325254.95  42.21
1194.3  767520.60  323818.80  42.19
1198.0  764803.33  322669.37  42.19
1201.8  762454.00  321889.33  42.22
1205.6  760706.00  321525.24  42.27
1209.3  759126.75  321463.61  42.35
1213.1  757256.54  321344.92  42.44
1216.8  754905.20  321157.98  42.54
1220.6  752564.83  320928.76  42.64
1224.3  750154.17  320636.90  42.74
1228.1  748176.94  320539.58  42.84
1231.9  746055.05  320254.26  42.93
1235.6  743818.90  319821.90  43.00
1239.4  741649.08  319457.04  43.07
1243.1  739573.20  318990.34  43.13
1246.9  737628.47  318514.31  43.18
1250.6  735643.25  317902.24  43.21
1254.3  733828.80  317301.60  43.24
1258.1  732000.00  316607.43  43.25
1261.8  729748.60  315644.27  43.25
1265.6  727312.24  314481.49  43.24
1269.3  724475.40  313061.08  43.21
1273.1  724604.32  312809.82  43.17
1276.8  725247.40  312641.11  43.11
1280.6  725444.67  312184.03  43.03
1284.3  723416.22  310607.27  42.94
1288.0  721345.19  308867.08  42.82
1291.8  719182.80  306822.60  42.66
1295.5  716838.35  304651.74  42.50
1299.2  714361.05  302222.14  42.31
1302.9  711639.04  299404.64  42.07
1306.7  708669.68  296227.35  41.80
1310.4  705818.62  292722.88  41.47
1314.1  703522.50  289188.48  41.11
1317.9  701178.51  285235.17  40.68
1321.6  698576.67  280856.34  40.20
1325.3  695787.98  276085.90  39.68
1329.0  693118.07  271152.93  39.12
1332.8  689221.25  265489.82  38.52
1336.5  685545.63  259886.29  37.91
1340.2  683553.10  254953.52  37.30
