/*** Spectra Vista SIG Data ***/
name= 55_20220722_LIST_57_avg.sig
comm= Averaged Ref/Tar of files: HR.072222.0040_moc.sig,HR.072222.0041_moc.sig,HR.072222.0042_moc.sig
data=
337.3  3010.58  263.72  8.76
338.8  3142.53  251.04  7.99
340.3  3310.73  255.22  7.71
341.8  3475.10  253.45  7.29
343.2  3640.80  252.02  6.92
344.7  3781.63  253.46  6.70
346.2  3948.83  250.55  6.34
347.7  4116.02  242.69  5.90
349.2  4284.00  236.88  5.53
350.6  4504.93  235.04  5.22
352.1  4739.52  228.64  4.82
353.6  4996.80  242.57  4.85
355.1  5253.30  244.38  4.65
356.6  5506.20  249.71  4.54
358.0  5763.27  254.59  4.42
359.5  6015.20  256.62  4.27
361.0  6284.25  263.34  4.19
362.5  6616.15  271.00  4.10
364.0  6920.23  276.92  4.00
365.4  7249.80  280.46  3.87
366.9  7587.67  289.40  3.81
368.4  7909.75  301.84  3.82
369.9  8251.63  308.86  3.74
371.3  8633.00  320.91  3.72
372.8  8991.60  332.25  3.70
374.3  9370.42  339.90  3.63
375.8  9737.93  343.42  3.53
377.2  10114.40  349.96  3.46
378.7  10491.00  346.37  3.30
380.2  10867.60  362.25  3.33
381.7  11350.50  364.97  3.22
383.1  11804.10  378.84  3.21
384.6  12282.62  392.55  3.20
386.1  12737.78  393.28  3.09
387.6  13169.57  401.94  3.05
389.0  13650.13  412.98  3.03
390.5  14124.60  416.20  2.95
392.0  14653.30  426.73  2.91
393.4  15186.95  445.42  2.93
394.9  15694.80  464.83  2.96
396.4  16197.75  473.64  2.92
397.9  16724.58  478.33  2.86
399.3  17237.88  481.90  2.80
400.8  17746.60  494.70  2.79
402.2  18330.67  510.64  2.79
403.7  18858.75  526.90  2.79
405.2  19429.28  540.69  2.78
406.6  19952.00  555.92  2.79
408.1  20490.67  563.92  2.75
409.6  21057.37  573.63  2.72
411.0  21663.13  591.70  2.73
412.5  22268.87  609.28  2.74
414.0  22860.75  630.27  2.76
415.4  23505.50  643.57  2.74
416.9  24119.45  659.02  2.73
418.4  24750.60  679.06  2.74
419.8  25407.20  694.72  2.73
421.3  26060.15  716.73  2.75
422.7  26761.20  739.09  2.76
424.2  27483.75  761.79  2.77
425.7  28177.27  780.23  2.77
427.1  28875.35  799.69  2.77
428.6  29594.67  824.01  2.78
430.0  30279.18  841.71  2.78
431.5  31063.90  863.66  2.78
432.9  31849.10  883.46  2.77
434.4  32661.00  913.25  2.80
435.9  33422.67  939.47  2.81
437.3  34191.67  958.83  2.80
438.8  34960.15  980.50  2.80
440.2  35735.70  1004.34  2.81
441.7  36617.73  1028.35  2.81
443.1  37453.33  1055.20  2.82
444.6  38321.87  1083.68  2.83
446.0  39175.85  1112.14  2.84
447.5  40041.65  1140.11  2.85
448.9  40893.00  1167.14  2.85
450.4  41811.23  1194.61  2.86
451.8  42596.67  1221.50  2.87
453.3  43435.15  1251.71  2.88
454.7  44364.62  1278.60  2.88
456.2  45150.15  1306.13  2.89
457.6  46037.70  1329.78  2.89
459.1  46912.88  1358.39  2.90
460.5  47766.58  1384.63  2.90
462.0  48735.08  1409.43  2.89
463.4  49667.07  1438.89  2.90
464.8  50569.75  1462.29  2.89
466.3  51462.40  1489.59  2.89
467.7  52368.38  1520.37  2.90
469.2  53344.25  1549.59  2.90
470.6  54223.63  1570.39  2.90
472.0  55174.00  1600.53  2.90
473.5  56085.67  1633.12  2.91
474.9  57019.00  1660.60  2.91
476.4  58080.00  1693.71  2.92
477.8  59053.67  1723.98  2.92
479.2  59981.67  1753.53  2.92
480.7  60978.35  1780.01  2.92
482.1  62009.77  1814.92  2.93
483.6  63088.70  1854.28  2.94
485.0  64085.65  1888.37  2.95
486.4  65164.60  1927.25  2.96
487.9  66144.00  1963.09  2.97
489.3  67214.72  2002.60  2.98
490.7  68186.57  2044.67  3.00
492.2  69305.60  2091.32  3.02
493.6  70320.00  2139.46  3.04
495.0  71331.00  2187.62  3.07
496.5  72396.67  2243.18  3.10
497.9  73404.35  2305.23  3.14
499.3  74460.95  2366.73  3.18
500.7  75603.77  2446.69  3.24
502.2  76650.00  2528.72  3.30
503.6  77769.33  2623.83  3.37
505.0  78738.87  2729.64  3.47
506.5  79922.90  2850.03  3.57
507.9  81023.57  2990.13  3.69
509.3  82278.13  3153.10  3.83
510.7  83430.75  3333.11  4.00
512.2  84698.05  3547.06  4.19
513.6  86023.47  3791.95  4.41
515.0  87303.57  4071.60  4.66
516.4  88546.50  4381.29  4.95
517.8  90004.50  4737.39  5.26
519.3  91206.00  5115.26  5.61
520.7  92608.23  5533.56  5.98
522.1  93781.57  5961.60  6.36
523.5  95020.40  6412.53  6.75
524.9  96329.40  6875.09  7.14
526.3  97580.00  7325.88  7.51
527.8  98901.00  7775.74  7.86
529.2  99949.20  8198.69  8.20
530.6  101439.00  8636.97  8.51
532.0  103030.67  9058.13  8.79
533.4  104183.60  9408.64  9.03
534.8  104944.78  9695.31  9.24
536.3  106476.60  10021.95  9.41
537.7  108351.60  10358.64  9.56
539.1  109700.72  10625.56  9.69
540.5  110771.63  10854.64  9.80
541.9  112364.90  11125.69  9.90
543.3  113535.32  11352.76  10.00
544.7  114706.80  11578.49  10.09
546.1  116312.90  11851.64  10.19
547.5  117502.93  12067.20  10.27
549.0  119122.67  12318.53  10.34
550.4  120480.42  12524.35  10.40
551.8  121886.52  12716.20  10.43
553.2  123283.77  12869.49  10.44
554.6  124494.93  12964.54  10.41
556.0  125897.40  13031.34  10.35
557.4  127348.55  13053.75  10.25
558.8  128823.00  13041.59  10.12
560.2  130130.17  12973.30  9.97
561.6  131646.90  12893.44  9.79
563.0  133095.35  12775.51  9.60
564.4  134533.60  12629.05  9.39
565.8  135915.00  12446.83  9.16
567.2  137478.17  12251.93  8.91
568.6  138844.75  12012.42  8.65
570.0  140150.75  11748.27  8.38
571.4  141727.30  11495.58  8.11
572.8  143319.67  11250.02  7.85
574.2  144786.13  11007.57  7.60
575.6  146175.00  10780.71  7.38
577.0  147547.87  10574.00  7.17
578.4  149118.67  10408.02  6.98
579.8  150490.80  10244.66  6.81
581.2  152056.92  10114.79  6.65
582.5  153340.20  9981.77  6.51
583.9  154713.73  9871.54  6.38
585.3  156336.75  9790.08  6.26
586.7  157679.82  9708.64  6.16
588.1  159031.50  9643.42  6.06
589.5  160524.00  9599.80  5.98
590.9  162018.40  9573.04  5.91
592.3  163652.00  9569.08  5.85
593.7  164960.90  9559.85  5.80
595.0  166425.75  9565.50  5.75
596.4  167745.67  9576.59  5.71
597.8  169085.90  9581.86  5.67
599.2  170491.20  9593.76  5.63
600.6  172087.93  9596.54  5.58
602.0  173263.05  9566.78  5.52
603.3  174885.33  9550.04  5.46
604.7  176389.27  9506.34  5.39
606.1  177744.00  9435.78  5.31
607.5  179233.32  9357.07  5.22
608.9  180767.30  9270.86  5.13
610.2  182025.90  9155.16  5.03
611.6  183474.60  9046.03  4.93
613.0  184873.30  8933.68  4.83
614.4  186123.60  8818.69  4.74
615.8  187453.50  8719.01  4.65
617.1  188836.20  8637.16  4.57
618.5  190308.27  8565.96  4.50
619.9  191676.80  8510.95  4.44
621.3  193140.90  8479.33  4.39
622.6  194579.83  8460.99  4.35
624.0  195895.70  8452.18  4.31
625.4  197222.85  8460.32  4.29
626.8  198648.45  8488.48  4.27
628.1  199848.73  8509.63  4.26
629.5  201527.88  8552.71  4.24
630.9  202977.50  8585.92  4.23
632.2  204220.57  8601.64  4.21
633.6  205682.67  8610.45  4.19
635.0  207065.07  8585.91  4.15
636.3  208430.40  8536.97  4.10
637.7  209681.50  8457.16  4.03
639.1  211166.67  8363.00  3.96
640.4  212500.63  8248.67  3.88
641.8  213602.92  8120.73  3.80
643.2  215050.27  8000.01  3.72
644.5  216286.83  7875.66  3.64
645.9  217796.10  7774.65  3.57
647.2  219387.93  7695.76  3.51
648.6  220968.00  7637.53  3.46
650.0  222220.80  7584.27  3.41
651.3  222665.48  7524.42  3.38
652.7  223815.50  7494.10  3.35
654.0  225809.27  7490.26  3.32
655.4  227142.67  7455.02  3.28
656.8  227257.27  7378.58  3.25
658.1  228331.73  7315.02  3.20
659.5  230611.15  7292.37  3.16
660.8  232365.00  7249.71  3.12
662.2  233169.07  7176.11  3.08
663.5  234612.80  7137.36  3.04
664.9  235777.53  7100.62  3.01
666.2  236415.20  7062.98  2.99
667.6  237939.85  7072.13  2.97
668.9  239050.32  7098.59  2.97
670.3  240128.50  7124.20  2.97
671.6  241531.25  7179.46  2.97
673.0  242593.25  7251.10  2.99
674.3  243748.27  7331.31  3.01
675.7  244944.20  7431.50  3.03
677.0  245945.83  7535.91  3.06
678.4  247164.55  7661.34  3.10
679.7  248177.70  7796.85  3.14
681.1  249388.63  7967.60  3.19
682.4  250451.93  8156.79  3.26
683.8  251586.40  8372.32  3.33
685.1  252490.50  8627.06  3.42
686.4  253657.20  8943.01  3.53
687.8  254821.83  9345.85  3.67
689.1  255800.83  9862.05  3.86
690.5  257069.70  10576.87  4.11
691.8  257803.23  11522.18  4.47
693.1  259010.30  12805.66  4.94
694.5  260062.83  14435.63  5.55
695.8  261170.00  16457.13  6.30
697.1  262292.33  18887.70  7.20
698.5  263259.47  21729.74  8.25
699.8  264269.57  24964.10  9.45
701.1  265312.62  28548.47  10.76
702.5  266029.87  32379.65  12.17
703.8  266925.00  36448.71  13.66
705.1  267993.70  40696.89  15.19
706.5  268962.42  45047.91  16.75
707.8  269868.80  49459.91  18.33
709.1  270683.18  53891.70  19.91
710.5  271739.90  58403.05  21.49
711.8  272506.00  62874.96  23.07
713.1  273427.73  67381.68  24.64
714.4  274275.13  71850.60  26.20
715.8  275033.33  76282.14  27.74
717.1  276246.00  80794.19  29.25
718.4  277117.87  85152.43  30.73
719.7  278120.63  89490.31  32.18
721.0  278610.00  93585.00  33.59
722.4  279334.37  97642.79  34.96
723.7  280240.90  101644.57  36.27
725.0  281199.15  105545.29  37.53
726.3  282086.57  109268.71  38.74
727.6  282588.72  112703.76  39.88
729.0  283429.42  116103.99  40.96
730.3  284113.15  119278.71  41.98
731.6  284945.63  122337.83  42.93
732.9  285692.87  125195.12  43.82
734.2  286452.83  127893.75  44.65
735.5  287397.08  130519.84  45.41
736.8  288113.00  132891.09  46.12
738.1  288855.40  135133.33  46.78
739.5  289745.43  137279.00  47.38
740.8  290404.03  139175.57  47.92
742.1  291089.73  140966.45  48.43
743.4  291783.33  142644.76  48.89
744.7  292684.55  144324.68  49.31
746.0  293485.40  145846.03  49.69
747.3  293979.93  147114.43  50.04
748.6  294648.67  148363.16  50.35
749.9  295325.33  149517.33  50.63
751.2  296000.57  150580.17  50.87
752.5  296837.37  151654.56  51.09
753.8  297428.83  152535.77  51.28
755.1  298081.33  153386.13  51.46
756.4  298625.92  154123.28  51.61
757.7  299497.45  154983.84  51.75
759.0  301150.42  156184.61  51.86
760.3  302244.80  157066.42  51.97
761.6  303701.07  158082.53  52.05
762.9  304218.83  158586.74  52.13
764.2  304561.80  158979.51  52.20
765.5  304823.98  159306.46  52.26
766.8  305220.27  159668.14  52.31
768.1  305692.67  160061.93  52.36
769.3  306251.40  160466.38  52.40
770.6  306891.00  160904.16  52.43
771.9  307558.30  161349.91  52.46
773.2  307950.67  161617.10  52.48
774.5  308498.67  161998.03  52.51
775.8  309137.37  162392.53  52.53
777.1  309650.73  162728.63  52.55
778.4  309962.95  162961.25  52.57
779.6  310665.88  163382.75  52.59
780.9  311120.00  163661.71  52.60
782.2  311554.83  163928.50  52.62
783.5  311852.33  164135.31  52.63
784.8  312318.90  164430.53  52.65
786.0  312683.70  164655.34  52.66
787.3  313050.35  164890.03  52.67
788.6  313476.25  165139.02  52.68
789.9  313907.07  165398.21  52.69
791.2  314500.77  165746.56  52.70
792.4  315109.10  166105.44  52.71
793.7  315540.93  166366.35  52.72
795.0  316128.45  166694.75  52.73
796.2  316718.15  167040.82  52.74
797.5  317386.50  167414.85  52.75
798.8  318058.27  167765.60  52.75
800.0  318672.88  168122.34  52.76
801.3  319099.93  168371.78  52.76
802.6  319659.30  168684.74  52.77
803.8  320250.23  169023.75  52.78
805.1  320740.58  169273.08  52.78
806.4  321183.00  169533.39  52.78
807.7  321702.30  169811.79  52.79
808.9  322246.33  170118.76  52.79
810.2  322728.00  170382.15  52.79
811.4  323206.00  170654.91  52.80
812.7  323781.25  170963.93  52.80
814.0  324563.77  171382.30  52.80
815.2  325176.83  171716.56  52.81
816.5  325573.87  171943.30  52.81
817.7  326031.37  172210.48  52.82
819.0  326541.23  172474.15  52.82
820.2  326714.67  172573.87  52.82
821.5  327373.80  172926.47  52.82
822.7  327700.45  173125.56  52.83
824.0  328062.60  173307.03  52.83
825.2  328509.00  173565.95  52.83
826.5  328844.90  173736.98  52.83
827.7  329355.45  174012.41  52.83
829.0  329738.32  174215.54  52.83
830.2  330029.30  174376.71  52.84
831.5  330521.93  174616.57  52.83
832.7  330842.75  174779.45  52.83
834.0  331177.93  174939.86  52.82
835.2  331537.80  175142.36  52.83
836.4  331837.00  175314.20  52.83
837.7  332209.87  175529.54  52.84
838.9  332653.00  175771.08  52.84
840.1  333012.60  176002.80  52.85
841.4  333434.00  176225.26  52.85
842.6  333775.73  176428.72  52.86
843.8  334176.27  176641.61  52.86
845.1  334654.87  176917.26  52.87
846.3  335037.47  177147.33  52.87
847.5  335477.80  177368.64  52.87
848.8  335862.40  177599.07  52.88
850.0  336221.67  177792.35  52.88
851.2  336750.30  178084.21  52.88
852.5  337103.47  178310.64  52.89
853.7  337603.50  178569.99  52.89
854.9  338079.47  178820.02  52.89
856.1  338543.83  179049.80  52.89
857.4  338718.05  179163.94  52.89
858.6  339222.53  179417.10  52.89
859.8  339613.75  179642.93  52.90
861.0  340095.60  179896.53  52.90
862.2  340544.02  180154.14  52.90
863.5  340881.45  180327.27  52.90
864.7  341462.00  180585.93  52.89
865.9  341799.33  180822.65  52.90
867.1  342128.10  180988.14  52.90
868.3  342613.40  181235.37  52.90
869.5  343097.97  181486.51  52.90
870.8  343638.00  181758.17  52.89
872.0  344147.80  182015.69  52.89
873.2  344537.30  182236.87  52.89
874.4  345015.45  182462.34  52.89
875.6  345372.57  182645.24  52.88
876.8  345827.20  182898.84  52.89
878.0  346359.30  183154.17  52.88
879.2  346909.60  183420.03  52.87
880.4  347434.00  183704.21  52.87
881.6  347885.17  183941.76  52.87
882.8  348277.87  184142.72  52.87
884.0  348839.53  184432.78  52.87
885.2  349396.80  184679.50  52.86
886.5  350009.77  184940.01  52.84
887.7  350557.35  185211.43  52.83
888.8  351165.35  185533.39  52.83
890.0  351741.43  185798.09  52.82
891.2  352312.00  186123.90  52.83
892.4  352922.85  186388.37  52.81
893.6  353476.03  186660.23  52.81
894.8  354376.33  187097.22  52.80
896.0  355182.67  187499.32  52.79
897.2  355983.33  187882.44  52.78
898.4  356754.20  188251.49  52.77
899.6  357330.00  188538.07  52.76
900.8  357742.17  188714.77  52.75
902.0  357997.30  188804.44  52.74
903.2  358277.20  188938.92  52.74
904.3  358632.40  189137.12  52.74
905.5  359244.85  189442.66  52.73
906.7  359870.67  189743.90  52.73
907.9  360419.50  189977.76  52.71
909.1  360756.90  190098.58  52.69
910.2  361038.35  190156.71  52.67
911.4  361294.05  190262.73  52.66
912.6  361489.70  190379.71  52.67
913.8  361788.60  190519.93  52.66
915.0  362271.70  190714.16  52.64
916.2  362589.50  190769.61  52.61
917.3  362642.10  190742.55  52.60
918.5  362892.27  190828.20  52.59
919.7  363078.00  190912.88  52.58
920.8  363246.93  190909.88  52.56
922.0  363375.83  190926.63  52.54
923.2  363727.00  191040.20  52.52
924.4  364018.50  191107.74  52.50
925.5  364312.33  191168.77  52.47
926.7  364859.67  191398.10  52.46
927.9  365645.20  191679.01  52.42
929.0  366992.10  192287.21  52.40
930.2  369145.93  193274.48  52.36
931.4  371519.55  194432.31  52.33
932.5  374050.13  195604.01  52.29
933.7  375369.70  196142.73  52.25
934.9  376089.58  196312.75  52.20
936.0  375627.42  196046.53  52.19
937.2  373806.70  194956.83  52.15
938.3  372410.20  194069.11  52.11
939.5  370999.20  193194.17  52.07
940.7  371418.60  193179.58  52.01
941.8  372836.60  193726.00  51.96
943.0  374154.50  194255.79  51.92
944.2  374919.57  194517.03  51.88
945.3  374575.50  194142.00  51.83
946.5  374049.00  193633.35  51.77
947.6  374280.53  193475.14  51.69
948.8  374209.55  193211.94  51.63
949.9  374270.40  193034.64  51.58
951.1  374045.97  192576.57  51.48
952.2  373864.00  192183.54  51.40
953.4  373740.83  191680.59  51.29
954.5  373744.80  191413.34  51.21
955.7  373850.40  191050.08  51.10
956.8  373625.87  190602.32  51.01
958.0  373301.33  190182.01  50.95
959.1  373349.15  189897.07  50.86
960.3  373019.45  189473.12  50.79
961.4  372934.50  189261.75  50.75
962.6  373210.83  189192.43  50.69
963.7  373057.55  188961.00  50.65
964.9  373023.15  188871.21  50.63
966.0  372903.75  188653.78  50.59
967.2  373155.90  188613.16  50.55
968.3  373015.80  188508.14  50.54
969.5  372766.67  188374.97  50.53
970.6  372840.22  188446.68  50.54
971.8  372883.93  188512.28  50.56
972.9  372796.65  188506.59  50.57
974.0  373046.87  188581.26  50.55
975.2  373190.75  188489.43  50.51
976.3  373105.02  188372.45  50.49
977.5  372880.55  188432.00  50.53
978.6  372893.20  188458.53  50.54
979.7  372908.55  188683.07  50.60
980.9  373065.28  188675.61  50.57
982.0  373081.13  188752.91  50.59
983.2  372634.63  188594.58  50.61
984.3  372684.27  188517.33  50.58
985.4  372602.30  188670.55  50.64
986.6  372569.17  188834.66  50.68
987.7  373507.52  189294.33  50.68
988.9  373195.20  189355.20  50.74
990.0  374037.80  189798.02  50.74
993.1  327357.33  163667.43  50.00
996.9  327837.93  164547.84  50.19
1000.7  328786.15  165582.18  50.36
1004.5  329261.50  166366.48  50.53
1008.4  329052.13  166793.67  50.69
1012.2  329028.63  167324.52  50.85
1016.0  329025.60  167847.86  51.01
1019.8  329140.35  168410.55  51.17
1023.7  329106.02  168791.64  51.29
1027.5  328834.87  169020.75  51.40
1031.3  329073.78  169408.58  51.48
1035.1  328976.55  169594.73  51.55
1038.9  328987.08  169779.37  51.61
1042.7  328899.50  169914.27  51.66
1046.5  328807.67  169987.05  51.70
1050.3  328852.48  170117.99  51.73
1054.2  328582.33  170103.50  51.77
1058.0  328138.83  169928.50  51.79
1061.8  328048.85  169954.20  51.81
1065.6  327813.83  169855.66  51.81
1069.4  327820.00  169850.42  51.81
1073.2  327487.32  169645.67  51.80
1077.0  327062.33  169383.90  51.79
1080.8  326642.71  169071.73  51.76
1084.6  325705.45  168483.82  51.73
1088.4  325131.66  168076.57  51.69
1092.2  324411.75  167539.82  51.64
1096.0  323875.58  167097.02  51.59
1099.8  323484.85  166683.15  51.53
1103.6  322892.08  166142.83  51.45
1107.4  322079.94  165467.43  51.37
1111.2  321901.70  165107.83  51.29
1114.9  321323.33  164507.83  51.20
1118.7  320819.40  163836.16  51.07
1122.5  320223.80  163015.42  50.91
1126.3  319233.54  161884.64  50.71
1130.1  318811.33  160793.12  50.44
1133.9  317430.40  158929.80  50.07
1137.7  316161.40  156850.77  49.61
1141.4  314586.89  154349.18  49.06
1145.2  313930.80  152136.30  48.46
1149.0  312945.21  149851.46  47.88
1152.8  311490.40  147580.57  47.38
1156.6  310034.08  145714.80  47.00
1160.3  308522.33  144213.24  46.74
1164.1  306430.50  142765.49  46.59
1167.9  304845.83  141799.11  46.52
1171.7  303699.38  141156.00  46.48
1175.4  302641.50  140630.13  46.47
1179.2  301714.00  140128.35  46.44
1183.0  301466.00  139893.67  46.40
1186.7  301017.03  139561.80  46.36
1190.5  300093.47  139011.69  46.32
1194.3  299064.80  138453.36  46.30
1198.0  298003.20  137967.34  46.30
1201.8  296654.25  137415.37  46.32
1205.6  295581.67  137037.33  46.36
1209.3  294737.12  136852.45  46.43
1213.1  293934.68  136663.97  46.49
1216.8  293085.65  136520.81  46.58
1220.6  292107.20  136314.93  46.67
1224.3  291027.58  136047.37  46.75
1228.1  289952.40  135827.71  46.84
1231.9  288875.60  135531.38  46.92
1235.6  287589.53  135125.85  46.99
1239.4  286415.25  134791.79  47.06
1243.1  285328.32  134427.32  47.11
1246.9  284262.98  134041.40  47.15
1250.6  283382.53  133718.62  47.19
1254.3  282429.77  133337.04  47.21
1258.1  281531.95  132950.47  47.22
1261.8  280409.87  132429.77  47.23
1265.6  279126.07  131791.26  47.22
1269.3  277857.73  131103.47  47.18
1273.1  277790.98  130930.61  47.13
1276.8  278045.60  130855.60  47.06
1280.6  277906.00  130594.31  46.99
1284.3  276668.00  129768.52  46.90
1288.0  275393.70  128847.46  46.79
1291.8  274256.78  127898.48  46.63
1295.5  273056.67  126851.79  46.46
1299.2  271968.87  125775.83  46.25
1302.9  270695.33  124509.90  46.00
1306.7  269322.78  123124.75  45.72
1310.4  267997.14  121609.17  45.38
1314.1  266793.82  120059.50  45.00
1317.9  265720.00  118420.78  44.57
1321.6  264471.73  116583.02  44.08
1325.3  263027.10  114520.28  43.54
1329.0  261834.07  112491.88  42.96
1332.8  259982.80  110052.80  42.33
1336.5  258388.33  107706.33  41.68
1340.2  258076.00  105908.83  41.04
1343.9  257735.63  104107.56  40.39
1347.6  257257.95  102287.83  39.76
1351.4  257563.50  100849.64  39.16
1355.1  258021.50  99507.94  38.57
1358.8  258272.00  98034.28  37.96
