/*** Spectra Vista SIG Data ***/
name= 33_20221021_CECA_12_avg.sig
comm= Averaged Ref/Tar of files: HR.102122.0015_moc.sig,HR.102122.0016_moc.sig,HR.102122.0017_moc.sig
data=
337.3  3076.75  258.05  8.39
338.8  3222.70  250.12  7.76
340.3  3420.05  237.37  6.94
341.8  3566.55  231.67  6.50
343.2  3774.00  224.96  5.96
344.7  3923.80  233.15  5.94
346.2  4085.00  245.10  6.00
347.7  4286.43  246.44  5.75
349.2  4498.20  231.84  5.15
350.6  4737.53  230.14  4.86
352.1  5001.50  228.64  4.57
353.6  5274.40  235.96  4.47
355.1  5522.70  246.95  4.47
356.6  5801.18  253.46  4.37
358.0  6061.00  255.20  4.21
359.5  6365.40  255.44  4.01
361.0  6673.28  255.36  3.83
362.5  7055.28  273.23  3.87
364.0  7369.48  286.75  3.89
365.4  7727.50  292.24  3.78
366.9  8066.50  298.35  3.70
368.4  8373.43  305.48  3.65
369.9  8756.10  317.09  3.62
371.3  9184.80  338.20  3.68
372.8  9611.10  350.46  3.65
374.3  10051.25  361.92  3.60
375.8  10402.70  362.93  3.49
377.2  10786.90  369.43  3.42
378.7  11217.30  373.01  3.33
380.2  11593.90  380.19  3.28
381.7  12107.20  396.37  3.27
383.1  12585.65  406.05  3.23
384.6  13082.88  410.02  3.13
386.1  13512.50  417.99  3.09
387.6  13960.10  427.61  3.06
389.0  14418.40  443.09  3.07
390.5  14868.00  449.58  3.02
392.0  15420.35  461.99  3.00
393.4  15948.93  469.45  2.94
394.9  16495.20  473.28  2.87
396.4  17025.75  486.45  2.86
397.9  17578.75  502.25  2.86
399.3  18107.38  523.38  2.89
400.8  18643.90  538.38  2.89
402.2  19247.20  546.65  2.84
403.7  19837.80  555.33  2.80
405.2  20431.53  561.89  2.75
406.6  21019.20  581.55  2.77
408.1  21605.60  599.65  2.78
409.6  22191.45  614.60  2.77
411.0  22823.15  634.81  2.78
412.5  23469.78  649.74  2.77
414.0  24124.00  671.02  2.78
415.4  24804.00  691.65  2.79
416.9  25462.28  711.89  2.80
418.4  26145.00  732.06  2.80
419.8  26845.00  761.97  2.84
421.3  27539.63  791.43  2.87
422.7  28292.40  825.92  2.92
424.2  29058.75  859.50  2.96
425.7  29812.70  893.24  3.00
427.1  30558.08  928.40  3.04
428.6  31356.50  971.33  3.10
430.0  32095.13  1011.67  3.15
431.5  32939.48  1048.73  3.18
432.9  33812.20  1093.87  3.24
434.4  34666.50  1134.54  3.27
435.9  35490.00  1177.87  3.32
437.3  36327.50  1221.00  3.36
438.8  37168.35  1257.95  3.38
440.2  38012.98  1304.38  3.43
441.7  38953.80  1345.36  3.45
443.1  39856.00  1386.83  3.48
444.6  40806.50  1430.52  3.51
446.0  41740.58  1470.50  3.52
447.5  42691.28  1514.81  3.55
448.9  43602.00  1560.04  3.58
450.4  44586.85  1600.62  3.59
451.8  45448.00  1639.73  3.61
453.3  46350.88  1675.34  3.61
454.7  47364.13  1716.26  3.62
456.2  48218.35  1750.99  3.63
457.6  49170.60  1789.47  3.64
459.1  50128.65  1831.74  3.65
460.5  51052.38  1867.15  3.66
462.0  52111.83  1909.73  3.66
463.4  53128.60  1949.05  3.67
464.8  54112.50  1986.90  3.67
466.3  55062.15  2027.08  3.68
467.7  56032.58  2064.33  3.68
469.2  57088.20  2107.50  3.69
470.6  58054.60  2143.09  3.69
472.0  59086.85  2178.81  3.69
473.5  60087.75  2220.45  3.70
474.9  61118.25  2259.10  3.70
476.4  62251.20  2307.84  3.71
477.8  63292.50  2347.07  3.71
479.2  64293.00  2383.80  3.71
480.7  65369.10  2422.15  3.71
482.1  66498.90  2468.06  3.71
483.6  67669.35  2512.37  3.71
485.0  68727.30  2555.32  3.72
486.4  69898.20  2605.42  3.73
487.9  70945.88  2652.00  3.74
489.3  72093.60  2703.51  3.75
490.7  73153.80  2754.56  3.77
492.2  74352.60  2814.56  3.79
493.6  75447.50  2869.45  3.80
495.0  76532.63  2930.85  3.83
496.5  77704.13  3005.44  3.87
497.9  78790.08  3077.84  3.91
499.3  79934.73  3158.06  3.95
500.7  81175.65  3244.49  4.00
502.2  82314.80  3334.64  4.05
503.6  83555.80  3441.71  4.12
505.0  84618.40  3553.11  4.20
506.5  85916.63  3687.84  4.29
507.9  87082.05  3826.83  4.39
509.3  88415.20  3994.03  4.52
510.7  89636.63  4163.25  4.64
512.2  91004.33  4363.73  4.80
513.6  92471.40  4595.83  4.97
515.0  93885.00  4849.78  5.17
516.4  95256.00  5127.57  5.38
517.8  96869.25  5454.13  5.63
519.3  98173.13  5783.89  5.89
520.7  99740.95  6157.65  6.17
522.1  101011.30  6542.16  6.48
523.5  102359.60  6950.00  6.79
524.9  103801.95  7380.48  7.11
526.3  105214.20  7812.14  7.42
527.8  106682.40  8260.56  7.74
529.2  107727.00  8687.69  8.06
530.6  109242.00  9153.59  8.38
532.0  110936.00  9626.40  8.68
533.4  112224.53  10052.74  8.96
534.8  113073.75  10423.06  9.22
536.3  114693.90  10849.76  9.46
537.7  116650.80  11294.64  9.68
539.1  118098.15  11684.10  9.89
540.5  119270.90  12037.15  10.09
541.9  121023.45  12445.39  10.28
543.3  122278.30  12797.32  10.47
544.7  123598.80  13152.56  10.64
546.1  125366.73  13551.05  10.81
547.5  126582.40  13880.53  10.97
549.0  128205.00  14235.47  11.10
550.4  129688.75  14560.50  11.23
551.8  131257.28  14862.70  11.32
553.2  132770.63  15120.31  11.39
554.6  134108.00  15314.35  11.42
556.0  135616.05  15484.98  11.42
557.4  137208.93  15621.04  11.38
558.8  138834.90  15725.10  11.33
560.2  140280.38  15774.15  11.24
561.6  141925.95  15808.47  11.14
563.0  143507.50  15807.47  11.02
564.4  145104.70  15782.80  10.88
565.8  146603.75  15727.83  10.73
567.2  148339.25  15662.03  10.56
568.6  149814.00  15535.30  10.37
570.0  151235.50  15365.00  10.16
571.4  152943.05  15195.96  9.94
572.8  154682.00  15024.68  9.71
574.2  156296.00  14849.71  9.50
575.6  157826.25  14680.50  9.30
577.0  159341.30  14528.79  9.12
578.4  161047.25  14411.37  8.95
579.8  162554.85  14296.32  8.79
581.2  164260.83  14214.10  8.65
582.5  165672.00  14125.80  8.53
583.9  167194.20  14053.01  8.41
585.3  168965.33  14015.85  8.30
586.7  170430.33  13969.84  8.20
588.1  171908.25  13934.05  8.11
589.5  173545.75  13927.43  8.03
590.9  175150.00  13932.64  7.95
592.3  176929.90  13963.97  7.89
593.7  178375.28  13979.68  7.84
595.0  179986.05  14022.00  7.79
596.4  181429.50  14053.34  7.75
597.8  182893.10  14089.62  7.70
599.2  184430.40  14118.72  7.66
600.6  186163.58  14149.37  7.60
602.0  187439.85  14126.68  7.54
603.3  189212.20  14128.13  7.47
604.7  190861.98  14096.19  7.39
606.1  192344.40  14024.48  7.29
607.5  193961.33  13945.42  7.19
608.9  195632.20  13855.17  7.08
610.2  197018.33  13725.18  6.97
611.6  198601.80  13606.84  6.85
613.0  200146.95  13477.03  6.73
614.4  201502.95  13339.44  6.62
615.8  202965.75  13215.15  6.51
617.1  204491.70  13114.36  6.41
618.5  206090.00  13035.84  6.33
619.9  207591.83  12972.81  6.25
621.3  209195.78  12934.35  6.18
622.6  210770.25  12919.80  6.13
624.0  212205.75  12914.14  6.09
625.4  213665.93  12937.10  6.05
626.8  215210.45  12979.94  6.03
628.1  216490.18  13027.59  6.02
629.5  218262.20  13109.83  6.01
630.9  219786.05  13173.97  5.99
632.2  221065.43  13213.34  5.98
633.6  222590.75  13238.77  5.95
635.0  224047.20  13225.65  5.90
636.3  225540.10  13173.37  5.84
637.7  226900.13  13061.37  5.76
639.1  228515.00  12933.67  5.66
640.4  229969.43  12768.42  5.55
641.8  231154.60  12558.31  5.43
643.2  232720.78  12357.94  5.31
644.5  234074.50  12142.33  5.19
645.9  235661.85  11935.92  5.06
647.2  236816.13  11737.48  4.96
648.6  238383.00  11599.20  4.87
650.0  239738.40  11476.80  4.79
651.3  240575.50  11354.68  4.72
652.7  242601.25  11291.43  4.65
654.0  244640.70  11230.16  4.59
655.4  245992.78  11132.42  4.53
656.8  246090.70  10965.61  4.46
658.1  247430.00  10826.39  4.38
659.5  249792.38  10706.57  4.29
660.8  251325.00  10554.00  4.20
662.2  252313.60  10360.75  4.11
663.5  253883.30  10186.05  4.01
664.9  254923.50  10015.72  3.93
666.2  255744.00  9862.72  3.86
667.6  257474.23  9763.47  3.79
668.9  258429.33  9682.75  3.75
670.3  260087.00  9648.10  3.71
671.6  261229.88  9614.05  3.68
673.0  262380.38  9622.90  3.67
674.3  263653.00  9641.49  3.66
675.7  264944.15  9698.28  3.66
677.0  266017.95  9761.48  3.67
678.4  267317.43  9864.26  3.69
679.7  268374.63  9978.79  3.72
681.1  269690.28  10148.61  3.76
682.4  270813.40  10357.53  3.82
683.8  272006.80  10646.31  3.91
685.1  272978.25  11015.30  4.04
686.4  274281.00  11520.32  4.20
687.8  275521.75  12195.97  4.43
689.1  276589.75  13088.93  4.73
690.5  277966.95  14304.00  5.15
691.8  278757.43  15897.32  5.70
693.1  280067.25  17993.16  6.42
694.5  281258.25  20611.50  7.33
695.8  282486.75  23732.80  8.40
697.1  283692.50  27336.40  9.64
698.5  284748.80  31380.48  11.02
699.8  285818.38  35805.34  12.53
701.1  286974.80  40539.88  14.13
702.5  287760.55  45409.69  15.78
703.8  288675.00  50412.00  17.46
705.1  289843.13  55467.49  19.14
706.5  290875.00  60481.12  20.79
707.8  291846.30  65431.86  22.42
709.1  292658.43  70255.29  24.01
710.5  293774.68  75053.67  25.55
711.8  294627.60  79658.57  27.04
713.1  295631.10  84210.75  28.49
714.4  296523.10  88596.41  29.88
715.8  297348.20  92842.33  31.22
717.1  298640.70  97112.24  32.52
718.4  299622.40  101125.55  33.75
719.7  300693.03  105066.13  34.94
721.0  301230.00  108651.00  36.07
722.4  301989.60  112166.71  37.14
723.7  302921.10  115596.54  38.16
725.0  303946.88  118900.23  39.12
726.3  304896.35  122010.28  40.02
727.6  305421.33  124801.01  40.86
729.0  306323.85  127566.93  41.64
730.3  307130.48  130121.95  42.37
731.6  308010.75  132559.99  43.04
732.9  308789.43  134799.49  43.65
734.2  309578.50  136918.28  44.23
735.5  310600.58  139001.38  44.75
736.8  311370.60  140844.36  45.23
738.1  312229.60  142600.15  45.67
739.5  313162.95  144286.07  46.07
740.8  313842.93  145756.78  46.44
742.1  314543.40  147137.07  46.78
743.4  315225.00  148420.00  47.08
744.7  316147.65  149744.26  47.37
746.0  317027.10  150964.32  47.62
747.3  317633.10  151962.24  47.84
748.6  318373.00  152968.73  48.05
749.9  319046.00  153885.33  48.23
751.2  319683.75  154717.35  48.40
752.5  320468.25  155606.45  48.56
753.8  321009.33  156321.36  48.70
755.1  321646.00  157046.93  48.83
756.4  322219.88  157685.57  48.94
757.7  323199.63  158476.90  49.03
759.0  324953.98  159622.83  49.12
760.3  326092.80  160434.56  49.20
761.6  327632.20  161422.99  49.27
762.9  328142.25  161873.17  49.33
764.2  328475.90  162235.69  49.39
765.5  328705.08  162513.94  49.44
766.8  329120.00  162855.47  49.48
768.1  329622.00  163227.28  49.52
769.3  330196.30  163636.39  49.56
770.6  330844.15  164059.05  49.59
771.9  331535.23  164500.68  49.62
773.2  331882.40  164769.23  49.65
774.5  332417.80  165140.21  49.68
775.8  333073.25  165529.76  49.70
777.1  333592.60  165875.16  49.72
778.4  333914.90  166106.09  49.75
779.6  334614.33  166531.34  49.77
780.9  335070.00  166816.00  49.79
782.2  335502.75  167096.97  49.80
783.5  335774.50  167290.47  49.82
784.8  336239.10  167585.25  49.84
786.0  336575.75  167823.74  49.86
787.3  336939.88  168051.32  49.88
788.6  337345.00  168303.33  49.89
789.9  337745.80  168564.85  49.91
791.2  338389.10  168920.92  49.92
792.4  339015.98  169276.06  49.93
793.7  339444.20  169551.76  49.95
795.0  339975.08  169882.68  49.97
796.2  340607.20  170235.15  49.98
797.5  341277.30  170596.98  49.99
798.8  341893.85  170939.88  50.00
800.0  342515.68  171297.08  50.01
801.3  342950.00  171556.83  50.02
802.6  343498.05  171878.61  50.04
803.8  344091.80  172219.38  50.05
805.1  344532.13  172488.05  50.06
806.4  344919.30  172740.32  50.08
807.7  345428.55  173024.64  50.09
808.9  345953.90  173317.11  50.10
810.2  346418.45  173582.31  50.11
811.4  346865.00  173846.87  50.12
812.7  347465.63  174189.17  50.13
814.0  348252.45  174607.68  50.14
815.2  348863.00  174965.90  50.15
816.5  349276.05  175204.51  50.16
817.7  349698.85  175467.89  50.18
819.0  350207.00  175740.77  50.18
820.2  350328.00  175847.47  50.20
821.5  350993.65  176224.62  50.21
822.7  351334.00  176433.66  50.22
824.0  351639.90  176617.08  50.23
825.2  352107.00  176879.43  50.23
826.5  352387.85  177041.72  50.24
827.7  352983.75  177340.32  50.24
829.0  353353.70  177566.89  50.25
830.2  353616.95  177743.08  50.26
831.5  354109.15  177992.38  50.26
832.7  354438.00  178169.60  50.27
834.0  354781.78  178361.59  50.27
835.2  355121.53  178563.99  50.28
836.4  355417.70  178758.07  50.30
837.7  355877.20  178982.85  50.29
838.9  356280.18  179236.08  50.31
840.1  356655.15  179451.81  50.32
841.4  357047.50  179690.20  50.33
842.6  357493.00  179912.13  50.33
843.8  357811.60  180152.03  50.35
845.1  358355.30  180463.57  50.36
846.3  358676.80  180692.65  50.38
847.5  359127.30  180929.84  50.38
848.8  359490.60  181148.16  50.39
850.0  359924.25  181367.57  50.39
851.2  360396.00  181670.04  50.41
852.5  360787.30  181891.84  50.42
853.7  361289.25  182204.10  50.43
854.9  361765.30  182462.44  50.44
856.1  362199.50  182711.01  50.44
857.4  362388.98  182829.07  50.45
858.6  362952.55  183112.43  50.45
859.8  363386.25  183335.00  50.45
861.0  363776.40  183568.32  50.46
862.2  364188.30  183828.38  50.48
863.5  364583.70  184034.80  50.48
864.7  365105.40  184316.88  50.48
865.9  365532.00  184527.60  50.48
867.1  365856.10  184722.48  50.49
868.3  366315.90  184959.34  50.49
869.5  366826.85  185221.46  50.49
870.8  367276.50  185507.40  50.51
872.0  367757.70  185755.27  50.51
873.2  368242.80  185976.16  50.50
874.4  368655.30  186212.52  50.51
875.6  369039.15  186418.22  50.51
876.8  369538.30  186677.87  50.52
878.0  369956.15  186924.07  50.53
879.2  370519.95  187174.70  50.52
880.4  370960.50  187409.20  50.52
881.6  371537.98  187643.73  50.50
882.8  371932.00  187874.88  50.51
884.0  372532.23  188167.88  50.51
885.2  372988.10  188402.99  50.51
886.5  373614.25  188681.86  50.50
887.7  374053.88  188872.45  50.49
888.8  374683.88  189206.99  50.50
890.0  375162.10  189460.87  50.50
891.2  375737.00  189736.25  50.50
892.4  376299.00  189986.65  50.49
893.6  376921.20  190246.29  50.47
894.8  377803.75  190664.63  50.47
896.0  378539.50  191102.57  50.48
897.2  379323.75  191478.73  50.48
898.4  380044.50  191805.68  50.47
899.6  380598.00  192044.10  50.46
900.8  381005.95  192182.75  50.44
902.0  381062.85  192296.10  50.46
903.2  381356.85  192407.59  50.45
904.3  381716.70  192542.88  50.44
905.5  382158.73  192819.33  50.46
906.7  382835.50  193071.07  50.43
907.9  383449.50  193298.47  50.41
909.1  383605.88  193394.97  50.42
910.2  383697.00  193459.08  50.42
911.4  383879.93  193542.96  50.42
912.6  384098.00  193572.43  50.40
913.8  384215.55  193643.98  50.40
915.0  384596.10  193789.12  50.39
916.2  384686.25  193809.20  50.38
917.3  384654.15  193791.69  50.38
918.5  384835.80  193849.00  50.37
919.7  385046.85  193887.16  50.35
920.8  385107.38  193844.03  50.34
922.0  385115.50  193860.33  50.34
923.2  385203.00  193884.60  50.33
924.4  385374.38  193909.50  50.32
925.5  385684.70  193969.43  50.29
926.7  386263.38  194180.52  50.27
927.9  386949.60  194477.36  50.26
929.0  388476.00  195179.76  50.24
930.2  390560.20  196190.71  50.23
931.4  392868.90  197312.94  50.22
932.5  395758.40  198547.15  50.17
933.7  397037.90  199071.28  50.14
934.9  397565.00  199257.33  50.12
936.0  397018.38  198919.50  50.10
937.2  394763.70  197745.84  50.09
938.3  392969.65  196746.69  50.07
939.5  391528.80  195865.92  50.03
940.7  391760.10  195736.80  49.96
941.8  393127.43  196312.27  49.94
943.0  394529.25  196840.40  49.89
944.2  395254.60  197067.17  49.86
945.3  394582.50  196735.50  49.86
946.5  393689.70  196156.80  49.83
947.6  393795.50  195963.32  49.76
948.8  393676.73  195628.94  49.69
949.9  393615.60  195399.68  49.64
951.1  393229.53  194937.04  49.57
952.2  393108.00  194534.40  49.49
953.4  392738.75  194096.53  49.42
954.5  392558.40  193780.08  49.36
955.7  392414.40  193494.00  49.31
956.8  392220.00  193001.29  49.21
958.0  391612.00  192557.33  49.17
959.1  391407.15  192167.22  49.10
960.3  390727.53  191707.16  49.06
961.4  390525.75  191455.35  49.03
962.6  390792.50  191384.43  48.97
963.7  390557.40  190993.69  48.90
964.9  390594.90  190745.53  48.83
966.0  390134.48  190549.53  48.84
967.2  390149.55  190504.98  48.83
968.3  389658.60  190306.80  48.84
969.5  389447.98  190073.72  48.81
970.6  389778.75  189981.05  48.74
971.8  389851.35  189995.14  48.74
972.9  389969.03  189874.43  48.69
974.0  390102.30  189977.97  48.70
975.2  389905.88  189847.43  48.69
976.3  390075.20  189683.63  48.63
977.5  389898.43  189642.16  48.64
978.6  389697.40  189594.05  48.65
979.7  389897.55  189540.61  48.61
980.9  389599.20  189508.75  48.64
982.0  389719.40  189420.27  48.60
983.2  389324.85  189246.62  48.61
984.3  388817.00  189024.88  48.62
985.4  389380.98  188924.02  48.52
986.6  389355.25  188741.08  48.48
987.7  390030.55  189058.29  48.47
988.9  389511.00  188803.68  48.47
990.0  390047.20  189202.00  48.51
993.1  379057.76  183329.10  48.36
996.9  378375.85  183443.85  48.48
1000.7  378665.29  184040.25  48.60
1004.5  378955.92  184579.26  48.71
1008.4  378776.25  184890.02  48.81
1012.2  378764.96  185250.21  48.91
1016.0  378651.00  185543.06  49.00
1019.8  378378.00  185712.45  49.08
1023.7  377595.47  185578.11  49.15
1027.5  376416.17  185245.15  49.21
1031.3  375721.45  185134.34  49.27
1035.1  374920.18  184942.93  49.33
1038.9  374569.43  184973.48  49.38
1042.7  374315.25  185025.07  49.43
1046.5  374194.83  185091.60  49.46
1050.3  374224.48  185201.48  49.49
1054.2  373937.08  185159.92  49.52
1058.0  373513.58  185002.76  49.53
1061.8  373456.23  185048.59  49.55
1065.6  372953.93  184795.10  49.55
1069.4  372415.33  184520.04  49.55
1073.2  371440.97  183953.69  49.52
1077.0  370808.75  183551.41  49.50
1080.8  370807.29  183416.37  49.46
1084.6  370607.42  183195.02  49.43
1088.4  370626.78  183137.70  49.41
1092.2  370100.25  182728.93  49.37
1096.0  369524.42  182261.02  49.32
1099.8  368869.80  181742.54  49.27
1103.6  367998.92  181103.74  49.21
1107.4  366937.41  180337.96  49.15
1111.2  366664.90  179970.86  49.08
1114.9  366204.42  179434.25  49.00
1118.7  365985.68  178930.48  48.89
1122.5  365574.73  178256.50  48.76
1126.3  364606.03  177182.71  48.60
1130.1  364205.00  176149.29  48.37
1133.9  362600.00  174199.70  48.04
1137.7  361059.30  172017.44  47.64
1141.4  359062.71  169371.58  47.17
1145.2  358208.88  167081.81  46.64
1149.0  357000.00  164737.08  46.14
1152.8  355189.40  162335.12  45.70
1156.6  353387.65  160299.52  45.36
1160.3  351543.67  158615.10  45.12
1164.1  349129.63  156945.45  44.95
1167.9  347443.75  155777.09  44.84
1171.7  346177.13  154919.25  44.75
1175.4  344844.93  154080.86  44.68
1179.2  343574.48  153253.04  44.61
1183.0  343214.00  152829.19  44.53
1186.7  343083.53  152526.83  44.46
1190.5  342578.40  152080.90  44.39
1194.3  341584.33  151493.53  44.35
1198.0  340206.63  150791.73  44.32
1201.8  338550.75  150064.77  44.33
1205.6  337412.00  149706.71  44.37
1209.3  336722.90  149688.17  44.45
1213.1  336135.90  149730.90  44.54
1216.8  335404.85  149796.53  44.66
1220.6  334303.20  149685.07  44.78
1224.3  333041.92  149494.59  44.89
1228.1  331604.20  149210.94  45.00
1231.9  330064.73  148810.83  45.09
1235.6  328402.13  148300.66  45.16
1239.4  326868.75  147869.20  45.24
1243.1  325532.50  147451.25  45.30
1246.9  324302.84  147022.45  45.33
1250.6  323266.27  146653.68  45.37
1254.3  322112.18  146208.99  45.39
1258.1  320958.05  145717.52  45.40
1261.8  319552.67  145100.59  45.41
1265.6  318321.25  144489.74  45.39
1269.3  317394.53  143988.23  45.37
1273.1  317667.59  144001.37  45.33
1276.8  317586.00  143797.54  45.28
1280.6  316760.47  143198.98  45.21
1284.3  314945.60  142101.31  45.12
1288.0  313659.07  141174.88  45.01
1291.8  312960.68  140453.29  44.88
1295.5  312050.93  139592.52  44.73
1299.2  310864.74  138536.59  44.56
1302.9  309294.73  137195.02  44.36
1306.7  307602.40  135691.03  44.11
1310.4  305932.46  134059.10  43.82
1314.1  304424.63  132385.00  43.49
1317.9  303071.67  130643.93  43.11
1321.6  301584.97  128710.31  42.68
1325.3  299947.73  126576.30  42.20
1329.0  298666.90  124522.05  41.69
1332.8  296727.20  122078.00  41.14
1336.5  295058.87  119734.29  40.58
1340.2  294946.17  118031.33  40.02
1343.9  294980.83  116402.41  39.46
1347.6  295404.00  114928.13  38.91
