/*** Spectra Vista SIG Data ***/
name= 3_20220824_TITO_35_avg.sig
comm= Averaged Ref/Tar of files: HR.082422.0007_moc.sig,HR.082422.0008_moc.sig,HR.082422.0009_moc.sig
data=
337.3  3324.88  337.45  10.15
338.8  3463.20  333.49  9.63
340.3  3607.45  331.07  9.18
341.8  3795.18  310.93  8.19
343.2  3996.00  307.84  7.70
344.7  4179.70  312.77  7.48
346.2  4330.10  310.46  7.17
347.7  4561.70  309.36  6.78
349.2  4725.00  302.40  6.40
350.6  4957.88  298.70  6.02
352.1  5251.58  290.56  5.53
353.6  5552.00  300.73  5.42
355.1  5859.45  305.32  5.21
356.6  6128.93  314.64  5.13
358.0  6411.90  327.51  5.11
359.5  6674.40  317.24  4.75
361.0  7002.45  327.18  4.67
362.5  7377.30  335.69  4.55
364.0  7742.25  340.28  4.40
365.4  8120.90  355.93  4.38
366.9  8480.88  368.33  4.34
368.4  8864.38  374.58  4.23
369.9  9188.50  392.76  4.27
371.3  9638.70  405.84  4.21
372.8  10062.45  414.18  4.12
374.3  10508.13  419.25  3.99
375.8  10941.70  427.61  3.91
377.2  11378.70  448.33  3.94
378.7  11809.10  448.33  3.80
380.2  12212.60  459.09  3.76
381.7  12728.78  475.64  3.74
383.1  13232.45  474.32  3.58
384.6  13784.23  481.95  3.50
386.1  14269.20  493.66  3.46
387.6  14741.65  503.07  3.41
389.0  15276.00  521.71  3.42
390.5  15770.70  534.54  3.39
392.0  16372.55  539.58  3.30
393.4  16947.38  553.53  3.27
394.9  17513.10  560.28  3.20
396.4  18086.63  576.15  3.19
397.9  18655.00  591.08  3.17
399.3  19221.68  611.18  3.18
400.8  19790.45  624.79  3.16
402.2  20474.70  638.30  3.12
403.7  21089.70  651.63  3.09
405.2  21709.98  669.21  3.08
406.6  22318.40  689.81  3.09
408.1  22939.00  705.12  3.07
409.6  23530.40  728.74  3.10
411.0  24232.25  751.52  3.10
412.5  24885.88  774.69  3.11
414.0  25550.25  790.55  3.09
415.4  26274.75  818.85  3.12
416.9  26965.73  848.10  3.15
418.4  27676.35  873.99  3.16
419.8  28410.20  905.15  3.19
421.3  29161.70  931.65  3.19
422.7  29945.40  972.08  3.25
424.2  30746.25  1001.25  3.26
425.7  31524.20  1041.03  3.30
427.1  32298.83  1071.88  3.32
428.6  33123.50  1103.60  3.33
430.0  33870.60  1137.11  3.36
431.5  34775.25  1174.10  3.38
432.9  35643.45  1214.97  3.41
434.4  36557.40  1249.14  3.42
435.9  37422.00  1288.00  3.44
437.3  38280.00  1323.67  3.46
438.8  39136.73  1366.55  3.49
440.2  40020.75  1404.99  3.51
441.7  41017.40  1448.99  3.53
443.1  41936.25  1489.30  3.55
444.6  42928.70  1533.57  3.57
446.0  43881.45  1577.76  3.60
447.5  44862.68  1626.83  3.63
448.9  45820.80  1675.28  3.66
450.4  46840.15  1728.39  3.69
451.8  47736.00  1776.67  3.72
453.3  48678.23  1821.78  3.74
454.7  49722.45  1869.09  3.76
456.2  50598.85  1907.93  3.77
457.6  51586.65  1955.85  3.79
459.1  52580.45  2007.63  3.82
460.5  53540.13  2047.27  3.82
462.0  54627.48  2097.28  3.84
463.4  55690.50  2139.03  3.84
464.8  56707.13  2186.70  3.86
466.3  57712.88  2230.91  3.87
467.7  58734.98  2278.27  3.88
469.2  59818.75  2325.19  3.89
470.6  60822.45  2369.77  3.90
472.0  61873.70  2415.27  3.90
473.5  62898.63  2463.40  3.92
474.9  63954.00  2508.00  3.92
476.4  65145.60  2567.04  3.94
477.8  66250.50  2623.53  3.96
479.2  67294.50  2671.87  3.97
480.7  68423.33  2727.09  3.99
482.1  69576.75  2776.33  3.99
483.6  70805.00  2834.13  4.00
485.0  71911.80  2891.14  4.02
486.4  73142.85  2956.56  4.04
487.9  74265.75  3022.50  4.07
489.3  75436.18  3096.18  4.10
490.7  76555.28  3166.86  4.14
492.2  77807.10  3243.80  4.17
493.6  78948.85  3326.53  4.21
495.0  80071.88  3416.40  4.27
496.5  81284.83  3520.04  4.33
497.9  82429.48  3625.70  4.40
499.3  83603.48  3743.10  4.48
500.7  84896.75  3877.37  4.57
502.2  86067.00  4021.81  4.67
503.6  87337.20  4191.17  4.80
505.0  88442.05  4375.47  4.95
506.5  89787.68  4590.10  5.11
507.9  91010.68  4829.00  5.31
509.3  92426.00  5101.07  5.52
510.7  93702.38  5401.50  5.76
512.2  95129.70  5747.54  6.04
513.6  96632.90  6141.80  6.36
515.0  98095.60  6573.85  6.70
516.4  99480.15  7040.25  7.08
517.8  101135.00  7571.00  7.49
519.3  102466.00  8112.83  7.92
520.7  104054.30  8709.13  8.37
522.1  105385.48  9312.94  8.84
523.5  106765.90  9937.57  9.31
524.9  108265.95  10572.24  9.77
526.3  109691.40  11189.17  10.20
527.8  111181.95  11802.78  10.62
529.2  112316.20  12376.93  11.02
530.6  113938.25  12981.88  11.39
532.0  115710.00  13574.40  11.73
533.4  117002.93  14069.13  12.02
534.8  117834.75  14461.10  12.27
536.3  119557.20  14933.04  12.49
537.7  121665.60  15429.12  12.68
539.1  123176.05  15828.59  12.85
540.5  124331.90  16169.49  13.01
541.9  126086.70  16574.49  13.15
543.3  127359.73  16913.39  13.28
544.7  128660.40  17255.04  13.41
546.1  130440.48  17655.15  13.54
547.5  131712.00  17976.75  13.65
549.0  133507.00  18352.40  13.75
550.4  135043.75  18673.08  13.83
551.8  136582.93  18964.65  13.89
553.2  138144.30  19212.55  13.91
554.6  139516.00  19385.60  13.89
556.0  141080.85  19533.90  13.85
557.4  142712.15  19634.02  13.76
558.8  144372.15  19688.46  13.64
560.2  145820.63  19665.47  13.49
561.6  147503.33  19621.24  13.30
563.0  149101.15  19515.62  13.09
564.4  150696.20  19372.61  12.86
565.8  152245.63  19180.25  12.60
567.2  154004.50  18974.47  12.32
568.6  155523.38  18709.35  12.03
570.0  156964.45  18401.42  11.72
571.4  158722.20  18116.11  11.41
572.8  160489.25  17837.08  11.11
574.2  162120.00  17557.12  10.83
575.6  163676.25  17289.00  10.56
577.0  165228.60  17050.95  10.32
578.4  166973.63  16862.30  10.10
579.8  168487.43  16673.94  9.90
581.2  170233.53  16533.73  9.71
582.5  171650.70  16381.56  9.54
583.9  173200.40  16260.40  9.39
585.3  175011.30  16186.20  9.25
586.7  176502.95  16102.28  9.12
588.1  178007.13  16034.10  9.01
589.5  179658.50  16001.77  8.91
590.9  181312.80  15989.39  8.82
592.3  183154.70  16007.11  8.74
593.7  184611.38  16016.13  8.68
595.0  186244.65  16050.06  8.62
596.4  187710.25  16076.99  8.56
597.8  189195.25  16108.40  8.51
599.2  190779.60  16130.40  8.45
600.6  192532.93  16160.56  8.39
602.0  193843.58  16131.48  8.32
603.3  195662.00  16122.69  8.24
604.7  197330.25  16072.68  8.15
606.1  198844.20  15987.76  8.04
607.5  200506.08  15885.64  7.92
608.9  202221.65  15769.72  7.80
610.2  203609.70  15617.07  7.67
611.6  205234.28  15471.00  7.54
613.0  206793.95  15322.78  7.41
614.4  208181.40  15168.86  7.29
615.8  209649.38  15024.75  7.17
617.1  211209.60  14903.84  7.06
618.5  212838.80  14811.84  6.96
619.9  214367.78  14735.95  6.87
621.3  215994.60  14693.10  6.80
622.6  217602.25  14674.57  6.74
624.0  219065.55  14677.50  6.70
625.4  220531.58  14701.06  6.67
626.8  222105.98  14757.17  6.64
628.1  223418.25  14803.69  6.63
629.5  225285.33  14892.33  6.61
630.9  226898.65  14961.06  6.59
632.2  228296.78  14996.85  6.57
633.6  229937.38  15017.48  6.53
635.0  231460.40  14991.52  6.48
636.3  232996.40  14910.29  6.40
637.7  234371.38  14766.43  6.30
639.1  236040.00  14595.00  6.18
640.4  237516.65  14380.38  6.05
641.8  238748.05  14129.28  5.92
643.2  240345.35  13893.67  5.78
644.5  241721.25  13631.53  5.64
645.9  243447.75  13409.46  5.51
647.2  245266.35  13215.16  5.39
648.6  247090.50  13065.30  5.29
650.0  248529.60  12925.44  5.20
651.3  248952.28  12791.13  5.14
652.7  250276.90  12705.16  5.08
654.0  252495.40  12683.55  5.02
655.4  253986.80  12608.24  4.96
656.8  254013.00  12445.65  4.90
658.1  255193.40  12321.56  4.83
659.5  257783.93  12247.69  4.75
660.8  259740.00  12129.00  4.67
662.2  260646.40  11949.65  4.58
663.5  262256.00  11819.24  4.51
664.9  263520.40  11698.27  4.44
666.2  264224.40  11579.52  4.38
667.6  265890.75  11534.58  4.34
668.9  267033.88  11502.77  4.31
670.3  268343.38  11494.78  4.28
671.6  269836.50  11537.45  4.28
673.0  271031.25  11608.25  4.28
674.3  272272.00  11701.21  4.30
675.7  273597.55  11823.37  4.32
677.0  274739.85  11958.11  4.35
678.4  276105.40  12143.12  4.40
679.7  277228.68  12348.68  4.45
681.1  278542.35  12621.01  4.53
682.4  279719.70  12924.08  4.62
683.8  281023.60  13318.93  4.74
685.1  282005.25  13788.30  4.89
686.4  283338.60  14403.36  5.08
687.8  284644.25  15195.27  5.34
689.1  285734.50  16218.77  5.68
690.5  287130.45  17579.02  6.12
691.8  287904.75  19316.51  6.71
693.1  289285.80  21589.98  7.46
694.5  290494.75  24363.73  8.39
695.8  291746.00  27654.90  9.48
697.1  292974.50  31449.60  10.73
698.5  294033.10  35711.64  12.15
699.8  295137.80  40394.76  13.69
701.1  296294.23  45431.63  15.33
702.5  297073.70  50668.35  17.06
703.8  298080.00  56106.00  18.82
705.1  299261.63  61668.75  20.61
706.5  300339.63  67253.28  22.39
707.8  301345.05  72846.10  24.17
709.1  302235.85  78375.63  25.93
710.5  303419.08  83939.02  27.66
711.8  304283.50  89375.43  29.37
713.1  305309.30  94810.68  31.05
714.4  306245.90  100138.89  32.70
715.8  307071.00  105371.96  34.32
717.1  308430.00  110680.18  35.89
718.4  309388.80  115748.27  37.41
719.7  310537.08  120756.68  38.89
721.0  311107.50  125424.00  40.32
722.4  311911.60  130026.31  41.69
723.7  312887.10  134547.04  43.00
725.0  313945.88  138928.53  44.25
726.3  314939.35  143073.19  45.43
727.6  315487.15  146853.01  46.55
729.0  316456.70  150605.02  47.59
730.3  317238.45  154077.16  48.57
731.6  318150.45  157426.17  49.48
732.9  318983.88  160532.33  50.33
734.2  319816.75  163456.70  51.11
735.5  320857.48  166318.61  51.84
736.8  321656.40  168883.04  52.50
738.1  322530.50  171312.01  53.11
739.5  323534.03  173647.41  53.67
740.8  324269.28  175697.87  54.18
742.1  325048.00  177659.87  54.66
743.4  325775.00  179503.33  55.10
744.7  326796.68  181364.06  55.50
746.0  327674.10  183037.14  55.86
747.3  328302.55  184423.23  56.17
748.6  329059.25  185791.40  56.46
749.9  329836.00  187085.60  56.72
751.2  330588.30  188290.46  56.96
752.5  331529.70  189524.74  57.17
753.8  332143.35  190521.33  57.36
755.1  332904.00  191505.60  57.53
756.4  333493.03  192353.53  57.68
757.7  334516.18  193365.25  57.80
759.0  336361.85  194820.28  57.92
760.3  337576.80  195870.40  58.02
761.6  339176.60  197120.19  58.12
762.9  339778.50  197725.30  58.19
764.2  340177.40  198202.79  58.26
765.5  340487.98  198601.32  58.33
766.8  340952.00  199074.99  58.39
768.1  341513.60  199570.64  58.44
769.3  342141.10  200090.15  58.48
770.6  342806.75  200632.55  58.53
771.9  343565.95  201203.31  58.56
773.2  343980.80  201571.84  58.60
774.5  344630.00  202057.09  58.63
775.8  345392.20  202584.70  58.65
777.1  346010.50  203027.81  58.68
778.4  346391.10  203330.67  58.70
779.6  347188.00  203897.65  58.73
780.9  347700.00  204272.00  58.75
782.2  348177.50  204651.33  58.78
783.5  348554.00  204927.47  58.79
784.8  349093.13  205335.60  58.82
786.0  349503.00  205643.99  58.84
787.3  349970.53  205959.81  58.85
788.6  350456.90  206298.14  58.87
789.9  350915.60  206651.01  58.89
791.2  351581.98  207107.51  58.91
792.4  352304.90  207579.82  58.92
793.7  352804.20  207943.95  58.94
795.0  353505.08  208384.55  58.95
796.2  354228.75  208850.08  58.96
797.5  354993.68  209336.19  58.97
798.8  355702.05  209800.10  58.98
800.0  356393.25  210263.69  59.00
801.3  356920.70  210602.59  59.01
802.6  357544.58  211013.28  59.02
803.8  358218.30  211466.27  59.03
805.1  358754.38  211828.75  59.05
806.4  359206.80  212161.12  59.06
807.7  359818.20  212541.03  59.07
808.9  360443.30  212926.67  59.07
810.2  360972.85  213295.79  59.09
811.4  361501.50  213658.15  59.10
812.7  362090.63  214077.50  59.12
814.0  362984.15  214638.40  59.13
815.2  363642.50  215068.17  59.14
816.5  364114.58  215371.40  59.15
817.7  364610.65  215718.33  59.16
819.0  365110.35  216091.33  59.19
820.2  365332.00  216245.33  59.19
821.5  366085.35  216725.15  59.20
822.7  366410.58  216987.98  59.22
824.0  366741.00  217223.28  59.23
825.2  367243.88  217579.77  59.25
826.5  367563.13  217805.38  59.26
827.7  368159.65  218180.78  59.26
829.0  368555.90  218463.41  59.28
830.2  368897.00  218694.27  59.28
831.5  369354.75  219028.45  59.30
832.7  369715.50  219262.68  59.31
834.0  370040.65  219486.42  59.31
835.2  370406.30  219743.59  59.33
836.4  370675.80  219972.72  59.34
837.7  371053.20  220283.25  59.37
838.9  371535.95  220615.76  59.38
840.1  371893.95  220895.37  59.40
841.4  372353.60  221219.61  59.41
842.6  372752.20  221474.19  59.42
843.8  373047.60  221726.77  59.44
845.1  373548.90  222095.61  59.46
846.3  373942.20  222394.04  59.47
847.5  374352.30  222674.76  59.48
848.8  374817.00  222982.64  59.49
850.0  375148.20  223217.77  59.50
851.2  375624.00  223572.42  59.52
852.5  375962.10  223849.73  59.54
853.7  376427.25  224190.30  59.56
854.9  376968.30  224510.85  59.56
856.1  377464.10  224835.95  59.56
857.4  377649.60  224971.00  59.57
858.6  378055.55  225281.84  59.59
859.8  378440.63  225579.75  59.61
861.0  378939.60  225875.52  59.61
862.2  379469.43  226179.60  59.60
863.5  379810.60  226430.71  59.62
864.7  380351.40  226763.68  59.62
865.9  380725.80  227040.88  59.63
867.1  380982.70  227264.81  59.65
868.3  381435.60  227524.04  59.65
869.5  381881.20  227837.63  59.66
870.8  382423.50  228184.20  59.67
872.0  382990.73  228510.84  59.66
873.2  383403.90  228791.94  59.67
874.4  383818.50  229048.56  59.68
875.6  384196.40  229305.26  59.68
876.8  384700.50  229605.17  59.68
878.0  385224.70  229893.74  59.68
879.2  385727.55  230196.78  59.68
880.4  386263.88  230526.25  59.68
881.6  386761.48  230822.09  59.68
882.8  387083.20  231074.35  59.70
884.0  387682.85  231432.29  59.70
885.2  388160.20  231726.79  59.70
886.5  388896.45  232099.89  59.68
887.7  389358.13  232396.54  59.69
888.8  390109.35  232775.59  59.67
890.0  390693.70  233146.57  59.68
891.2  391197.50  233500.40  59.69
892.4  391788.08  233875.53  59.69
893.6  392433.55  234207.58  59.68
894.8  393346.00  234730.33  59.68
896.0  394221.00  235248.97  59.67
897.2  395040.75  235741.57  59.68
898.4  395901.00  236217.52  59.67
899.6  396490.88  236516.45  59.65
900.8  396925.13  236770.49  59.65
902.0  397105.35  236915.64  59.66
903.2  397418.55  237076.48  59.65
904.3  397791.30  237287.52  59.65
905.5  398366.10  237678.36  59.66
906.7  399066.00  238032.20  59.65
907.9  399685.65  238375.85  59.64
909.1  399954.38  238547.97  59.64
910.2  400158.08  238697.43  59.65
911.4  400429.58  238778.67  59.63
912.6  400628.80  238918.68  59.64
913.8  400974.15  239056.50  59.62
915.0  401464.35  239254.26  59.60
916.2  401544.00  239371.60  59.61
917.3  401741.33  239391.75  59.59
918.5  402009.00  239522.77  59.58
919.7  402279.90  239649.02  59.57
920.8  402400.63  239675.58  59.56
922.0  402498.25  239693.30  59.55
923.2  402675.00  239803.20  59.55
924.4  402948.00  239850.00  59.52
925.5  403362.50  239987.83  59.50
926.7  403917.88  240291.03  59.49
927.9  404880.00  240768.64  59.47
929.0  406281.15  241561.44  59.46
930.2  408572.20  242801.76  59.43
931.4  410949.45  244138.50  59.41
932.5  413761.65  245637.39  59.37
933.7  415200.95  246337.69  59.33
934.9  416018.75  246611.17  59.28
936.0  415728.63  246275.03  59.24
937.2  413625.00  244954.24  59.22
938.3  411857.60  243905.28  59.22
939.5  410310.00  242880.96  59.19
940.7  410497.20  242837.40  59.16
941.8  412073.33  243606.85  59.12
943.0  413709.00  244281.90  59.05
944.2  414615.50  244629.23  59.00
945.3  414219.00  244307.70  58.98
946.5  413392.95  243619.74  58.93
947.6  413628.30  243536.61  58.88
948.8  413467.28  243203.87  58.82
949.9  413750.40  243065.20  58.75
951.1  413482.55  242555.04  58.66
952.2  413508.00  242134.40  58.56
953.4  413256.50  241681.13  58.48
954.5  412986.60  241319.52  58.43
955.7  413191.80  241046.40  58.34
956.8  412920.50  240619.71  58.27
958.0  412654.50  240135.53  58.19
959.1  412399.58  239840.34  58.16
960.3  412115.20  239357.98  58.08
961.4  412104.35  239209.73  58.05
962.6  412370.00  239142.63  57.99
963.7  412146.00  238881.13  57.96
964.9  412183.05  238841.92  57.95
966.0  412251.53  238726.98  57.91
967.2  412074.00  238721.16  57.93
968.3  411637.95  238498.56  57.94
969.5  411534.40  238384.28  57.93
970.6  411721.85  238371.36  57.90
971.8  411709.38  238462.07  57.92
972.9  411824.78  238373.38  57.88
974.0  412263.50  238558.80  57.87
975.2  411737.88  238469.12  57.92
976.3  411945.23  238443.03  57.88
977.5  411832.58  238552.79  57.92
978.6  411702.90  238512.95  57.93
979.7  411983.25  238582.19  57.91
980.9  411694.53  238629.51  57.96
982.0  411797.10  238631.14  57.95
983.2  411294.63  238431.67  57.97
984.3  411112.80  238329.41  57.97
985.4  411366.83  238450.04  57.97
986.6  411463.75  238608.03  57.99
987.7  412206.20  239149.17  58.02
988.9  412261.20  239175.84  58.02
990.0  412605.90  239752.89  58.11
993.1  365444.10  211173.46  57.79
996.9  365758.70  212042.07  57.97
1000.7  366558.09  213179.21  58.16
1004.5  367036.17  214005.26  58.31
1008.4  366773.88  214414.72  58.46
1012.2  366710.54  214933.52  58.61
1016.0  366781.20  215496.00  58.75
1019.8  366776.03  216013.23  58.90
1023.7  366592.38  216351.81  59.02
1027.5  366117.65  216480.16  59.13
1031.3  366213.43  216842.47  59.21
1035.1  365967.06  216961.62  59.28
1038.9  365905.83  217151.53  59.35
1042.7  365724.83  217249.30  59.40
1046.5  365606.33  217339.45  59.45
1050.3  365622.70  217505.53  59.49
1054.2  365311.33  217467.83  59.53
1058.0  364851.96  217293.66  59.56
1061.8  364698.67  217319.62  59.59
1065.6  364394.43  217154.35  59.59
1069.4  364323.20  217148.76  59.60
1073.2  363789.12  216828.78  59.60
1077.0  363272.48  216493.59  59.60
1080.8  362832.29  216164.12  59.58
1084.6  361965.45  215525.41  59.54
1088.4  361390.25  215093.79  59.52
1092.2  360652.50  214506.50  59.48
1096.0  360047.95  213990.94  59.43
1099.8  359560.07  213493.13  59.38
1103.6  358865.48  212883.08  59.32
1107.4  357915.95  212110.68  59.26
1111.2  357662.40  211695.71  59.19
1114.9  356965.00  211016.95  59.11
1118.7  356348.03  210291.95  59.01
1122.5  355660.93  209452.54  58.89
1126.3  354582.49  208201.58  58.72
1130.1  354096.99  207027.96  58.47
1133.9  352550.80  204869.00  58.11
1137.7  351190.50  202436.04  57.64
1141.4  349445.63  199521.35  57.10
1145.2  348686.71  197019.75  56.50
1149.0  347579.17  194449.31  55.94
1152.8  346007.70  191920.99  55.47
1156.6  344390.20  189816.12  55.12
1160.3  342759.33  188085.85  54.87
1164.1  340405.63  186300.48  54.73
1167.9  338651.04  185070.14  54.65
1171.7  337388.63  184238.25  54.61
1175.4  336221.47  183498.62  54.58
1179.2  335141.48  182808.70  54.55
1183.0  334859.67  182512.07  54.50
1186.7  334387.43  182123.20  54.46
1190.5  333434.60  181490.34  54.43
1194.3  332324.93  180786.08  54.40
1198.0  331099.45  180104.47  54.40
1201.8  329630.85  179354.06  54.41
1205.6  328434.00  178875.11  54.46
1209.3  327519.93  178677.48  54.55
1213.1  326642.25  178515.30  54.65
1216.8  325769.68  178382.52  54.76
1220.6  324693.60  178183.70  54.88
1224.3  323482.25  177898.17  54.99
1228.1  322234.00  177622.09  55.12
1231.9  320970.78  177279.18  55.23
1235.6  319535.55  176779.30  55.32
1239.4  318189.50  176316.67  55.41
1243.1  316961.98  175865.20  55.48
1246.9  315789.14  175395.96  55.54
1250.6  314837.60  175013.39  55.59
1254.3  313779.40  174545.98  55.63
1258.1  312783.92  174064.41  55.65
1261.8  311500.53  173397.42  55.67
1265.6  310107.62  172616.13  55.66
1269.3  308762.78  171807.56  55.64
1273.1  308782.13  171689.57  55.60
1276.8  308943.20  171609.60  55.55
1280.6  308626.23  171235.34  55.48
1284.3  307172.00  170159.11  55.40
1288.0  305749.38  169014.39  55.28
1291.8  304612.46  167913.57  55.12
1295.5  303355.07  166689.60  54.95
1299.2  302162.88  165411.32  54.74
1302.9  300710.15  163897.91  54.50
1306.7  299145.82  162207.79  54.22
1310.4  297642.78  160411.02  53.89
1314.1  296283.72  158564.43  53.52
1317.9  295041.67  156635.69  53.09
1321.6  293639.73  154485.75  52.61
1325.3  292030.73  152074.07  52.07
1329.0  290704.28  149729.12  51.51
1332.8  288688.40  146902.31  50.89
1336.5  286891.20  144168.22  50.25
1340.2  286498.33  142152.11  49.62
1343.9  285947.08  140078.89  48.99
