/*** Spectra Vista SIG Data ***/
name= 5_20220720_ACSA_7_avg.sig
comm= Averaged Ref/Tar of files: 4_20220720_ACSA_7_1_avg.sig,5_20220720_ACSA_7_2_avg.sig
data=
337.3  3176.00  250.97  7.90
338.8  3270.80  240.04  7.34
340.3  3466.90  242.73  7.00
341.8  3658.00  247.35  6.76
343.2  3862.80  249.91  6.47
344.7  4009.10  238.03  5.94
346.2  4166.70  240.05  5.76
347.7  4404.40  237.83  5.40
349.2  4536.00  232.92  5.13
350.6  4774.25  237.84  4.98
352.1  5037.23  242.93  4.82
353.6  5309.10  247.20  4.66
355.1  5590.05  252.72  4.52
356.6  5866.73  258.14  4.40
358.0  6124.80  258.85  4.23
359.5  6427.20  265.45  4.13
361.0  6703.20  269.04  4.01
362.5  7026.00  272.96  3.88
364.0  7369.48  283.48  3.85
365.4  7727.50  296.26  3.83
366.9  8066.50  302.83  3.75
368.4  8400.70  318.21  3.79
369.9  8702.05  327.39  3.76
371.3  9078.00  336.68  3.71
372.8  9478.35  344.90  3.64
374.3  9890.00  350.40  3.54
375.8  10267.95  362.67  3.53
377.2  10679.30  369.68  3.46
378.7  11055.90  374.04  3.38
380.2  11405.60  383.52  3.36
381.7  11863.98  392.25  3.31
383.1  12316.15  400.66  3.25
384.6  12786.15  408.22  3.19
386.1  13215.23  422.88  3.20
387.6  13609.75  431.97  3.17
389.0  14043.20  442.58  3.15
390.5  14496.30  450.34  3.11
392.0  15023.60  464.77  3.09
393.4  15528.53  475.96  3.07
394.9  16025.40  486.96  3.04
396.4  16508.25  495.57  3.00
397.9  17015.00  505.92  2.97
399.3  17524.90  514.22  2.93
400.8  18020.78  531.26  2.95
402.2  18633.45  542.91  2.91
403.7  19187.78  560.15  2.92
405.2  19744.95  570.91  2.89
406.6  20276.80  583.98  2.88
408.1  20837.20  599.23  2.88
409.6  21401.25  609.38  2.85
411.0  22033.20  624.84  2.84
412.5  22657.60  642.80  2.84
414.0  23247.88  658.21  2.83
415.4  23909.63  680.30  2.85
416.9  24537.08  694.27  2.83
418.4  25192.58  716.23  2.84
419.8  25844.00  739.44  2.86
421.3  26523.60  758.67  2.86
422.7  27248.40  782.34  2.87
424.2  27995.63  812.25  2.90
425.7  28704.30  836.74  2.92
427.1  29402.85  858.92  2.92
428.6  30132.00  888.67  2.95
430.0  30820.43  911.80  2.96
431.5  31641.00  939.85  2.97
432.9  32464.40  970.39  2.99
434.4  33291.30  999.48  3.00
435.9  34076.00  1027.47  3.02
437.3  34856.25  1054.43  3.03
438.8  35634.38  1081.87  3.04
440.2  36436.40  1109.96  3.05
441.7  37332.40  1139.77  3.05
443.1  38186.50  1168.40  3.06
444.6  39090.40  1200.46  3.07
446.0  39963.00  1232.63  3.08
447.5  40855.93  1266.53  3.10
448.9  41718.60  1296.76  3.11
450.4  42631.40  1328.30  3.12
451.8  43446.00  1355.47  3.12
453.3  44298.10  1385.70  3.13
454.7  45242.95  1417.01  3.13
456.2  46062.68  1445.05  3.14
457.6  46953.68  1476.43  3.14
459.1  47863.40  1507.12  3.15
460.5  48738.50  1534.18  3.15
462.0  49704.38  1564.39  3.15
463.4  50662.60  1594.03  3.15
464.8  51587.25  1624.83  3.15
466.3  52495.58  1657.49  3.16
467.7  53414.63  1685.92  3.16
469.2  54399.88  1717.69  3.16
470.6  55314.85  1744.48  3.15
472.0  56271.85  1774.39  3.15
473.5  57206.25  1806.93  3.16
474.9  58140.00  1835.67  3.16
476.4  59212.80  1872.55  3.16
477.8  60218.50  1908.75  3.17
479.2  61161.00  1941.21  3.17
480.7  62184.60  1974.25  3.17
482.1  63233.20  2009.24  3.18
483.6  64316.95  2045.99  3.18
485.0  65325.68  2083.85  3.19
486.4  66420.75  2125.14  3.20
487.9  67421.25  2166.73  3.21
489.3  68515.43  2211.70  3.23
490.7  69502.00  2253.63  3.24
492.2  70633.50  2302.02  3.26
493.6  71667.80  2350.42  3.28
495.0  72686.25  2402.40  3.31
496.5  73785.90  2461.35  3.34
497.9  74798.48  2518.65  3.37
499.3  75855.08  2588.11  3.41
500.7  77000.40  2658.91  3.45
502.2  78066.20  2738.41  3.51
503.6  79205.00  2823.36  3.56
505.0  80179.45  2915.49  3.64
506.5  81395.48  3026.20  3.72
507.9  82486.30  3147.85  3.82
509.3  83768.00  3290.82  3.93
510.7  84942.00  3442.03  4.05
512.2  86213.10  3619.30  4.20
513.6  87578.05  3817.10  4.36
515.0  88877.80  4041.39  4.55
516.4  90138.83  4286.39  4.76
517.8  91628.88  4567.49  4.98
519.3  92838.70  4860.03  5.23
520.7  94275.50  5184.99  5.50
522.1  95463.23  5510.94  5.77
523.5  96716.20  5857.46  6.06
524.9  98012.70  6203.50  6.33
526.3  99302.00  6545.52  6.59
527.8  100742.40  6892.24  6.84
529.2  101811.70  7215.15  7.09
530.6  103057.40  7533.96  7.31
532.0  104650.00  7855.60  7.51
533.4  105925.73  8132.46  7.68
534.8  106725.75  8348.12  7.82
536.3  108243.90  8594.23  7.94
537.7  110073.60  8851.68  8.04
539.1  111430.33  9062.40  8.13
540.5  112571.10  9247.52  8.21
541.9  114252.83  9469.45  8.29
543.3  115425.90  9648.15  8.36
544.7  116724.60  9837.77  8.43
546.1  118342.40  10053.87  8.50
547.5  119425.60  10214.62  8.55
549.0  120978.00  10405.90  8.60
550.4  122315.00  10562.16  8.64
551.8  123689.80  10700.92  8.65
553.2  125113.40  10818.38  8.65
554.6  126349.60  10889.89  8.62
556.0  127739.70  10940.74  8.56
557.4  129207.05  10962.79  8.48
558.8  130699.80  10957.10  8.38
560.2  132011.50  10904.13  8.26
561.6  133512.98  10837.34  8.12
563.0  134970.38  10738.77  7.96
564.4  136411.50  10614.21  7.78
565.8  137785.00  10461.58  7.59
567.2  139395.25  10308.85  7.40
568.6  140766.00  10126.70  7.19
570.0  142038.45  9929.77  6.99
571.4  143616.85  9751.57  6.79
572.8  145203.50  9583.18  6.60
574.2  146708.80  9423.04  6.42
575.6  148128.75  9276.11  6.26
577.0  149499.00  9144.83  6.12
578.4  151071.38  9046.27  5.99
579.8  152456.85  8951.38  5.87
581.2  154028.53  8881.77  5.77
582.5  155317.50  8809.55  5.67
583.9  156704.00  8753.24  5.59
585.3  158328.23  8722.52  5.51
586.7  159655.93  8687.09  5.44
588.1  161020.00  8663.02  5.38
589.5  162520.75  8657.48  5.33
590.9  163990.00  8661.69  5.28
592.3  165647.45  8681.73  5.24
593.7  166955.10  8692.76  5.21
595.0  168443.55  8718.07  5.18
596.4  169748.60  8731.14  5.14
597.8  171086.38  8742.45  5.11
599.2  172497.60  8753.61  5.07
600.6  174104.45  8761.51  5.03
602.0  175276.80  8740.32  4.99
603.3  176895.25  8730.72  4.94
604.7  178404.05  8703.68  4.88
606.1  179758.80  8655.23  4.81
607.5  181247.80  8607.38  4.75
608.9  182776.45  8554.04  4.68
610.2  184019.85  8485.70  4.61
611.6  185465.78  8429.51  4.55
613.0  186867.40  8371.51  4.48
614.4  188131.50  8310.97  4.42
615.8  189452.25  8263.27  4.36
617.1  190850.10  8225.42  4.31
618.5  192311.20  8202.02  4.26
619.9  193696.65  8187.72  4.23
621.3  195145.88  8188.45  4.20
622.6  196572.50  8201.74  4.17
624.0  197883.60  8217.34  4.15
625.4  199197.90  8242.66  4.14
626.8  200623.15  8279.79  4.13
628.1  201822.78  8316.01  4.12
629.5  203505.38  8371.88  4.11
630.9  204940.18  8421.53  4.11
632.2  206195.33  8456.46  4.10
633.6  207657.75  8488.46  4.09
635.0  209031.60  8503.85  4.07
636.3  210402.60  8493.81  4.04
637.7  211627.50  8461.13  4.00
639.1  213132.50  8419.83  3.95
640.4  214486.13  8363.81  3.90
641.8  215539.90  8285.40  3.84
643.2  216948.90  8215.11  3.79
644.5  218142.25  8140.72  3.73
645.9  219721.05  8084.09  3.68
647.2  221117.40  8030.03  3.63
648.6  222871.50  8005.12  3.59
650.0  224229.60  7978.43  3.56
651.3  224575.18  7923.10  3.53
652.7  225705.60  7905.71  3.50
654.0  227397.00  7906.39  3.48
655.4  228911.53  7906.62  3.45
656.8  229133.80  7858.74  3.43
658.1  230132.60  7827.83  3.40
659.5  232251.60  7829.23  3.37
660.8  233820.00  7822.29  3.35
662.2  234640.00  7797.76  3.32
663.5  236229.75  7804.19  3.30
664.9  237442.40  7803.41  3.29
666.2  238228.20  7807.00  3.28
667.6  239949.10  7861.17  3.28
668.9  240904.88  7909.06  3.28
670.3  242052.75  7971.90  3.29
671.6  243375.00  8056.87  3.31
673.0  244414.88  8155.07  3.34
674.3  245508.90  8263.09  3.37
675.7  246710.20  8389.55  3.40
677.0  247693.15  8519.06  3.44
678.4  248948.58  8674.71  3.48
679.7  249961.73  8838.32  3.54
681.1  251147.28  9025.95  3.59
682.4  252183.10  9234.01  3.66
683.8  253288.10  9466.38  3.74
685.1  254172.00  9729.94  3.83
686.4  255388.80  10045.40  3.93
687.8  256564.75  10424.87  4.06
689.1  257454.75  10886.18  4.23
690.5  258656.55  11491.73  4.44
691.8  259428.93  12268.79  4.73
693.1  260633.55  13308.06  5.11
694.5  261647.75  14623.70  5.59
695.8  262717.00  16266.90  6.19
697.1  263831.75  18281.47  6.93
698.5  264772.80  20689.00  7.81
699.8  265751.00  23497.35  8.84
701.1  266816.73  26689.34  10.00
702.5  267533.20  30178.99  11.28
703.8  268402.50  33946.29  12.65
705.1  269436.38  37936.27  14.08
706.5  270379.50  42066.71  15.56
707.8  271284.30  46291.11  17.06
709.1  272097.10  50554.86  18.58
710.5  273146.38  54886.97  20.09
711.8  273888.60  59167.64  21.60
713.1  274780.60  63465.37  23.10
714.4  275605.70  67701.53  24.56
715.8  276341.60  71872.90  26.01
717.1  277564.65  76089.19  27.41
718.4  278432.00  80140.16  28.78
719.7  279454.15  84146.19  30.11
721.0  279922.50  87897.65  31.40
722.4  280612.20  91595.53  32.64
723.7  281494.20  95222.54  33.83
725.0  282449.03  98749.65  34.96
726.3  283303.90  102114.71  36.04
727.6  283806.05  105193.04  37.07
729.0  284613.88  108243.56  38.03
730.3  285325.80  111109.00  38.94
731.6  286157.15  113874.63  39.79
732.9  286887.65  116455.47  40.59
734.2  287606.00  118899.50  41.34
735.5  288557.65  121291.09  42.03
736.8  289282.20  123458.94  42.68
738.1  290026.50  125503.91  43.27
739.5  290897.78  127473.63  43.82
740.8  291546.20  129228.47  44.33
742.1  292196.35  130901.43  44.80
743.4  292900.00  132471.19  45.23
744.7  293792.25  134024.27  45.62
746.0  294567.00  135433.95  45.98
747.3  295069.00  136601.54  46.29
748.6  295764.50  137770.59  46.58
749.9  296452.00  138860.55  46.84
751.2  297116.30  139870.87  47.08
752.5  297953.10  140895.70  47.29
753.8  298532.68  141742.71  47.48
755.1  299156.00  142540.42  47.65
756.4  299673.58  143233.82  47.80
757.7  300540.45  144044.26  47.93
759.0  302190.68  145162.37  48.04
760.3  303283.20  145987.98  48.14
761.6  304703.00  146941.44  48.22
762.9  305217.50  147412.89  48.30
764.2  305557.10  147775.28  48.36
765.5  305814.90  148067.66  48.42
766.8  306190.40  148403.72  48.47
768.1  306688.20  148763.74  48.51
769.3  307246.80  149149.89  48.54
770.6  307813.35  149542.62  48.58
771.9  308488.08  149954.33  48.61
773.2  308878.40  150204.90  48.63
774.5  309452.00  150541.96  48.65
775.8  310050.95  150887.43  48.67
777.1  310593.25  151211.88  48.68
778.4  310875.13  151409.84  48.70
779.6  311636.90  151808.97  48.71
780.9  312060.00  152060.86  48.73
782.2  312482.50  152312.50  48.74
783.5  312777.50  152487.80  48.75
784.8  313274.48  152761.07  48.76
786.0  313649.35  152967.86  48.77
787.3  314026.08  153163.05  48.77
788.6  314367.35  153389.83  48.79
789.9  314819.40  153620.38  48.80
791.2  315423.73  153940.46  48.80
792.4  316032.40  154261.45  48.81
793.7  316498.40  154495.36  48.81
795.0  317075.55  154796.73  48.82
796.2  317676.45  155107.38  48.83
797.5  318324.08  155451.26  48.83
798.8  318962.38  155780.39  48.84
800.0  319576.65  156098.17  48.85
801.3  320062.60  156317.13  48.84
802.6  320612.85  156606.44  48.85
803.8  321192.00  156902.58  48.85
805.1  321618.50  157142.43  48.86
806.4  322097.40  157384.94  48.86
807.7  322535.93  157636.11  48.87
808.9  323090.25  157891.06  48.87
810.2  323558.55  158132.20  48.87
811.4  324048.10  158373.23  48.87
812.7  324634.38  158680.87  48.88
814.0  325373.05  159076.50  48.89
815.2  325942.25  159376.06  48.90
816.5  326320.73  159577.26  48.90
817.7  326774.10  159799.49  48.90
819.0  327221.95  160049.11  48.91
820.2  327448.00  160137.79  48.90
821.5  328088.20  160477.63  48.91
822.7  328379.58  160659.41  48.92
824.0  328689.90  160822.68  48.93
825.2  329145.53  161064.78  48.93
826.5  329412.20  161215.86  48.94
827.7  329931.75  161466.91  48.94
829.0  330306.78  161661.20  48.94
830.2  330573.25  161830.54  48.95
831.5  331040.15  162061.88  48.96
832.7  331318.05  162216.50  48.96
834.0  331608.98  162379.06  48.97
835.2  331958.00  162546.87  48.97
836.4  332210.45  162710.89  48.98
837.7  332571.20  162910.23  48.99
838.9  332983.45  163137.40  48.99
840.1  333292.73  163325.69  49.00
841.4  333718.50  163541.44  49.01
842.6  334141.80  163749.05  49.01
843.8  334430.20  163917.60  49.01
845.1  334912.05  164172.84  49.02
846.3  335297.90  164387.24  49.03
847.5  335619.90  164586.02  49.04
848.8  336006.60  164791.76  49.04
850.0  336367.85  164980.72  49.05
851.2  336856.05  165228.03  49.05
852.5  337253.50  165425.53  49.05
853.7  337734.00  165668.51  49.05
854.9  338101.50  165886.45  49.06
856.1  338499.20  166106.78  49.07
857.4  338785.88  166218.41  49.06
858.6  339268.30  166455.98  49.06
859.8  339590.63  166644.04  49.07
861.0  339978.60  166852.70  49.08
862.2  340449.25  167079.73  49.08
863.5  340809.63  167240.07  49.07
864.7  341292.60  167477.14  49.07
865.9  341677.00  167672.16  49.07
867.1  341979.80  167835.35  49.08
868.3  342438.75  168041.10  49.07
869.5  342845.80  168257.13  49.08
870.8  343408.50  168492.34  49.06
872.0  343864.28  168721.68  49.07
873.2  344250.75  168904.48  49.06
874.4  344646.90  169110.30  49.07
875.6  345106.65  169287.11  49.05
876.8  345585.25  169504.80  49.05
878.0  346114.35  169722.36  49.04
879.2  346551.45  169948.08  49.04
880.4  346960.13  170175.28  49.05
881.6  347434.10  170388.02  49.04
882.8  347792.80  170580.42  49.05
884.0  348377.80  170821.55  49.03
885.2  348870.60  171034.22  49.03
886.5  349447.05  171291.80  49.02
887.7  349927.18  171501.06  49.01
888.8  350587.28  171786.51  49.00
890.0  351032.65  172025.68  49.01
891.2  351656.10  172284.85  48.99
892.4  352162.65  172550.92  49.00
893.6  352737.35  172795.01  48.99
894.8  353659.50  173170.18  48.97
896.0  354322.50  173521.14  48.97
897.2  355143.75  173878.19  48.96
898.4  355799.40  174221.77  48.97
899.6  356395.13  174465.49  48.95
900.8  356758.20  174648.06  48.95
902.0  357106.05  174736.95  48.93
903.2  357481.35  174862.72  48.92
904.3  357714.90  174977.21  48.92
905.5  358350.65  175249.36  48.90
906.7  358887.00  175511.00  48.90
907.9  359268.00  175749.61  48.92
909.1  359667.00  175889.84  48.90
910.2  359893.58  175976.17  48.90
911.4  360374.63  176064.75  48.86
912.6  360517.30  176141.00  48.86
913.8  360679.58  176211.75  48.86
915.0  361105.50  176394.89  48.85
916.2  361237.50  176467.39  48.85
917.3  361271.70  176469.59  48.85
918.5  361547.90  176538.27  48.83
919.7  361894.05  176655.36  48.81
920.8  361961.03  176658.47  48.81
922.0  362073.25  176702.17  48.80
923.2  362271.00  176746.70  48.79
924.4  362542.50  176811.62  48.77
925.5  362815.80  176886.23  48.75
926.7  363483.38  177123.99  48.73
927.9  364247.40  177443.48  48.72
929.0  365520.60  178050.10  48.71
930.2  367444.80  178974.95  48.71
931.4  369731.93  179954.74  48.67
932.5  372119.35  181038.90  48.65
933.7  373457.80  181591.05  48.62
934.9  374255.00  181828.79  48.58
936.0  374040.88  181592.59  48.55
937.2  372097.05  180630.44  48.54
938.3  370738.70  179848.63  48.51
939.5  369194.40  179113.51  48.51
940.7  369413.10  179075.60  48.48
941.8  370848.45  179645.23  48.44
943.0  372123.00  180185.52  48.42
944.2  372971.30  180446.03  48.38
945.3  372723.00  180204.14  48.35
946.5  372109.95  179788.36  48.32
947.6  372437.10  179737.48  48.26
948.8  372139.95  179539.65  48.25
949.9  372099.00  179414.04  48.22
951.1  371973.88  179107.02  48.15
952.2  371892.00  178818.63  48.08
953.4  371806.50  178513.31  48.01
954.5  371919.60  178318.04  47.95
955.7  371851.20  178116.48  47.90
956.8  371519.50  177841.68  47.87
958.0  371234.00  177486.90  47.81
959.1  370866.18  177252.17  47.79
960.3  370949.68  176938.39  47.70
961.4  371058.10  176783.69  47.64
962.6  371133.00  176750.55  47.62
963.7  370931.40  176612.98  47.61
964.9  370763.93  176465.79  47.60
966.0  370589.18  176368.17  47.59
967.2  370602.45  176336.48  47.58
968.3  370664.10  176175.93  47.53
969.5  370436.88  176071.01  47.53
970.6  370434.18  176061.76  47.53
971.8  370688.15  176198.78  47.53
972.9  370611.08  176005.70  47.49
974.0  370548.30  176079.12  47.52
975.2  370461.75  175958.77  47.50
976.3  370356.33  175861.64  47.48
977.5  370611.50  175822.57  47.44
978.6  370092.50  175777.27  47.50
979.7  370360.20  175856.38  47.48
980.9  370209.43  175779.16  47.48
982.0  370041.45  175679.99  47.48
983.2  369398.78  175568.43  47.53
984.3  369784.00  175378.09  47.43
985.4  370288.00  175473.54  47.39
986.6  369703.25  175464.29  47.46
987.7  370463.80  175901.98  47.48
988.9  370207.80  175810.14  47.49
990.0  371127.00  176165.78  47.47
993.1  322478.45  152279.62  47.22
996.9  322153.28  152495.20  47.34
1000.7  322606.43  153029.07  47.44
1004.5  322812.17  153459.58  47.54
1008.4  322505.38  153607.39  47.63
1012.2  322384.46  153822.63  47.71
1016.0  322280.40  154022.70  47.79
1019.8  322106.40  154172.29  47.86
1023.7  321631.51  154129.90  47.92
1027.5  320832.88  153921.56  47.98
1031.3  320526.85  153915.75  48.02
1035.1  320057.09  153794.55  48.05
1038.9  319831.23  153778.90  48.08
1042.7  319595.92  153733.73  48.10
1046.5  319447.17  153726.80  48.12
1050.3  319399.98  153751.67  48.14
1054.2  319060.00  153642.59  48.15
1058.0  318595.84  153419.31  48.15
1061.8  318511.50  153396.67  48.16
1065.6  318113.07  153193.60  48.16
1069.4  317867.27  153035.41  48.14
1073.2  317166.22  152666.27  48.13
1077.0  316583.60  152329.70  48.12
1080.8  316341.67  152122.69  48.09
1084.6  315854.82  151789.11  48.06
1088.4  315656.00  151619.08  48.03
1092.2  315081.00  151230.86  48.00
1096.0  314572.47  150859.90  47.96
1099.8  314061.58  150468.16  47.91
1103.6  313338.40  149963.21  47.86
1107.4  312420.04  149337.85  47.80
1111.2  312095.90  149010.18  47.74
1114.9  311425.92  148473.00  47.68
1118.7  310855.05  147928.99  47.59
1122.5  310283.13  147298.42  47.47
1126.3  309343.30  146451.37  47.34
1130.1  308967.24  145708.40  47.16
1133.9  307640.20  144312.95  46.91
1137.7  306421.10  142791.04  46.60
1141.4  304868.85  140954.88  46.23
1145.2  304183.11  139386.98  45.82
1149.0  303177.29  137767.30  45.44
1152.8  301793.15  136140.27  45.11
1156.6  300427.05  134784.10  44.86
1160.3  298959.33  133657.79  44.71
1164.1  296979.50  132502.67  44.62
1167.9  295478.13  131714.36  44.58
1171.7  294391.13  131166.01  44.56
1175.4  293268.17  130634.14  44.54
1179.2  292203.45  130105.80  44.53
1183.0  291833.67  129857.31  44.50
1186.7  291496.10  129623.40  44.47
1190.5  290833.33  129279.57  44.45
1194.3  289989.67  128866.57  44.44
1198.0  288941.68  128398.78  44.44
1201.8  287576.68  127843.86  44.46
1205.6  286514.33  127477.07  44.49
1209.3  285798.35  127327.10  44.55
1213.1  285156.30  127212.13  44.61
1216.8  284521.05  127127.04  44.68
1220.6  283606.40  126913.60  44.75
1224.3  282592.58  126638.33  44.81
1228.1  281455.20  126331.42  44.89
1231.9  280257.28  125946.86  44.94
1235.6  278873.55  125445.77  44.98
1239.4  277624.25  125024.31  45.03
1243.1  276500.32  124607.49  45.07
1246.9  275421.83  124180.22  45.09
1250.6  274595.20  123836.07  45.10
1254.3  273672.39  123441.08  45.11
1258.1  272758.85  123034.80  45.11
1261.8  271624.13  122507.46  45.10
1265.6  270448.48  121934.16  45.09
1269.3  269446.00  121405.44  45.06
1273.1  269503.43  121329.81  45.02
1276.8  269599.60  121233.49  44.97
1280.6  269100.73  120854.98  44.91
1284.3  267631.60  120014.03  44.84
1288.0  266379.58  119238.20  44.76
1291.8  265502.53  118565.33  44.66
1295.5  264570.53  117847.09  44.54
1299.2  263569.27  117042.16  44.41
1302.9  262282.43  116044.62  44.24
1306.7  260850.68  114921.98  44.06
1310.4  259507.15  113737.71  43.83
1314.1  258226.83  112529.42  43.58
1317.9  257112.08  111284.81  43.28
1321.6  255888.43  109901.95  42.95
1325.3  254470.65  108335.67  42.57
1329.0  253260.12  106821.77  42.18
1332.8  251497.40  104970.80  41.74
1336.5  249976.40  103203.76  41.29
1340.2  249597.83  101905.92  40.83
1343.9  249051.67  100531.43  40.37
1347.6  248142.45  99000.29  39.90
1351.4  247876.00  97777.33  39.45
1355.1  247631.27  96580.97  39.00
1358.8  247536.00  95392.00  38.54
1362.5  247056.95  93939.78  38.02
