/*** Spectra Vista SIG Data ***/
name= 46_20220926_QUPH_16_avg.sig
comm= Averaged Ref/Tar of files: HR.092722.0053_moc.sig,HR.092722.0054_moc.sig
data=
337.3  3225.63  198.50  6.15
338.8  3367.00  211.64  6.29
340.3  3513.75  215.51  6.13
341.8  3658.00  210.34  5.75
343.2  3862.80  186.48  4.83
344.7  4009.10  187.66  4.68
346.2  4207.55  187.91  4.47
347.7  4443.73  188.76  4.25
349.2  4611.60  196.56  4.26
350.6  4847.70  198.32  4.09
352.1  5108.68  200.06  3.92
353.6  5413.20  208.20  3.85
355.1  5724.75  208.79  3.65
356.6  5997.83  203.21  3.39
358.0  6284.30  204.16  3.25
359.5  6550.80  210.12  3.21
361.0  6882.75  215.46  3.13
362.5  7230.93  216.64  3.00
364.0  7570.20  229.40  3.03
365.4  7952.30  230.42  2.90
366.9  8315.13  243.10  2.92
368.4  8673.45  267.30  3.08
369.9  9053.38  275.66  3.04
371.3  9478.50  288.36  3.04
372.8  9903.15  302.67  3.06
374.3  10320.00  306.38  2.97
375.8  10726.10  307.23  2.86
377.2  11163.50  312.04  2.80
378.7  11593.90  322.80  2.78
380.2  11997.40  322.80  2.69
381.7  12539.60  318.90  2.54
383.1  12989.90  334.18  2.57
384.6  13514.48  339.89  2.51
386.1  13971.93  351.33  2.51
387.6  14445.20  355.74  2.46
389.0  14927.60  369.84  2.48
390.5  15399.00  382.32  2.48
392.0  16002.25  391.46  2.45
393.4  16553.25  399.38  2.41
394.9  17121.60  412.38  2.41
396.4  17646.75  419.18  2.38
397.9  18193.75  425.38  2.34
399.3  18765.83  450.79  2.40
400.8  19316.88  458.62  2.37
402.2  19959.15  466.45  2.34
403.7  20560.05  481.50  2.34
405.2  21165.45  492.44  2.33
406.6  21761.60  510.40  2.35
408.1  22328.80  533.36  2.39
409.6  22959.70  548.75  2.39
411.0  23634.45  555.10  2.35
412.5  24323.60  570.61  2.35
414.0  24959.38  586.80  2.35
415.4  25638.75  616.13  2.40
416.9  26310.38  636.08  2.42
418.4  27022.73  653.63  2.42
419.8  27755.00  666.12  2.40
421.3  28502.18  688.05  2.41
422.7  29266.80  706.44  2.41
424.2  30020.63  729.00  2.43
425.7  30790.70  753.06  2.45
427.1  31570.88  781.76  2.48
428.6  32364.00  802.90  2.48
430.0  33127.03  822.49  2.48
431.5  34014.08  841.77  2.47
432.9  34881.65  864.35  2.48
434.4  35783.85  893.88  2.50
435.9  36624.00  921.20  2.52
437.3  37496.25  940.50  2.51
438.8  38362.95  958.40  2.50
440.2  39239.20  980.98  2.50
441.7  40213.40  1015.72  2.53
443.1  41128.00  1049.40  2.55
444.6  42103.40  1079.44  2.56
446.0  43051.05  1108.07  2.57
447.5  44035.48  1139.99  2.59
448.9  44982.30  1171.32  2.60
450.4  45998.40  1206.94  2.62
451.8  46891.00  1240.20  2.64
453.3  47815.28  1273.51  2.66
454.7  48839.73  1309.60  2.68
456.2  49712.78  1338.37  2.69
457.6  50697.23  1369.98  2.70
459.1  51687.68  1399.13  2.71
460.5  52644.00  1428.45  2.71
462.0  53721.30  1463.41  2.72
463.4  54772.60  1496.04  2.73
464.8  55763.63  1526.25  2.74
466.3  56731.13  1553.97  2.74
467.7  57721.58  1587.66  2.75
469.2  58791.28  1615.81  2.75
470.6  59810.85  1646.66  2.75
472.0  60874.38  1683.37  2.77
473.5  61895.75  1714.78  2.77
474.9  62942.25  1747.05  2.78
476.4  64108.80  1788.48  2.79
477.8  65163.00  1821.20  2.79
479.2  66178.00  1858.90  2.81
480.7  67279.80  1899.12  2.82
482.1  68435.20  1939.19  2.83
483.6  69634.55  1985.43  2.85
485.0  70710.38  2029.40  2.87
486.4  71920.65  2077.74  2.89
487.9  72993.38  2129.40  2.92
489.3  74169.83  2185.19  2.95
490.7  75215.30  2247.04  2.99
492.2  76440.00  2316.72  3.03
493.6  77542.45  2387.95  3.08
495.0  78653.25  2468.70  3.14
496.5  79846.68  2559.32  3.21
497.9  80976.65  2656.18  3.28
499.3  82150.65  2767.71  3.37
500.7  83431.75  2900.70  3.48
502.2  84577.80  3051.40  3.61
503.6  85848.00  3223.68  3.76
505.0  86947.75  3413.45  3.93
506.5  88265.85  3637.61  4.12
507.9  89439.23  3890.08  4.35
509.3  90783.20  4182.48  4.61
510.7  92005.88  4507.43  4.90
512.2  93392.70  4878.08  5.22
513.6  94896.55  5303.76  5.59
515.0  96345.93  5772.51  5.99
516.4  97736.63  6285.20  6.43
517.8  99383.50  6847.80  6.89
519.3  100748.85  7434.42  7.38
520.7  102312.10  8064.70  7.88
522.1  103610.65  8698.04  8.39
523.5  104958.90  9349.14  8.91
524.9  106466.40  10013.31  9.41
526.3  107940.70  10664.92  9.88
527.8  109444.50  11303.82  10.33
529.2  110453.70  11884.24  10.76
530.6  111973.05  12499.25  11.16
532.0  113652.00  13101.20  11.53
533.4  115007.40  13623.87  11.85
534.8  115943.58  14063.47  12.13
536.3  117531.90  14543.46  12.37
537.7  119473.20  15044.40  12.59
539.1  120920.58  15460.48  12.79
540.5  122126.75  15838.52  12.97
541.9  123896.55  16277.76  13.14
543.3  125206.78  16651.80  13.30
544.7  126540.00  17033.88  13.46
546.1  128343.33  17476.25  13.62
547.5  129584.00  17825.92  13.76
549.0  131219.00  18218.20  13.88
550.4  132748.75  18568.25  13.99
551.8  134351.63  18902.90  14.07
553.2  135860.75  19175.54  14.11
554.6  137196.80  19373.12  14.12
556.0  138710.70  19536.66  14.08
557.4  140337.40  19654.67  14.01
558.8  142002.00  19735.38  13.90
560.2  143486.25  19739.48  13.76
561.6  145168.13  19726.19  13.59
563.0  146765.23  19649.01  13.39
564.4  148375.20  19532.27  13.16
565.8  149897.50  19356.63  12.91
567.2  151661.00  19167.25  12.64
568.6  153152.63  18900.75  12.34
570.0  154593.85  18580.68  12.02
571.4  156324.35  18274.49  11.69
572.8  158097.38  17969.10  11.37
574.2  159723.20  17653.44  11.05
575.6  161302.50  17349.75  10.76
577.0  162833.00  17074.30  10.49
578.4  164550.75  16844.10  10.24
579.8  166100.63  16627.28  10.01
581.2  167814.35  16455.02  9.81
582.5  169252.20  16274.70  9.62
583.9  170781.40  16130.60  9.45
585.3  172578.60  16027.20  9.29
586.7  174085.93  15928.32  9.15
588.1  175557.88  15847.38  9.03
589.5  177233.00  15802.50  8.92
590.9  178870.00  15785.20  8.82
592.3  180682.35  15797.94  8.74
593.7  182152.43  15813.33  8.68
595.0  183756.60  15856.83  8.63
596.4  185223.85  15889.65  8.58
597.8  186711.00  15922.74  8.53
599.2  188271.60  15942.96  8.47
600.6  190054.48  15960.69  8.40
602.0  191346.53  15914.00  8.32
603.3  193141.70  15867.05  8.22
604.7  194814.05  15778.22  8.10
606.1  196305.00  15638.16  7.97
607.5  197957.80  15467.89  7.81
608.9  199664.55  15275.16  7.65
610.2  201044.03  15039.68  7.48
611.6  202655.78  14806.32  7.31
613.0  204207.40  14568.49  7.13
614.4  205606.05  14331.75  6.97
615.8  207075.38  14116.05  6.82
617.1  208622.40  13923.84  6.67
618.5  210248.80  13764.00  6.55
619.9  211770.83  13626.53  6.43
621.3  213386.63  13540.37  6.35
622.6  214979.25  13484.05  6.27
624.0  216454.50  13453.86  6.22
625.4  217929.53  13449.15  6.17
626.8  219510.20  13475.74  6.14
628.1  220789.80  13508.94  6.12
629.5  222558.70  13580.25  6.10
630.9  224030.13  13651.50  6.09
632.2  225275.23  13695.43  6.08
633.6  226786.38  13730.83  6.05
635.0  228226.80  13715.28  6.01
636.3  229726.70  13642.78  5.94
637.7  231104.88  13507.33  5.84
639.1  232732.50  13324.50  5.73
640.4  234211.43  13075.97  5.58
641.8  235414.78  12773.40  5.43
643.2  236992.70  12469.70  5.26
644.5  238363.25  12139.90  5.09
645.9  239923.80  11815.38  4.92
647.2  240974.48  11486.97  4.77
648.6  242493.75  11222.55  4.63
650.0  243864.00  10994.40  4.51
651.3  244843.78  10787.10  4.41
652.7  246957.70  10626.05  4.30
654.0  249014.60  10456.14  4.20
655.4  250433.90  10262.42  4.10
656.8  250653.40  10019.78  4.00
658.1  252106.20  9788.24  3.88
659.5  254375.10  9558.26  3.76
660.8  255735.00  9292.50  3.63
662.2  256748.80  9031.68  3.52
663.5  258291.15  8811.27  3.41
664.9  259321.40  8610.16  3.32
666.2  260095.20  8440.44  3.25
667.6  261827.60  8362.95  3.19
668.9  262776.65  8307.22  3.16
670.3  264629.13  8301.13  3.14
671.6  265654.88  8310.15  3.13
673.0  266849.63  8372.10  3.14
674.3  268095.10  8464.30  3.16
675.7  269425.38  8591.59  3.19
677.0  270489.03  8739.52  3.23
678.4  271788.50  8928.94  3.29
679.7  272823.68  9140.38  3.35
681.1  274083.20  9403.95  3.43
682.4  275167.10  9724.00  3.53
683.8  276338.40  10126.22  3.66
685.1  277314.75  10628.85  3.83
686.4  278632.20  11308.68  4.06
687.8  279816.00  12193.00  4.36
689.1  280884.00  13376.70  4.76
690.5  282213.45  14961.09  5.30
691.8  283005.20  17004.59  6.01
693.1  284325.45  19633.02  6.91
694.5  285489.75  22768.20  7.98
695.8  286718.25  26403.65  9.21
697.1  287878.50  30498.65  10.59
698.5  288925.60  34976.16  12.11
699.8  289967.90  39771.95  13.72
701.1  291124.33  44814.87  15.39
702.5  291887.20  49916.68  17.10
703.8  292815.00  55107.00  18.82
705.1  293969.33  60296.34  20.51
706.5  294969.63  65420.03  22.18
707.8  295914.00  70433.79  23.80
709.1  296721.58  75284.37  25.37
710.5  297837.83  80084.24  26.89
711.8  298663.90  84686.48  28.36
713.1  299645.10  89217.84  29.77
714.4  300559.40  93593.10  31.14
715.8  301317.60  97816.72  32.46
717.1  302619.00  102072.45  33.73
718.4  303564.80  106077.44  34.94
719.7  304648.63  109992.65  36.10
721.0  305145.00  113553.00  37.21
722.4  305890.75  117052.54  38.27
723.7  306839.55  120470.82  39.26
725.0  307855.58  123787.62  40.21
726.3  308776.60  126907.00  41.10
727.6  309301.58  129705.35  41.93
729.0  310175.25  132492.75  42.72
730.3  310929.60  135087.68  43.45
731.6  311830.50  137566.56  44.12
732.9  312559.98  139850.17  44.74
734.2  313341.88  142012.48  45.32
735.5  314388.10  144142.38  45.85
736.8  315162.60  146058.36  46.34
738.1  316005.80  147864.52  46.79
739.5  316934.25  149594.90  47.20
740.8  317587.60  151103.76  47.58
742.1  318234.88  152504.99  47.92
743.4  318850.00  153800.00  48.24
744.7  319722.50  155118.28  48.52
746.0  320576.10  156348.66  48.77
747.3  321155.55  157366.73  49.00
748.6  321875.00  158383.10  49.21
749.9  322478.00  159265.60  49.39
751.2  323057.10  160069.38  49.55
752.5  323763.15  160900.95  49.70
753.8  324268.70  161565.92  49.82
755.1  324896.00  162255.60  49.94
756.4  325440.78  162863.25  50.04
757.7  326406.85  163636.27  50.13
759.0  328153.43  164761.19  50.21
760.3  329287.20  165559.68  50.28
761.6  330797.60  166531.96  50.34
762.9  331298.75  166936.05  50.39
764.2  331650.10  167248.06  50.43
765.5  331867.00  167479.33  50.47
766.8  332193.60  167769.60  50.50
768.1  332636.00  168088.04  50.53
769.3  333182.50  168438.27  50.55
770.6  333778.90  168812.41  50.58
771.9  334409.08  169207.78  50.60
773.2  334750.80  169411.68  50.61
774.5  335277.80  169741.00  50.63
775.8  335871.70  170093.83  50.64
777.1  336361.85  170381.75  50.65
778.4  336622.00  170559.07  50.67
779.6  337319.30  170948.48  50.68
780.9  337710.00  171180.00  50.69
782.2  338074.00  171420.70  50.71
783.5  338306.00  171580.80  50.72
784.8  338735.93  171830.88  50.73
786.0  339036.60  172028.99  50.74
787.3  339363.45  172224.91  50.75
788.6  339700.05  172434.22  50.76
789.9  340064.20  172649.96  50.77
791.2  340636.78  172966.74  50.78
792.4  341192.33  173316.60  50.80
793.7  341615.20  173539.72  50.80
795.0  342139.88  173833.44  50.81
796.2  342729.15  174143.65  50.81
797.5  343326.08  174486.18  50.82
798.8  343831.23  174814.63  50.84
800.0  344442.13  175128.58  50.84
801.3  344827.20  175352.14  50.85
802.6  345368.48  175643.91  50.86
803.8  345950.55  175971.58  50.87
805.1  346300.50  176182.83  50.88
806.4  346671.90  176395.38  50.88
807.7  347121.45  176661.81  50.89
808.9  347589.80  176926.48  50.90
810.2  348079.55  177176.09  50.90
811.4  348509.10  177418.44  50.91
812.7  349050.00  177742.50  50.92
814.0  349816.15  178146.58  50.93
815.2  350407.75  178472.90  50.93
816.5  350755.68  178696.43  50.95
817.7  351198.60  178924.46  50.95
819.0  351597.40  179170.42  50.96
820.2  351736.00  179256.00  50.96
821.5  352422.45  179600.16  50.96
822.7  352692.25  179796.08  50.98
824.0  352971.00  179973.90  50.99
825.2  353457.68  180207.99  50.98
826.5  353711.55  180373.04  50.99
827.7  354232.40  180641.24  51.00
829.0  354620.55  180847.71  51.00
830.2  354902.65  181026.56  51.01
831.5  355413.05  181262.16  51.00
832.7  355711.13  181435.59  51.01
834.0  356023.18  181606.48  51.01
835.2  356382.13  181810.04  51.02
836.4  356644.75  181976.85  51.02
837.7  357015.40  182209.56  51.04
838.9  357546.90  182441.45  51.03
840.1  357887.70  182652.71  51.04
841.4  358356.20  182910.74  51.04
842.6  358706.80  183145.08  51.06
843.8  359042.20  183324.24  51.06
845.1  359542.30  183605.16  51.07
846.3  359938.90  183821.86  51.07
847.5  360406.20  184051.98  51.07
848.8  360850.20  184299.96  51.07
850.0  361239.90  184516.78  51.08
851.2  361728.45  184804.47  51.09
852.5  362137.60  185042.54  51.10
853.7  362594.25  185323.05  51.11
854.9  363087.30  185569.14  51.11
856.1  363605.45  185799.64  51.10
857.4  363881.13  185921.89  51.09
858.6  364325.55  186192.53  51.11
859.8  364704.38  186438.38  51.12
861.0  365180.40  186689.88  51.12
862.2  365680.88  186941.47  51.12
863.5  366092.03  187147.22  51.12
864.7  366630.00  187395.12  51.11
865.9  367073.40  187595.72  51.11
867.1  367339.10  187777.46  51.12
868.3  367812.90  188023.20  51.12
869.5  368264.20  188262.59  51.12
870.8  368806.50  188541.90  51.12
872.0  369381.53  188796.72  51.11
873.2  369805.80  189013.59  51.11
874.4  370234.80  189271.49  51.12
875.6  370634.65  189481.58  51.12
876.8  371070.65  189688.80  51.12
878.0  371670.80  189950.56  51.11
879.2  372172.95  190194.18  51.10
880.4  372716.63  190464.30  51.10
881.6  373144.90  190682.80  51.10
882.8  373558.40  190870.88  51.10
884.0  374177.15  191157.60  51.09
885.2  374566.70  191378.94  51.09
886.5  375213.55  191684.99  51.09
887.7  375674.33  191897.29  51.08
888.8  376326.83  192170.39  51.06
890.0  376918.65  192425.43  51.05
891.2  377423.60  192703.42  51.06
892.4  378009.45  192976.77  51.05
893.6  378462.80  193220.29  51.05
894.8  379270.00  193662.30  51.06
896.0  380226.75  194073.45  51.04
897.2  380935.75  194407.20  51.03
898.4  381681.30  194738.28  51.02
899.6  382260.00  194952.60  51.00
900.8  382481.90  195141.68  51.02
902.0  382667.10  195205.14  51.01
903.2  382876.20  195345.00  51.02
904.3  383258.10  195471.54  51.00
905.5  383835.35  195695.67  50.98
906.7  384424.50  195901.00  50.96
907.9  384831.30  196123.48  50.96
909.1  385007.18  196252.07  50.97
910.2  385236.53  196230.23  50.94
911.4  385319.03  196293.24  50.94
912.6  385313.50  196351.87  50.96
913.8  385571.03  196371.36  50.93
915.0  385970.55  196471.38  50.90
916.2  386080.50  196538.55  50.91
917.3  385938.90  196489.67  50.91
918.5  386006.70  196529.06  50.91
919.7  386230.80  196535.70  50.89
920.8  386304.60  196451.32  50.85
922.0  386328.25  196357.70  50.83
923.2  386431.50  196396.20  50.82
924.4  386343.00  196492.50  50.86
925.5  386666.80  196560.30  50.83
926.7  387117.63  196733.78  50.82
927.9  387961.80  196974.12  50.77
929.0  389358.90  197563.59  50.74
930.2  391460.80  198522.26  50.71
931.4  393635.03  199682.82  50.73
932.5  396384.60  200916.27  50.69
933.7  397675.20  201577.99  50.69
934.9  398212.50  201663.88  50.64
936.0  397674.88  201282.90  50.61
937.2  395590.95  199995.96  50.56
938.3  393638.25  198941.93  50.54
939.5  392036.40  198065.52  50.52
940.7  392103.90  197994.42  50.50
941.8  393302.85  198581.10  50.49
943.0  394708.50  199075.05  50.44
944.2  395619.90  199234.62  50.36
945.3  394953.00  198810.30  50.34
946.5  394252.65  198158.40  50.26
947.6  393986.20  198099.16  50.28
948.8  393870.75  197789.09  50.22
949.9  393813.00  197597.40  50.18
951.1  393430.05  197075.97  50.09
952.2  393108.00  196574.40  50.01
953.4  392738.75  196141.40  49.94
954.5  392558.40  195858.00  49.89
955.7  392200.20  195521.76  49.85
956.8  392002.10  195107.66  49.77
958.0  391612.00  194521.30  49.67
959.1  391407.15  194123.50  49.60
960.3  390727.53  193592.96  49.55
961.4  390291.20  193363.02  49.54
962.6  390552.75  193238.50  49.48
963.7  390312.08  192972.65  49.44
964.9  390092.85  192737.00  49.41
966.0  389877.30  192521.21  49.38
967.2  389621.25  192301.20  49.36
968.3  389387.25  192061.53  49.32
969.5  389168.40  191900.28  49.31
970.6  389201.30  191944.38  49.32
971.8  389252.50  191931.43  49.31
972.9  389344.58  191768.60  49.25
974.0  389450.50  191759.56  49.24
975.2  389223.63  191507.58  49.20
976.3  388999.63  191595.76  49.25
977.5  389142.08  191507.82  49.21
978.6  388897.20  191487.86  49.24
979.7  389048.10  191550.98  49.24
980.9  389148.28  191282.39  49.15
982.0  388759.50  191212.08  49.19
983.2  388813.93  190881.58  49.09
984.3  387729.40  190765.04  49.20
985.4  387645.25  190582.61  49.16
986.6  386898.75  190501.58  49.24
987.7  387421.65  190841.04  49.26
988.9  388132.20  190550.16  49.09
990.0  388591.80  190657.40  49.06
993.1  390468.05  192166.93  49.21
996.9  389121.23  192111.13  49.37
1000.7  389132.98  192614.69  49.50
1004.5  389205.75  193115.31  49.62
1008.4  388804.21  193355.52  49.73
1012.2  388541.38  193696.67  49.85
1016.0  388155.60  193918.25  49.96
1019.8  387514.05  193963.00  50.05
1023.7  386359.99  193715.70  50.14
1027.5  384705.22  193199.29  50.22
1031.3  383719.18  192954.72  50.29
1035.1  382661.59  192658.70  50.35
1038.9  382182.90  192611.18  50.40
1042.7  381835.92  192639.13  50.45
1046.5  381657.50  192717.40  50.49
1050.3  381660.44  192809.25  50.52
1054.2  381264.33  192716.84  50.55
1058.0  380837.98  192571.01  50.57
1061.8  380744.21  192614.34  50.59
1065.6  380222.00  192354.21  50.59
1069.4  379444.27  191970.89  50.59
1073.2  378114.09  191289.90  50.59
1077.0  377354.20  190851.06  50.58
1080.8  377422.92  190799.43  50.55
1084.6  377406.17  190673.64  50.52
1088.4  377621.43  190708.84  50.50
1092.2  377120.25  190320.70  50.47
1096.0  376429.53  189812.75  50.42
1099.8  375738.57  189278.31  50.38
1103.6  374806.97  188622.88  50.33
1107.4  373654.93  187814.21  50.26
1111.2  373312.90  187416.22  50.20
1114.9  372757.00  186822.39  50.12
1118.7  372438.00  186289.01  50.02
1122.5  371995.87  185609.01  49.90
1126.3  371057.34  184515.66  49.73
1130.1  370670.96  183427.11  49.49
1133.9  368997.30  181397.44  49.16
1137.7  367432.90  179161.43  48.76
1141.4  365297.40  176432.64  48.30
1145.2  364348.17  174131.55  47.79
1149.0  363024.38  171775.56  47.32
1152.8  361204.15  169424.23  46.91
1156.6  359337.18  167450.22  46.60
1160.3  357529.67  165849.63  46.39
1164.1  355139.50  164270.85  46.26
1167.9  353457.29  163222.99  46.18
1171.7  352130.63  162446.07  46.13
1175.4  350679.83  161639.79  46.09
1179.2  349266.75  160832.71  46.05
1183.0  348917.67  160494.38  46.00
1186.7  348833.80  160297.66  45.95
1190.5  348418.33  159964.43  45.91
1194.3  347457.83  159439.48  45.89
1198.0  345981.35  158745.16  45.88
1201.8  344272.10  158011.80  45.90
1205.6  343174.00  157618.57  45.93
1209.3  342557.32  157514.05  45.98
1213.1  342009.83  157510.68  46.05
1216.8  341366.48  157533.47  46.15
1220.6  340257.87  157367.96  46.25
1224.3  339006.67  157123.87  46.35
1228.1  337501.80  156799.12  46.46
1231.9  335886.38  156361.50  46.55
1235.6  334124.93  155805.56  46.63
1239.4  332549.38  155321.86  46.71
1243.1  331141.96  154856.52  46.76
1246.9  329851.30  154396.58  46.81
1250.6  328753.87  153999.94  46.84
1254.3  327578.90  153524.50  46.87
1258.1  326331.13  152991.11  46.88
1261.8  324862.53  152321.81  46.89
1265.6  323630.90  151706.74  46.88
1269.3  322776.68  151228.10  46.85
1273.1  323115.13  151257.23  46.81
1276.8  322932.40  151011.20  46.76
1280.6  321801.40  150308.74  46.71
1284.3  319816.40  149127.94  46.63
1288.0  318515.33  148205.60  46.53
1291.8  317995.59  147563.28  46.40
1295.5  317213.60  146753.03  46.26
1299.2  316066.77  145704.81  46.10
1302.9  314445.48  144321.71  45.90
1306.7  312676.35  142768.48  45.66
1310.4  310955.58  141094.48  45.37
1314.1  309354.83  139381.41  45.06
1317.9  307923.13  137588.34  44.68
1321.6  306355.15  135627.95  44.27
1325.3  304667.48  133465.25  43.81
1329.0  303358.88  131370.08  43.31
1332.8  301393.40  128885.54  42.76
1336.5  299715.20  126494.51  42.20
1340.2  299572.00  124750.17  41.64
1343.9  299558.54  123057.15  41.08
1347.6  299822.70  121501.01  40.52
