/*** Spectra Vista SIG Data ***/
name= 32_20220721_TITO_35_avg.sig
comm= Averaged Ref/Tar of files: HR.072122.0018_moc.sig,HR.072122.0019_moc.sig,HR.072122.0020_moc.sig
data=
337.3  3324.88  330.83  9.95
338.8  3463.20  314.25  9.07
340.3  3607.45  318.58  8.83
341.8  3840.90  310.93  8.10
343.2  3996.00  313.76  7.85
344.7  4179.70  301.39  7.21
346.2  4330.10  294.12  6.79
347.7  4522.38  298.87  6.61
349.2  4725.00  302.40  6.40
350.6  4994.60  293.80  5.88
352.1  5251.58  304.85  5.80
353.6  5517.30  296.11  5.37
355.1  5758.43  305.32  5.30
356.6  6063.38  305.90  5.05
358.0  6316.20  310.49  4.92
359.5  6612.60  317.24  4.80
361.0  6912.68  319.20  4.62
362.5  7260.20  335.69  4.62
364.0  7598.88  355.57  4.68
365.4  7952.30  348.44  4.38
366.9  8287.50  353.60  4.27
368.4  8618.90  367.30  4.26
369.9  8945.28  374.75  4.19
371.3  9345.00  388.04  4.15
372.8  9743.85  407.10  4.18
374.3  10158.75  412.08  4.06
375.8  10564.40  420.42  3.98
377.2  10948.30  430.40  3.93
378.7  11351.80  433.99  3.82
380.2  11701.50  441.16  3.77
381.7  12215.30  454.02  3.72
383.1  12639.55  456.35  3.61
384.6  13109.85  474.76  3.62
386.1  13566.55  482.85  3.56
387.6  14014.00  495.88  3.54
389.0  14472.00  510.99  3.53
390.5  14894.55  516.84  3.47
392.0  15446.80  532.53  3.45
393.4  15975.20  546.52  3.42
394.9  16495.20  556.80  3.38
396.4  17025.75  572.70  3.36
397.9  17527.50  580.83  3.31
399.3  18056.73  601.05  3.33
400.8  18594.05  614.82  3.31
402.2  19198.10  631.75  3.29
403.7  19765.58  645.21  3.26
405.2  20360.50  659.74  3.24
406.6  20880.00  671.25  3.21
408.1  21447.40  684.03  3.19
409.6  22037.80  696.55  3.16
411.0  22652.35  720.21  3.18
412.5  23303.18  738.59  3.17
414.0  23920.25  757.95  3.17
415.4  24625.13  776.45  3.15
416.9  25230.98  796.70  3.16
418.4  25883.55  814.23  3.15
419.8  26553.80  832.35  3.13
421.3  27236.60  855.60  3.14
422.7  27996.60  879.28  3.14
424.2  28755.00  904.50  3.15
425.7  29486.70  930.19  3.15
427.1  30194.10  955.83  3.17
428.6  30922.50  979.60  3.17
430.0  31624.70  1001.55  3.17
431.5  32446.95  1026.84  3.16
432.9  33284.80  1050.89  3.16
434.4  34136.48  1082.97  3.17
435.9  34930.00  1108.80  3.17
437.3  35722.50  1136.67  3.18
438.8  36503.18  1160.21  3.18
440.2  37325.75  1191.19  3.19
441.7  38243.60  1222.08  3.20
443.1  39114.00  1247.27  3.19
444.6  40020.50  1287.29  3.22
446.0  40897.20  1319.99  3.23
447.5  41799.45  1349.37  3.23
448.9  42686.10  1379.44  3.23
450.4  43641.50  1414.14  3.24
451.8  44473.00  1443.87  3.25
453.3  45331.03  1478.35  3.26
454.7  46296.95  1516.00  3.27
456.2  47120.68  1544.68  3.28
457.6  48042.23  1580.61  3.29
459.1  48969.38  1611.44  3.29
460.5  49848.63  1640.67  3.29
462.0  50840.48  1677.10  3.30
463.4  51813.40  1709.76  3.30
464.8  52766.63  1740.85  3.30
466.3  53715.75  1772.76  3.30
467.7  54667.30  1810.98  3.31
469.2  55680.70  1844.76  3.31
470.6  56593.40  1878.95  3.32
472.0  57566.75  1910.45  3.32
473.5  58519.88  1939.83  3.31
474.9  59479.50  1976.00  3.32
476.4  60595.20  2017.92  3.33
477.8  61610.50  2057.07  3.34
479.2  62596.50  2091.87  3.34
480.7  63646.58  2128.79  3.34
482.1  64707.10  2169.43  3.35
483.6  65848.65  2206.03  3.35
485.0  66874.50  2254.24  3.37
486.4  68006.70  2295.02  3.37
487.9  69044.63  2338.05  3.39
489.3  70164.63  2381.52  3.39
490.7  71195.38  2422.75  3.40
492.2  72368.10  2479.40  3.43
493.6  73425.80  2529.57  3.45
495.0  74470.50  2585.70  3.47
496.5  75590.93  2643.46  3.50
497.9  76647.53  2704.11  3.53
499.3  77748.15  2772.60  3.57
500.7  78934.20  2847.96  3.61
502.2  80022.60  2929.73  3.66
503.6  81205.20  3021.23  3.72
505.0  82215.80  3119.47  3.79
506.5  83463.98  3240.65  3.88
507.9  84606.28  3376.15  3.99
509.3  85943.60  3534.24  4.11
510.7  87165.00  3710.85  4.26
512.2  88471.20  3915.97  4.43
513.6  89859.70  4159.59  4.63
515.0  91210.70  4428.72  4.86
516.4  92506.05  4732.56  5.12
517.8  94030.13  5081.23  5.40
519.3  95259.60  5449.84  5.72
520.7  96734.25  5867.28  6.07
522.1  97964.75  6290.61  6.42
523.5  99273.80  6744.28  6.79
524.9  100649.25  7205.64  7.16
526.3  101971.10  7659.07  7.51
527.8  103356.00  8114.04  7.85
529.2  104449.00  8548.63  8.18
530.6  105961.85  8995.61  8.49
532.0  107534.00  9421.07  8.76
533.4  108803.63  9777.62  8.99
534.8  109727.83  10075.69  9.18
536.3  111301.20  10400.84  9.34
537.7  113185.80  10730.16  9.48
539.1  114523.90  10993.90  9.60
540.5  115655.90  11224.17  9.70
541.9  117279.00  11489.26  9.80
543.3  118528.00  11716.99  9.89
544.7  119722.80  11944.16  9.98
546.1  121397.93  12208.57  10.06
547.5  122572.80  12417.07  10.13
549.0  124245.00  12663.20  10.19
550.4  125683.13  12870.42  10.24
551.8  127120.95  13046.79  10.26
553.2  128559.68  13187.33  10.26
554.6  129833.60  13267.63  10.22
556.0  131279.40  13323.90  10.15
557.4  132789.83  13339.90  10.05
558.8  134332.65  13323.90  9.92
560.2  135694.63  13248.18  9.76
561.6  137265.98  13156.35  9.58
563.0  138762.33  13016.93  9.38
564.4  140251.70  12849.90  9.16
565.8  141695.00  12640.92  8.92
567.2  143329.75  12424.13  8.67
568.6  144746.25  12172.75  8.41
570.0  146110.18  11896.90  8.14
571.4  147749.55  11645.23  7.88
572.8  149386.50  11394.97  7.63
574.2  150920.00  11158.19  7.39
575.6  152358.75  10936.50  7.18
577.0  153793.00  10742.53  6.99
578.4  155439.38  10587.85  6.81
579.8  156863.25  10437.66  6.65
581.2  158496.48  10318.73  6.51
582.5  159822.00  10202.40  6.38
583.9  161258.80  10111.81  6.27
585.3  162955.13  10050.39  6.17
586.7  164333.65  9987.16  6.08
588.1  165748.75  9939.27  6.00
589.5  167310.50  9909.43  5.92
590.9  168850.80  9896.85  5.86
592.3  170567.05  9911.15  5.81
593.7  171911.03  9918.61  5.77
595.0  173458.13  9943.65  5.73
596.4  174825.00  9959.41  5.70
597.8  176224.85  9973.61  5.66
599.2  177698.40  9980.96  5.62
600.6  179341.18  9993.75  5.57
602.0  180566.25  9968.51  5.52
603.3  182261.05  9954.73  5.46
604.7  183833.03  9915.29  5.39
606.1  185251.20  9851.36  5.32
607.5  186789.95  9779.06  5.24
608.9  188396.45  9703.87  5.15
610.2  189689.85  9603.09  5.06
611.6  191195.78  9515.62  4.98
613.0  192661.85  9429.11  4.89
614.4  193966.05  9335.28  4.81
615.8  195346.13  9252.75  4.74
617.1  196788.90  9192.40  4.67
618.5  198334.80  9146.40  4.61
619.9  199756.20  9110.22  4.56
621.3  201296.48  9093.24  4.52
622.6  202779.25  9091.03  4.48
624.0  204156.30  9099.02  4.46
625.4  205514.93  9118.67  4.44
626.8  207009.08  9157.94  4.42
628.1  208280.33  9194.17  4.41
629.5  210065.80  9256.20  4.41
630.9  211599.85  9309.01  4.40
632.2  212917.43  9347.57  4.39
633.6  214456.38  9375.37  4.37
635.0  215911.60  9384.32  4.35
636.3  217357.20  9369.68  4.31
637.7  218664.38  9326.90  4.27
639.1  220220.00  9282.00  4.21
640.4  221609.15  9219.28  4.16
641.8  222741.20  9133.53  4.10
643.2  224249.03  9060.57  4.04
644.5  225551.75  8969.27  3.98
645.9  227193.30  8905.20  3.92
647.2  229090.75  8868.60  3.87
648.6  230910.75  8847.90  3.83
650.0  232308.00  8821.44  3.80
651.3  232632.40  8780.02  3.77
652.7  233473.45  8743.63  3.75
654.0  235389.10  8753.91  3.72
655.4  236928.33  8745.60  3.69
656.8  237305.80  8701.67  3.67
658.1  238508.90  8683.51  3.64
659.5  240672.08  8698.90  3.61
660.8  242347.50  8688.00  3.58
662.2  243152.00  8658.35  3.56
663.5  244624.60  8659.17  3.54
664.9  245973.00  8660.25  3.52
666.2  246708.60  8675.76  3.52
667.6  248298.65  8730.56  3.52
668.9  249374.28  8793.76  3.53
670.3  250376.25  8854.53  3.54
671.6  251937.38  8956.20  3.55
673.0  253043.63  9062.40  3.58
674.3  254216.30  9172.97  3.61
675.7  255496.05  9297.99  3.64
677.0  256569.23  9435.51  3.68
678.4  257868.70  9602.90  3.72
679.7  258903.88  9770.29  3.77
681.1  260131.80  9960.24  3.83
682.4  261222.00  10160.11  3.89
683.8  262459.60  10375.21  3.95
685.1  263420.25  10605.25  4.03
686.4  264690.60  10889.84  4.11
687.8  265909.75  11228.83  4.22
689.1  266933.25  11659.00  4.37
690.5  268222.35  12241.84  4.56
691.8  269003.28  13017.52  4.84
693.1  270237.15  14103.40  5.22
694.5  271407.50  15521.57  5.72
695.8  272567.75  17326.40  6.36
697.1  273682.50  19561.97  7.15
698.5  274715.40  22249.03  8.10
699.8  275773.35  25396.00  9.21
701.1  276861.75  28990.74  10.47
702.5  277613.05  32941.04  11.87
703.8  278527.50  37245.00  13.37
705.1  279617.33  41860.00  14.97
706.5  280649.63  46689.17  16.64
707.8  281565.30  51705.98  18.36
709.1  282433.58  56851.36  20.13
710.5  283549.83  62155.78  21.92
711.8  284391.90  67506.56  23.74
713.1  285350.80  72959.65  25.57
714.4  286242.80  78430.59  27.40
715.8  287023.30  83901.52  29.23
717.1  288315.00  89513.24  31.05
718.4  289206.40  94990.93  32.85
719.7  290287.10  100475.24  34.61
721.0  290812.50  105711.00  36.35
722.4  291548.95  110906.91  38.04
723.7  292479.45  116058.60  39.68
725.0  293493.38  121115.16  41.27
726.3  294396.85  125945.31  42.78
727.6  294944.65  130470.74  44.24
729.0  295870.05  134951.83  45.61
730.3  296631.08  139175.38  46.92
731.6  297523.80  143249.11  48.15
732.9  298292.40  147060.76  49.30
734.2  299083.13  150690.83  50.38
735.5  300061.38  154204.81  51.39
736.8  300824.10  157418.56  52.33
738.1  301618.00  160458.23  53.20
739.5  302550.13  163364.98  54.00
740.8  303220.78  165973.13  54.74
742.1  303964.48  168463.39  55.42
743.4  304725.00  170796.67  56.05
744.7  305725.20  173106.66  56.62
746.0  306582.90  175185.40  57.14
747.3  307142.33  176949.51  57.61
748.6  307867.00  178674.10  58.04
749.9  308594.00  180284.00  58.42
751.2  309380.65  181805.26  58.76
752.5  310295.90  183301.04  59.07
753.8  310918.30  184537.99  59.35
755.1  311584.00  185716.27  59.60
756.4  312167.55  186736.01  59.82
757.7  313108.60  187896.45  60.01
759.0  314831.13  189459.89  60.18
760.3  315981.60  190618.56  60.33
761.6  317524.20  191963.33  60.46
762.9  318057.50  192646.37  60.57
764.2  318442.20  193206.56  60.67
765.5  318759.88  193657.55  60.75
766.8  319219.20  194175.36  60.83
768.1  319785.40  194700.75  60.88
769.3  320380.55  195249.55  60.94
770.6  321033.70  195828.88  61.00
771.9  321758.50  196413.56  61.04
773.2  322169.60  196789.28  61.08
774.5  322808.20  197286.61  61.12
775.8  323523.90  197807.14  61.14
777.1  324089.70  198262.75  61.18
778.4  324469.48  198579.52  61.20
779.6  325250.95  199125.79  61.22
780.9  325740.00  199504.00  61.25
782.2  326246.25  199871.83  61.26
783.5  326563.50  200145.07  61.29
784.8  327114.90  200539.23  61.31
786.0  327542.25  200855.20  61.32
787.3  327969.50  201163.02  61.34
788.6  328434.00  201486.20  61.35
789.9  328923.00  201833.89  61.36
791.2  329561.28  202290.75  61.38
792.4  330277.60  202756.68  61.39
793.7  330760.20  203094.27  61.40
795.0  331417.35  203531.79  61.41
796.2  332085.18  203976.44  61.42
797.5  332839.13  204470.06  61.43
798.8  333510.30  204920.26  61.44
800.0  334239.08  205383.35  61.45
801.3  334755.30  205721.87  61.45
802.6  335356.20  206133.06  61.47
803.8  336024.83  206579.00  61.48
805.1  336518.00  206922.45  61.49
806.4  336994.50  207233.52  61.49
807.7  337579.65  207616.23  61.50
808.9  338124.95  208003.39  61.52
810.2  338666.65  208370.49  61.53
811.4  339205.90  208717.83  61.53
812.7  339828.13  209126.67  61.54
814.0  340680.85  209667.48  61.54
815.2  341306.25  210097.13  61.56
816.5  341708.83  210405.49  61.57
817.7  342200.10  210742.01  61.58
819.0  342690.15  211097.48  61.60
820.2  342892.00  211246.93  61.61
821.5  343581.75  211712.44  61.62
822.7  343954.18  211977.55  61.63
824.0  344295.90  212223.24  61.64
825.2  344794.73  212562.09  61.65
826.5  345107.50  212781.62  61.66
827.7  345635.93  213166.97  61.67
829.0  346093.68  213447.98  61.67
830.2  346397.25  213670.15  61.68
831.5  346837.40  214000.08  61.70
832.7  347155.73  214231.29  61.71
834.0  347488.55  214444.95  61.71
835.2  347873.08  214722.20  61.72
836.4  348108.75  214957.82  61.75
837.7  348506.00  215239.04  61.76
838.9  348955.20  215563.55  61.77
840.1  349371.90  215845.65  61.78
841.4  349821.20  216189.65  61.80
842.6  350152.40  216449.44  61.82
843.8  350486.60  216726.24  61.84
845.1  350936.55  217070.65  61.85
846.3  351284.50  217353.65  61.87
847.5  351697.50  217656.60  61.89
848.8  352136.40  217948.00  61.89
850.0  352468.90  218197.42  61.91
851.2  352972.35  218581.02  61.93
852.5  353328.50  218851.48  61.94
853.7  353785.50  219170.40  61.95
854.9  354229.90  219460.81  61.95
856.1  354701.10  219774.53  61.96
857.4  354860.40  219951.95  61.98
858.6  355332.40  220265.81  61.99
859.8  355685.63  220557.00  62.01
861.0  356194.80  220886.64  62.01
862.2  356654.35  221185.40  62.02
863.5  356970.25  221431.69  62.03
864.7  357482.40  221768.80  62.04
865.9  357971.80  222059.47  62.03
867.1  358218.65  222252.27  62.04
868.3  358681.20  222554.00  62.05
869.5  359110.55  222854.81  62.06
870.8  359626.50  223216.80  62.07
872.0  360179.85  223541.42  62.06
873.2  360584.10  223821.60  62.07
874.4  360994.73  224099.46  62.08
875.6  361300.98  224359.21  62.10
876.8  361876.55  224669.39  62.08
878.0  362362.70  224983.85  62.09
879.2  362833.50  225292.88  62.09
880.4  363350.63  225597.95  62.09
881.6  363841.65  225905.46  62.09
882.8  364228.00  226200.85  62.10
884.0  364827.05  226561.00  62.10
885.2  365358.20  226874.05  62.10
886.5  365973.15  227266.45  62.10
887.7  366491.78  227583.20  62.10
888.8  367108.05  227968.44  62.10
890.0  367673.65  228314.52  62.10
891.2  368241.00  228690.47  62.10
892.4  368887.05  229073.60  62.10
893.6  369502.25  229428.62  62.09
894.8  370374.75  229986.20  62.10
896.0  371294.25  230498.20  62.08
897.2  372069.75  231013.03  62.09
898.4  372883.50  231470.80  62.08
899.6  373326.75  231807.45  62.09
900.8  373837.05  232061.51  62.08
902.0  374111.10  232238.36  62.08
903.2  374519.78  232489.49  62.08
904.3  374890.50  232692.68  62.07
905.5  375564.00  233103.04  62.07
906.7  376139.00  233477.07  62.07
907.9  376655.65  233800.56  62.07
909.1  377066.48  234001.53  62.06
910.2  377302.05  234149.91  62.06
911.4  377523.90  234349.44  62.08
912.6  377898.95  234494.26  62.05
913.8  378177.53  234653.26  62.05
915.0  378723.45  234889.34  62.02
916.2  378855.75  234994.50  62.03
917.3  379001.25  235023.60  62.01
918.5  379241.50  235168.76  62.01
919.7  379521.75  235386.80  62.02
920.8  379653.35  235471.99  62.02
922.0  379860.25  235507.07  62.00
923.2  380152.50  235617.20  61.98
924.4  380531.25  235698.75  61.94
925.5  380774.20  235872.36  61.95
926.7  381422.63  236228.60  61.93
927.9  382322.40  236758.40  61.93
929.0  383620.05  237539.34  61.92
930.2  385757.00  238759.07  61.89
931.4  388118.93  240072.93  61.86
932.5  390905.35  241567.09  61.80
933.7  392098.83  242343.95  61.81
934.9  392870.63  242726.17  61.78
936.0  392587.00  242489.22  61.77
937.2  390792.90  241248.16  61.73
938.3  389292.35  240183.41  61.70
939.5  387975.60  239203.68  61.65
940.7  388150.20  239261.88  61.64
941.8  389618.93  240028.18  61.61
943.0  391123.50  240744.70  61.55
944.2  391966.90  241171.06  61.53
945.3  391618.50  240849.70  61.50
946.5  391062.60  240267.06  61.44
947.6  391507.10  240256.57  61.37
948.8  391348.43  240021.86  61.33
949.9  391444.20  239906.80  61.29
951.1  391424.80  239480.32  61.18
952.2  391272.00  239115.20  61.11
953.4  391080.75  238696.73  61.04
954.5  391294.80  238455.36  60.94
955.7  391343.40  238161.84  60.86
956.8  391130.50  237830.59  60.81
958.0  390947.50  237359.40  60.71
959.1  390729.98  237131.64  60.69
960.3  390497.55  236874.25  60.66
961.4  390525.75  236739.13  60.62
962.6  390552.75  236649.23  60.59
963.7  390802.73  236558.72  60.53
964.9  390594.90  236432.08  60.53
966.0  390648.83  236395.26  60.51
967.2  390677.85  236396.64  60.51
968.3  390472.65  236291.58  60.51
969.5  390566.28  236184.96  60.47
970.6  390644.93  236254.04  60.48
971.8  391049.05  236386.06  60.45
972.9  390905.70  236333.51  60.46
974.0  391080.00  236516.49  60.48
975.2  391270.38  236422.37  60.42
976.3  390792.25  236435.29  60.50
977.5  391032.95  236586.28  60.50
978.6  391297.80  236645.81  60.48
979.7  391596.45  236656.77  60.43
980.9  391402.90  236645.44  60.46
982.0  391639.20  236711.34  60.44
983.2  391879.48  236660.46  60.39
984.3  391536.00  236734.27  60.46
985.4  391695.28  236907.18  60.48
986.6  391811.75  236970.37  60.48
987.7  392639.45  237583.83  60.51
988.9  392268.60  237705.12  60.60
990.0  393685.70  238200.47  60.51
993.1  337902.02  203811.42  60.32
996.9  338721.95  204909.29  60.49
1000.7  339947.48  206144.70  60.64
1004.5  340547.83  206992.89  60.78
1008.4  340482.96  207417.67  60.92
1012.2  340608.46  207951.87  61.05
1016.0  340807.80  208526.93  61.19
1019.8  341146.58  209114.03  61.30
1023.7  341323.23  209581.34  61.40
1027.5  341214.62  209869.65  61.51
1031.3  341568.08  210366.48  61.59
1035.1  341564.77  210611.41  61.66
1038.9  341555.87  210814.27  61.72
1042.7  341412.33  210902.83  61.77
1046.5  341320.50  210999.03  61.82
1050.3  341361.28  211154.85  61.86
1054.2  341072.67  211119.61  61.90
1058.0  340629.80  210931.67  61.92
1061.8  340525.38  210928.06  61.94
1065.6  340247.63  210813.98  61.96
1069.4  340371.67  210920.50  61.97
1073.2  340121.77  210765.30  61.97
1077.0  339732.88  210495.27  61.96
1080.8  339269.79  210122.45  61.93
1084.6  338215.15  209367.92  61.90
1088.4  337536.70  208849.75  61.87
1092.2  336726.00  208234.00  61.84
1096.0  336241.22  207776.03  61.79
1099.8  335831.60  207374.94  61.75
1103.6  335247.43  206850.17  61.70
1107.4  334432.40  206133.38  61.64
1111.2  334172.80  205761.75  61.57
1114.9  333496.33  205107.13  61.50
1118.7  332825.63  204405.30  61.42
1122.5  332098.87  203571.72  61.30
1126.3  331016.53  202378.22  61.14
1130.1  330555.63  201292.17  60.90
1133.9  329137.20  199314.89  60.56
1137.7  327906.30  197124.71  60.12
1141.4  326349.51  194473.02  59.59
1145.2  325708.22  192230.83  59.02
1149.0  324721.25  189876.62  58.47
1152.8  323274.40  187534.72  58.01
1156.6  321786.85  185578.84  57.67
1160.3  320251.00  183954.59  57.44
1164.1  318014.03  182256.21  57.31
1167.9  316393.75  181087.73  57.23
1171.7  315252.00  180306.00  57.19
1175.4  314241.00  179665.97  57.17
1179.2  313356.23  179076.31  57.15
1183.0  313133.67  178835.85  57.11
1186.7  312611.83  178431.09  57.08
1190.5  311563.93  177715.97  57.04
1194.3  310443.27  177018.84  57.02
1198.0  309347.23  176416.96  57.03
1201.8  308051.90  175735.04  57.05
1205.6  306949.33  175272.00  57.10
1209.3  306053.68  175022.71  57.19
1213.1  305075.63  174772.75  57.29
1216.8  304106.28  174566.70  57.40
1220.6  303072.00  174350.81  57.53
1224.3  301912.75  174060.02  57.65
1228.1  300835.80  173832.62  57.78
1231.9  299719.85  173520.68  57.89
1235.6  298413.90  173064.50  57.99
1239.4  297217.75  172637.19  58.08
1243.1  296124.23  172203.22  58.15
1246.9  295032.45  171741.46  58.21
1250.6  294142.53  171354.99  58.26
1254.3  293203.99  170909.36  58.29
1258.1  292348.58  170466.70  58.31
1261.8  291221.73  169853.63  58.32
1265.6  289917.20  169068.73  58.32
1269.3  288537.40  168200.65  58.29
1273.1  288453.53  168028.35  58.25
1276.8  288722.00  168034.40  58.20
1280.6  288675.27  167831.07  58.14
1284.3  287492.00  166897.33  58.05
1288.0  286178.17  165805.76  57.94
1291.8  284943.80  164668.84  57.79
1295.5  283624.00  163437.84  57.62
1299.2  282388.83  162197.83  57.44
1302.9  281059.26  160793.58  57.21
1306.7  279641.37  159242.38  56.95
1310.4  278289.91  157593.01  56.63
1314.1  277034.63  155893.06  56.27
1317.9  275940.00  154121.25  55.85
1321.6  274665.33  152136.10  55.39
1325.3  273166.95  149888.43  54.87
1329.0  271936.35  147691.34  54.31
1332.8  270008.20  144992.71  53.70
1336.5  268296.40  142373.54  53.07
1340.2  267873.67  140433.22  52.43
1343.9  267271.25  138412.73  51.79
1347.6  266265.30  136220.93  51.16
1351.4  265887.00  134374.67  50.54
1355.1  265494.90  132559.13  49.93
