/*** Spectra Vista SIG Data ***/
name= 44_20221021_ACRU_13_avg.sig
comm= Averaged Ref/Tar of files: HR.102122.0049_moc.sig,HR.102122.0050_moc.sig,HR.102122.0051_moc.sig
data=
337.3  6217.05  479.41  7.71
338.8  6445.40  459.93  7.14
340.3  6900.33  439.32  6.37
341.8  6985.83  437.21  6.26
343.2  7461.30  448.35  6.01
344.7  7814.63  467.81  5.99
346.2  8142.75  485.67  5.96
347.7  8627.35  459.82  5.33
349.2  8920.80  433.44  4.86
350.6  9423.45  428.56  4.55
352.1  9905.00  431.24  4.35
353.6  10457.60  444.25  4.25
355.1  10910.10  453.64  4.16
356.6  11518.28  467.30  4.06
358.0  12095.08  469.21  3.88
359.5  12560.85  481.99  3.84
361.0  13283.20  495.86  3.73
362.5  13899.68  524.02  3.77
364.0  14596.35  529.11  3.62
365.4  15159.05  535.34  3.53
366.9  15819.10  543.81  3.44
368.4  16516.05  573.19  3.47
369.9  17278.00  594.61  3.44
371.3  18121.13  644.31  3.56
372.8  18805.90  667.93  3.55
374.3  19672.40  683.30  3.47
375.8  20548.93  686.22  3.34
377.2  21270.60  703.00  3.31
378.7  22070.83  715.38  3.24
380.2  22882.65  723.09  3.16
381.7  23790.25  735.49  3.09
383.1  24728.03  747.19  3.02
384.6  25604.03  769.10  3.00
386.1  26573.40  783.34  2.95
387.6  27391.58  800.14  2.92
389.0  28361.93  816.83  2.88
390.5  29342.10  841.32  2.87
392.0  30377.25  855.60  2.82
393.4  31492.88  893.44  2.84
394.9  32423.30  903.60  2.79
396.4  33547.80  939.71  2.80
397.9  34619.10  953.33  2.75
399.3  35514.00  961.13  2.71
400.8  36700.95  994.82  2.71
402.2  37849.35  1023.53  2.70
403.7  39062.40  1044.53  2.67
405.2  40199.20  1073.91  2.67
406.6  41404.20  1098.42  2.65
408.1  42440.10  1107.75  2.61
409.6  43630.50  1132.52  2.60
411.0  44805.48  1163.49  2.60
412.5  46186.45  1191.01  2.58
414.0  47511.10  1228.07  2.58
415.4  48800.70  1256.09  2.57
416.9  50095.88  1288.00  2.57
418.4  51399.88  1311.16  2.55
419.8  52671.50  1351.38  2.57
421.3  54123.30  1393.92  2.58
422.7  55567.20  1431.83  2.58
424.2  57028.50  1478.93  2.59
425.7  58443.00  1520.41  2.60
427.1  59926.40  1563.65  2.61
428.6  61401.13  1620.78  2.64
430.0  62881.23  1678.07  2.67
431.5  64502.75  1732.19  2.69
432.9  66142.13  1794.38  2.71
434.4  67787.63  1861.54  2.75
435.9  69457.30  1920.23  2.76
437.3  71088.75  1979.89  2.79
438.8  72702.93  2046.95  2.82
440.2  74391.98  2110.83  2.84
441.7  76193.58  2172.76  2.85
443.1  77976.00  2240.59  2.87
444.6  79748.43  2308.68  2.89
446.0  81543.90  2378.07  2.92
447.5  83450.00  2461.90  2.95
448.9  85193.65  2521.46  2.96
450.4  87050.00  2593.81  2.98
451.8  88816.88  2657.03  2.99
453.3  90610.88  2730.18  3.01
454.7  92369.03  2800.62  3.03
456.2  94151.75  2862.09  3.04
457.6  96059.25  2933.87  3.05
459.1  97883.63  2999.78  3.06
460.5  99684.50  3063.09  3.07
462.0  101685.60  3126.53  3.07
463.4  103612.43  3199.19  3.09
464.8  105573.83  3268.08  3.10
466.3  107487.75  3334.09  3.10
467.7  109480.00  3406.48  3.11
469.2  111342.15  3470.55  3.12
470.6  113355.38  3540.20  3.12
472.0  115385.05  3601.08  3.12
473.5  117337.05  3672.51  3.13
474.9  119511.90  3738.40  3.13
476.4  121569.40  3815.22  3.14
477.8  123620.00  3885.87  3.14
479.2  125664.10  3961.93  3.15
480.7  127789.80  4023.60  3.15
482.1  129935.03  4095.13  3.15
483.6  132106.50  4173.84  3.16
485.0  134335.95  4261.26  3.17
486.4  136416.43  4349.22  3.19
487.9  138594.50  4449.51  3.21
489.3  140703.75  4545.83  3.23
490.7  142904.35  4644.12  3.25
492.2  145138.13  4758.35  3.28
493.6  147358.10  4892.40  3.32
495.0  149631.30  5036.18  3.37
496.5  151785.90  5193.72  3.42
497.9  154076.25  5368.55  3.48
499.3  156317.88  5554.47  3.55
500.7  158593.20  5775.36  3.64
502.2  160938.95  6010.58  3.73
503.6  163221.60  6282.42  3.85
505.0  165474.65  6579.49  3.98
506.5  167902.55  6930.31  4.13
507.9  170358.18  7330.97  4.30
509.3  172650.15  7754.98  4.49
510.7  175248.45  8237.99  4.70
512.2  177837.08  8771.36  4.93
513.6  180683.83  9354.68  5.18
515.0  183395.63  9994.62  5.45
516.4  186237.80  10680.78  5.74
517.8  189006.00  11412.30  6.04
519.3  191896.00  12175.24  6.34
520.7  194550.90  12950.70  6.66
522.1  197187.25  13738.24  6.97
523.5  199765.78  14528.93  7.27
524.9  202637.55  15340.07  7.57
526.3  205237.80  16107.90  7.85
527.8  208017.88  16887.11  8.12
529.2  210585.60  17632.73  8.37
530.6  213267.60  18366.17  8.61
532.0  216123.70  19089.05  8.83
533.4  218614.00  19760.93  9.04
534.8  221095.88  20391.80  9.22
536.3  224000.98  21037.17  9.39
537.7  226955.75  21651.32  9.54
539.1  229847.80  22248.63  9.68
540.5  232686.00  22844.79  9.82
541.9  235638.60  23454.59  9.95
543.3  238164.00  24020.29  10.09
544.7  241142.00  24655.92  10.22
546.1  243951.40  25262.52  10.36
547.5  246823.20  25879.27  10.48
549.0  249757.20  26498.38  10.61
550.4  252641.03  27101.10  10.73
551.8  255627.20  27697.58  10.84
553.2  258482.10  28253.07  10.93
554.6  261311.65  28775.00  11.01
556.0  264217.80  29271.02  11.08
557.4  267316.70  29760.54  11.13
558.8  270183.00  30218.82  11.18
560.2  273320.00  30691.43  11.23
561.6  276252.08  31100.19  11.26
563.0  279017.05  31470.85  11.28
564.4  282210.60  31874.87  11.29
565.8  285216.15  32247.90  11.31
567.2  288395.58  32622.00  11.31
568.6  291380.63  32939.14  11.30
570.0  294207.88  33181.14  11.28
571.4  297594.70  33432.14  11.23
572.8  300734.20  33642.02  11.19
574.2  303610.13  33824.18  11.14
575.6  306642.50  34042.28  11.10
577.0  309624.70  34278.33  11.07
578.4  313009.38  34581.67  11.05
579.8  316069.85  34882.70  11.04
581.2  319109.50  35202.47  11.03
582.5  322020.00  35529.86  11.03
583.9  325041.30  35901.46  11.05
585.3  327905.10  36272.73  11.06
586.7  330861.30  36685.44  11.09
588.1  333819.10  37111.35  11.12
589.5  337141.80  37605.99  11.15
590.9  340101.88  38084.15  11.20
592.3  343020.60  38597.50  11.25
593.7  345974.48  39138.69  11.31
595.0  348877.20  39688.94  11.38
596.4  352155.38  40280.44  11.44
597.8  354813.60  40779.13  11.49
599.2  357916.65  41272.21  11.53
600.6  361093.43  41708.20  11.55
602.0  364063.80  42043.68  11.55
603.3  366938.00  42269.56  11.52
604.7  369903.63  42405.58  11.46
606.1  372900.38  42438.16  11.38
607.5  376181.10  42397.05  11.27
608.9  379267.35  42237.58  11.14
610.2  382429.58  42027.10  10.99
611.6  385357.50  41743.95  10.83
613.0  388150.00  41412.17  10.67
614.4  390894.15  41072.09  10.51
615.8  394102.50  40793.71  10.35
617.1  396787.05  40498.84  10.21
618.5  400053.45  40318.02  10.08
619.9  402761.70  40158.02  9.97
621.3  405702.05  40088.40  9.88
622.6  408593.25  40105.37  9.82
624.0  411254.25  40184.48  9.77
625.4  414313.20  40369.82  9.74
626.8  417221.35  40621.61  9.74
628.1  420026.60  40915.67  9.74
629.5  422766.23  41242.66  9.76
630.9  425569.55  41570.87  9.77
632.2  428589.28  41889.59  9.77
633.6  431025.08  42067.27  9.76
635.0  433885.05  42140.79  9.71
636.3  436914.75  42041.26  9.62
637.7  439590.08  41718.46  9.49
639.1  442490.95  41196.84  9.31
640.4  445219.13  40473.85  9.09
641.8  447985.80  39580.15  8.84
643.2  450566.55  38557.14  8.56
644.5  453425.00  37466.67  8.26
645.9  456050.35  36314.89  7.96
647.2  458394.48  35197.69  7.68
648.6  461021.60  34203.12  7.42
650.0  463762.80  33313.20  7.18
651.3  466607.85  32535.03  6.97
652.7  470466.00  31857.47  6.77
654.0  473316.90  31115.96  6.57
655.4  475533.98  30319.90  6.38
656.8  477233.40  29421.84  6.17
658.1  479804.33  28469.00  5.93
659.5  482932.80  27427.47  5.68
660.8  485733.15  26344.96  5.42
662.2  488486.50  25240.72  5.17
663.5  491323.93  24202.45  4.93
664.9  493255.55  23252.95  4.71
666.2  495487.85  22459.33  4.53
667.6  497994.75  21859.50  4.39
668.9  500601.60  21432.96  4.28
670.3  503566.88  21155.75  4.20
671.6  505704.80  20997.29  4.15
673.0  507994.40  20982.75  4.13
674.3  510402.20  21091.11  4.13
675.7  512887.50  21311.14  4.16
677.0  515187.23  21620.81  4.20
678.4  517372.00  22042.06  4.26
679.7  519705.30  22608.47  4.35
681.1  522248.18  23376.30  4.48
682.4  524433.00  24394.28  4.65
683.8  526721.25  25796.29  4.90
685.1  528969.45  27726.72  5.24
686.4  531208.28  30378.28  5.72
687.8  533608.20  33970.11  6.37
689.1  536055.80  38706.53  7.22
690.5  538110.30  44720.71  8.31
691.8  540723.70  52223.66  9.66
693.1  543184.50  61139.46  11.26
694.5  545550.80  71225.17  13.06
695.8  547954.30  82151.84  14.99
697.1  550226.70  93604.57  17.01
698.5  552467.00  105373.90  19.07
699.8  554897.20  117226.70  21.13
701.1  556844.93  128797.74  23.13
702.5  558886.88  140011.20  25.05
703.8  561275.38  150790.81  26.87
705.1  563107.50  160791.69  28.55
706.5  565359.38  170277.53  30.12
707.8  567241.60  179033.99  31.56
709.1  569478.90  187299.71  32.89
710.5  571630.15  194998.31  34.11
711.8  573577.00  202095.90  35.23
713.1  575512.00  208763.77  36.27
714.4  577567.60  215065.99  37.24
715.8  579832.58  221073.21  38.13
717.1  582093.50  226713.39  38.95
718.4  584299.05  232010.05  39.71
719.7  586498.05  236983.05  40.41
721.0  588196.85  241507.37  41.06
722.4  590060.70  245823.50  41.66
723.7  591975.00  249934.14  42.22
725.0  593662.50  253701.41  42.73
726.3  595948.60  257478.05  43.20
727.6  597640.50  260821.30  43.64
729.0  599497.15  264008.45  44.04
730.3  601459.53  267090.98  44.41
731.6  602917.20  269781.44  44.75
732.9  604848.08  272496.46  45.05
734.2  606436.88  274902.49  45.33
735.5  608240.60  277246.80  45.58
736.8  610245.48  279566.37  45.81
738.1  612020.78  281669.76  46.02
739.5  613730.40  283640.60  46.22
740.8  615572.93  285550.59  46.39
742.1  617169.93  287243.21  46.54
743.4  618925.30  288945.79  46.69
744.7  620781.00  290658.67  46.82
746.0  622284.20  292104.53  46.94
747.3  623884.10  293501.69  47.04
748.6  625470.80  294821.82  47.14
749.9  627255.15  296164.00  47.22
751.2  628521.75  297236.68  47.29
752.5  630000.03  298380.46  47.36
753.8  631302.75  299383.49  47.42
755.1  632845.10  300463.02  47.48
756.4  633944.25  301272.04  47.52
757.7  635937.50  302484.34  47.57
759.0  639431.63  304400.60  47.60
760.3  642106.80  305861.37  47.63
761.6  644908.50  307362.37  47.66
762.9  646280.25  308195.38  47.69
764.2  646995.60  308693.71  47.71
765.5  647845.80  309227.49  47.73
766.8  648430.00  309583.06  47.74
768.1  649454.40  310186.08  47.76
769.3  650707.95  310868.83  47.77
770.6  652083.80  311597.64  47.78
771.9  653244.58  312213.36  47.79
773.2  654617.93  312923.24  47.80
774.5  655454.25  313413.78  47.82
775.8  656561.30  313978.79  47.82
777.1  657726.35  314600.95  47.83
778.4  658941.88  315247.17  47.84
779.6  660220.80  315892.97  47.85
780.9  660891.15  316257.06  47.85
782.2  661839.38  316763.50  47.86
783.5  662747.00  317242.91  47.87
784.8  663521.25  317649.55  47.87
786.0  664379.18  318076.25  47.88
787.3  665164.88  318503.80  47.88
788.6  665977.88  318946.54  47.89
789.9  666651.50  319341.29  47.90
791.2  667998.70  319999.17  47.90
792.4  669062.63  320575.70  47.91
793.7  670648.38  321332.10  47.91
795.0  671661.05  321840.47  47.92
796.2  672977.30  322497.79  47.92
797.5  674096.88  323114.93  47.93
798.8  675489.50  323798.62  47.94
800.0  676620.00  324356.00  47.94
801.3  677848.50  324924.75  47.93
802.6  678888.00  325455.09  47.94
803.8  679908.08  325991.14  47.95
805.1  680905.88  326475.44  47.95
806.4  681805.40  326966.72  47.96
807.7  682971.28  327498.86  47.95
808.9  684210.03  328070.69  47.95
810.2  685003.20  328506.72  47.96
811.4  686032.80  329023.77  47.96
812.7  687268.95  329661.87  47.97
814.0  688599.45  330283.80  47.96
815.2  689876.40  330949.07  47.97
816.5  691101.25  331510.42  47.97
817.7  691945.25  331911.30  47.97
819.0  692594.00  332241.79  47.97
820.2  693352.05  332624.01  47.97
821.5  694410.20  333161.70  47.98
822.7  695408.53  333642.71  47.98
824.0  696327.45  334086.76  47.98
825.2  697089.90  334431.72  47.98
826.5  697875.00  334769.09  47.97
827.7  698823.33  335297.28  47.98
829.0  699676.95  335689.99  47.98
830.2  700598.20  336154.30  47.98
831.5  701500.05  336566.88  47.98
832.7  702450.00  337011.62  47.98
834.0  703180.58  337297.98  47.97
835.2  704140.00  337780.10  47.97
836.4  704840.00  338116.81  47.97
837.7  705695.63  338510.79  47.97
838.9  706876.90  339074.92  47.97
840.1  707741.10  339487.47  47.97
841.4  708725.30  339931.03  47.96
842.6  709587.90  340389.64  47.97
843.8  710398.00  340759.64  47.97
845.1  711217.65  341167.58  47.97
846.3  712018.65  341596.74  47.98
847.5  713082.50  342025.36  47.96
848.8  713992.50  342460.68  47.96
850.0  715192.60  342996.74  47.96
851.2  715999.20  343420.80  47.96
852.5  717098.20  343944.70  47.96
853.7  717725.48  344269.04  47.97
854.9  718966.95  344781.62  47.96
856.1  719984.00  345259.55  47.95
857.4  721056.45  345693.58  47.94
858.6  722048.60  346142.56  47.94
859.8  723021.80  346673.35  47.95
861.0  723929.50  347091.81  47.95
862.2  724886.40  347539.72  47.94
863.5  725916.40  347974.46  47.94
864.7  726943.75  348356.90  47.92
865.9  727892.63  348808.62  47.92
867.1  728500.00  349165.24  47.93
868.3  729610.68  349668.42  47.93
869.5  730856.30  350148.96  47.91
870.8  732014.55  350640.80  47.90
872.0  732961.05  351084.42  47.90
873.2  733879.73  351473.18  47.89
874.4  734689.15  351867.74  47.89
875.6  735746.25  352356.53  47.89
876.8  737030.25  352939.21  47.89
878.0  738137.75  353383.21  47.87
879.2  739209.30  353863.66  47.87
880.4  740360.00  354313.56  47.86
881.6  741446.40  354716.73  47.84
882.8  742438.30  355281.42  47.85
884.0  743231.78  355599.85  47.85
885.2  744570.25  356167.00  47.84
886.5  746029.38  356765.58  47.82
887.7  747011.88  357164.97  47.81
888.8  748481.25  357746.82  47.80
890.0  749332.50  358134.00  47.79
891.2  750300.53  358467.16  47.78
892.4  751732.58  359083.45  47.77
893.6  753287.53  359895.21  47.78
894.8  754757.48  360578.88  47.77
896.0  756335.18  361250.15  47.76
897.2  757995.98  362023.48  47.76
898.4  760004.70  362869.24  47.75
899.6  761392.00  363336.10  47.72
900.8  761908.55  363469.44  47.71
902.0  762292.90  363747.37  47.72
903.2  762400.80  363780.68  47.72
904.3  763425.00  364221.00  47.71
905.5  764700.75  364694.79  47.69
906.7  765997.85  365153.00  47.67
907.9  767072.55  365530.59  47.65
909.1  768186.65  365962.89  47.64
910.2  768521.25  366079.50  47.63
911.4  768469.28  366115.42  47.64
912.6  768967.50  366258.14  47.63
913.8  769890.45  366623.87  47.62
915.0  770396.60  366665.50  47.59
916.2  770561.85  366649.92  47.58
917.3  771308.38  366825.24  47.56
918.5  771531.60  366960.27  47.56
919.7  771434.00  366914.11  47.56
920.8  771544.83  366936.56  47.56
922.0  771598.85  366797.27  47.54
923.2  772226.03  366801.84  47.50
924.4  772890.25  367078.74  47.49
925.5  773614.20  367254.62  47.47
926.7  774316.00  367637.43  47.48
927.9  775877.30  368187.94  47.45
929.0  778717.80  369573.53  47.46
930.2  782921.60  371367.41  47.43
931.4  787897.75  373653.61  47.42
932.5  792702.35  375653.26  47.39
933.7  795675.45  376775.64  47.35
934.9  797072.50  377221.17  47.33
936.0  795738.60  376590.83  47.33
937.2  792888.20  374932.95  47.29
938.3  788336.25  372796.73  47.29
939.5  786158.10  371607.82  47.27
940.7  786320.15  371359.96  47.23
941.8  789805.90  372514.57  47.17
943.0  791291.10  373187.68  47.16
944.2  793122.00  373870.74  47.14
945.3  792196.20  373331.28  47.13
946.5  790501.25  372208.00  47.09
947.6  791527.00  372397.52  47.05
948.8  790600.40  371533.28  46.99
949.9  790861.93  371478.99  46.97
951.1  790647.33  370951.94  46.92
952.2  790046.20  370327.33  46.87
953.4  789778.80  369753.58  46.82
954.5  788195.63  368673.90  46.77
955.7  787915.05  368066.23  46.71
956.8  788085.00  367697.94  46.66
958.0  787293.45  366890.74  46.60
959.1  786996.00  366232.32  46.54
960.3  786712.50  365771.43  46.49
961.4  786851.80  365821.09  46.49
962.6  786312.00  365337.60  46.46
963.7  786766.40  365162.03  46.41
964.9  786946.63  364952.37  46.38
966.0  787917.90  364877.32  46.31
967.2  787831.80  364886.24  46.32
968.3  788317.25  365417.16  46.35
969.5  789169.33  365489.56  46.31
970.6  789051.80  365537.14  46.33
971.8  789349.23  365329.35  46.28
972.9  790608.00  365511.40  46.23
974.0  791183.90  365880.03  46.24
975.2  790121.25  365441.79  46.25
976.3  790124.13  365818.63  46.30
977.5  789272.70  365563.27  46.32
978.6  790017.30  365795.19  46.30
979.7  789958.40  365608.32  46.28
980.9  791090.53  365796.98  46.24
982.0  790519.50  365525.81  46.24
983.2  790552.00  365912.64  46.29
984.3  788827.55  365158.72  46.29
985.4  788389.00  364754.59  46.27
986.6  788145.75  365227.81  46.34
987.7  788151.88  364990.96  46.31
988.9  788893.45  365743.89  46.36
990.0  790133.10  365233.99  46.22
993.1  867573.00  397282.89  45.79
996.9  867195.20  398100.46  45.91
1000.7  866532.15  398698.37  46.01
1004.5  865474.20  398944.60  46.10
1008.4  866543.63  400261.74  46.19
1012.2  867888.42  401616.42  46.28
1016.0  867813.23  402333.28  46.36
1019.8  866515.93  402398.58  46.44
1023.7  865017.58  402280.14  46.51
1027.5  862362.13  401606.97  46.57
1031.3  860517.94  401076.79  46.61
1035.1  859201.28  400757.27  46.64
1038.9  858619.15  400672.00  46.66
1042.7  858197.00  400676.74  46.69
1046.5  857483.38  400454.25  46.70
1050.3  855934.45  399807.35  46.71
1054.2  853893.98  399002.69  46.73
1058.0  853084.80  398586.34  46.72
1061.8  851877.00  398095.42  46.73
1065.6  849907.54  397040.48  46.72
1069.4  847498.70  395929.29  46.72
1073.2  845338.00  394895.89  46.71
1077.0  844008.00  394111.35  46.70
1080.8  843711.00  393704.67  46.66
1084.6  843643.17  393326.74  46.62
1088.4  843136.68  392861.27  46.60
1092.2  841941.57  392004.37  46.56
1096.0  840477.03  390987.12  46.52
1099.8  838895.63  389830.38  46.47
1103.6  836969.27  388548.01  46.42
1107.4  835367.83  387353.11  46.37
1111.2  833978.37  386214.81  46.31
1114.9  833140.50  385218.43  46.24
1118.7  832871.25  384345.06  46.15
1122.5  832956.37  383488.53  46.04
1126.3  830598.30  381372.75  45.92
1130.1  830027.83  379698.71  45.75
1133.9  826554.43  376225.75  45.52
1137.7  823823.40  372686.14  45.24
1141.4  819984.75  368201.65  44.90
1145.2  819129.17  364661.78  44.52
1149.0  817037.85  360805.56  44.16
1152.8  813506.95  356614.79  43.84
1156.6  809816.96  352929.51  43.58
1160.3  806482.50  349944.98  43.39
1164.1  801821.47  346843.55  43.26
1167.9  798684.71  344806.38  43.17
1171.7  796161.37  343232.24  43.11
1175.4  793672.86  341817.25  43.07
1179.2  791614.50  340526.14  43.02
1183.0  792016.38  340197.54  42.95
1186.7  792281.00  339871.00  42.90
1190.5  791091.58  338910.64  42.84
1194.3  788316.78  337311.25  42.79
1198.0  785106.00  335665.45  42.75
1201.8  782576.67  334502.67  42.74
1205.6  780987.42  334002.76  42.77
1209.3  779880.00  333968.68  42.82
1213.1  778672.00  333893.21  42.88
1216.8  776732.40  333712.73  42.96
1220.6  774389.17  333366.36  43.05
1224.3  771925.00  332959.52  43.13
1228.1  769638.31  332638.51  43.22
1231.9  767089.70  332081.19  43.29
1235.6  764499.73  331417.47  43.35
1239.4  762099.52  330843.52  43.41
1243.1  759919.50  330163.59  43.45
1246.9  757904.03  329501.90  43.48
1250.6  755847.10  328756.72  43.50
1254.3  753820.80  327997.03  43.51
1258.1  751682.67  327116.86  43.52
1261.8  749164.97  326012.73  43.52
1265.6  746944.63  324978.96  43.51
1269.3  744903.00  323906.60  43.48
1273.1  745566.17  323888.55  43.44
1276.8  745465.87  323533.40  43.40
1280.6  744529.33  322829.38  43.36
1284.3  741750.33  321220.04  43.31
1288.0  739946.89  319890.91  43.23
1291.8  738687.60  318567.60  43.13
1295.5  737157.41  317062.08  43.01
1299.2  734738.55  315089.08  42.88
1302.9  731763.63  312718.79  42.73
1306.7  728557.20  310091.18  42.56
1310.4  725447.70  307232.46  42.35
1314.1  722866.88  304451.25  42.12
1317.9  720282.44  301391.03  41.84
1321.6  717395.47  297994.88  41.54
1325.3  714569.85  294346.48  41.19
1329.0  711983.07  290644.20  40.82
1332.8  708288.75  286230.00  40.41
