/*** Spectra Vista SIG Data ***/
name= 8_20220824_QUPH_6_avg.sig
comm= Averaged Ref/Tar of files: HR.082422.0022_moc.sig,HR.082422.0023_moc.sig
data=
337.3  3424.13  337.45  9.86
338.8  3559.40  346.32  9.73
340.3  3748.00  318.58  8.50
341.8  3886.63  310.93  8.00
343.2  4084.80  310.80  7.61
344.7  4265.00  315.61  7.40
346.2  4452.65  310.46  6.97
347.7  4679.68  306.74  6.55
349.2  4876.20  302.40  6.20
350.6  5104.78  301.15  5.90
352.1  5394.48  292.95  5.43
353.6  5690.80  291.48  5.12
355.1  6027.83  303.08  5.03
356.6  6292.80  308.09  4.90
358.0  6571.40  319.00  4.85
359.5  6859.80  333.72  4.86
361.0  7211.93  323.19  4.48
362.5  7611.50  327.88  4.31
364.0  7971.65  326.90  4.10
365.4  8345.70  348.44  4.18
366.9  8729.50  364.65  4.18
368.4  9082.58  376.40  4.14
369.9  9458.75  394.57  4.17
371.3  9905.70  395.16  3.99
372.8  10354.50  419.49  4.05
374.3  10776.88  403.13  3.74
375.8  11238.15  425.81  3.79
377.2  11674.60  430.40  3.69
378.7  12105.00  441.16  3.64
380.2  12535.40  451.92  3.61
381.7  13080.10  470.24  3.60
383.1  13582.80  474.32  3.49
384.6  14134.90  480.16  3.40
386.1  14620.53  491.86  3.36
387.6  15118.95  495.88  3.28
389.0  15651.20  514.56  3.29
390.5  16195.50  525.69  3.25
392.0  16795.75  544.87  3.24
393.4  17394.05  562.29  3.23
394.9  17956.80  558.54  3.11
396.4  18526.50  579.60  3.13
397.9  19090.63  589.38  3.09
399.3  19702.85  607.80  3.08
400.8  20288.95  628.11  3.10
402.2  20965.70  643.21  3.07
403.7  21595.28  659.66  3.05
405.2  22207.15  672.37  3.03
406.6  22805.60  686.72  3.01
408.1  23413.60  700.60  2.99
409.6  24079.15  719.96  2.99
411.0  24787.35  742.98  3.00
412.5  25489.80  766.36  3.01
414.0  26161.50  790.55  3.02
415.4  26871.00  814.88  3.03
416.9  27563.25  836.54  3.03
418.4  28292.63  859.05  3.04
419.8  29047.20  877.24  3.02
421.3  29785.58  901.95  3.03
422.7  30624.00  939.60  3.07
424.2  31438.13  968.63  3.08
425.7  32225.10  997.56  3.10
427.1  33010.95  1025.46  3.11
428.6  33836.50  1041.60  3.08
430.0  34614.18  1068.32  3.09
431.5  35521.50  1101.47  3.10
432.9  36419.90  1136.84  3.12
434.4  37373.93  1171.79  3.14
435.9  38248.00  1201.20  3.14
437.3  39132.50  1229.25  3.14
438.8  39991.95  1259.76  3.15
440.2  40896.63  1296.30  3.17
441.7  41901.80  1329.28  3.17
443.1  42837.25  1362.10  3.18
444.6  43858.80  1401.70  3.20
446.0  44828.63  1435.04  3.20
447.5  45832.05  1476.04  3.22
448.9  46801.20  1514.46  3.24
450.4  47850.25  1556.59  3.25
451.8  48737.00  1599.00  3.28
453.3  49711.15  1634.38  3.29
454.7  50776.45  1673.23  3.30
456.2  51670.08  1708.67  3.31
457.6  52688.48  1746.99  3.32
459.1  53699.75  1785.55  3.33
460.5  54677.00  1821.68  3.33
462.0  55777.10  1863.75  3.34
463.4  56855.00  1904.30  3.35
464.8  57872.63  1936.95  3.35
466.3  58905.00  1977.53  3.36
467.7  59931.35  2015.54  3.36
469.2  61043.28  2054.95  3.37
470.6  62058.85  2099.07  3.38
472.0  63126.38  2136.59  3.38
473.5  64184.00  2175.25  3.39
474.9  65250.75  2217.30  3.40
476.4  66456.00  2263.68  3.41
477.8  67555.50  2308.40  3.42
479.2  68614.00  2346.10  3.42
480.7  69769.50  2394.17  3.43
482.1  70935.05  2444.94  3.45
483.6  72177.75  2491.18  3.45
485.0  73315.88  2538.92  3.46
486.4  74539.65  2595.72  3.48
487.9  75684.38  2647.13  3.50
489.3  76893.95  2706.46  3.52
490.7  77998.33  2765.36  3.55
492.2  79277.10  2834.16  3.58
493.6  80428.50  2894.84  3.60
495.0  81578.25  2965.95  3.64
496.5  82811.03  3049.47  3.68
497.9  83955.68  3131.65  3.73
499.3  85173.70  3228.50  3.79
500.7  86464.30  3337.27  3.86
502.2  87643.80  3451.44  3.94
503.6  88928.60  3582.84  4.03
505.0  90053.55  3729.89  4.14
506.5  91412.93  3900.60  4.27
507.9  92656.25  4085.77  4.41
509.3  94083.60  4306.80  4.58
510.7  95369.63  4545.45  4.77
512.2  96823.28  4825.97  4.98
513.6  98340.55  5140.17  5.23
515.0  99816.83  5490.85  5.50
516.4  101237.85  5874.12  5.80
517.8  102914.75  6311.05  6.13
519.3  104267.60  6770.08  6.49
520.7  105880.80  7272.28  6.87
522.1  107216.20  7784.08  7.26
523.5  108628.50  8323.32  7.66
524.9  110135.25  8863.83  8.05
526.3  111614.30  9404.99  8.43
527.8  113142.15  9946.53  8.79
529.2  114283.00  10447.88  9.14
530.6  115860.10  10999.34  9.49
532.0  117642.00  11527.60  9.80
533.4  118998.45  11967.72  10.06
534.8  119924.30  12338.93  10.29
536.3  121685.70  12765.84  10.49
537.7  123782.40  13219.92  10.68
539.1  125283.63  13584.62  10.84
540.5  126500.90  13905.70  10.99
541.9  128300.40  14285.43  11.13
543.3  129605.28  14609.97  11.27
544.7  130940.40  14936.28  11.41
546.1  132763.13  15318.22  11.54
547.5  134052.80  15630.72  11.66
549.0  135872.00  15991.80  11.77
550.4  137423.75  16296.63  11.86
551.8  139003.68  16576.88  11.93
553.2  140584.98  16818.66  11.96
554.6  141970.40  16976.96  11.96
556.0  143564.85  17104.41  11.91
557.4  145231.45  17191.13  11.84
558.8  146918.25  17241.03  11.74
560.2  148414.38  17224.58  11.61
561.6  150130.43  17201.25  11.46
563.0  151772.28  17135.01  11.29
564.4  153397.00  17053.02  11.12
565.8  154955.00  16923.50  10.92
567.2  156745.75  16789.35  10.71
568.6  158296.50  16595.25  10.48
570.0  159763.08  16357.14  10.24
571.4  161551.00  16117.53  9.98
572.8  163359.50  15879.83  9.72
574.2  165032.00  15637.44  9.48
575.6  166612.50  15399.00  9.24
577.0  168189.20  15187.20  9.03
578.4  169965.25  15019.55  8.84
579.8  171528.30  14857.83  8.66
581.2  173312.48  14741.92  8.51
582.5  174762.90  14610.96  8.36
583.9  176327.40  14518.72  8.23
585.3  178183.35  14462.64  8.12
586.7  179689.58  14393.93  8.01
588.1  181220.25  14351.15  7.92
589.5  182904.75  14339.85  7.84
590.9  184586.40  14351.76  7.78
592.3  186455.35  14397.36  7.72
593.7  187932.23  14431.76  7.68
595.0  189604.80  14497.38  7.65
596.4  191090.20  14548.03  7.61
597.8  192620.90  14599.55  7.58
599.2  194211.60  14646.72  7.54
600.6  196010.75  14689.48  7.49
602.0  197334.08  14673.53  7.44
603.3  199171.45  14666.52  7.36
604.7  200872.08  14613.11  7.27
606.1  202418.40  14523.12  7.17
607.5  204098.73  14409.59  7.06
608.9  205818.45  14271.99  6.93
610.2  207252.68  14104.13  6.81
611.6  208887.15  13938.23  6.67
613.0  210478.70  13776.63  6.55
614.4  211906.20  13610.07  6.42
615.8  213393.38  13457.93  6.31
617.1  214958.10  13335.84  6.20
618.5  216612.80  13243.04  6.11
619.9  218158.73  13166.84  6.04
621.3  219838.73  13130.33  5.97
622.6  221475.75  13111.95  5.92
624.0  222958.95  13107.78  5.88
625.4  224466.00  13126.25  5.85
626.8  226087.23  13169.98  5.83
628.1  227425.83  13220.13  5.81
629.5  229300.90  13309.24  5.80
630.9  230941.43  13389.81  5.80
632.2  232336.83  13450.99  5.79
633.6  233978.88  13518.48  5.78
635.0  235536.80  13539.84  5.75
636.3  237096.50  13521.68  5.70
637.7  238489.25  13469.10  5.65
639.1  240170.00  13394.50  5.58
640.4  241687.95  13273.93  5.49
641.8  242936.93  13115.64  5.40
643.2  244563.20  12967.19  5.30
644.5  245955.25  12789.60  5.20
645.9  247691.25  12634.56  5.10
647.2  249481.93  12482.68  5.00
648.6  251403.75  12356.55  4.92
650.0  252871.20  12225.60  4.83
651.3  253266.20  12083.56  4.77
652.7  254518.10  11981.39  4.71
654.0  256617.40  11917.16  4.64
655.4  258154.63  11779.23  4.56
656.8  258371.40  11567.92  4.48
658.1  259688.00  11381.78  4.38
659.5  262208.63  11246.87  4.29
660.8  264060.00  11097.00  4.20
662.2  264992.00  10886.40  4.11
663.5  266641.70  10733.89  4.03
664.9  267940.40  10585.90  3.95
666.2  268708.80  10447.32  3.89
667.6  270467.38  10376.66  3.84
668.9  271583.93  10334.47  3.81
670.3  272863.13  10323.83  3.78
671.6  274372.13  10345.65  3.77
673.0  275566.88  10398.75  3.77
674.3  276868.80  10466.56  3.78
675.7  278189.15  10551.85  3.79
677.0  279343.08  10660.10  3.82
678.4  280708.63  10801.06  3.85
679.7  281853.93  10964.05  3.89
681.1  283200.18  11169.95  3.94
682.4  284382.80  11425.70  4.02
683.8  285664.60  11739.52  4.11
685.1  286695.75  12120.08  4.23
686.4  288067.20  12640.68  4.39
687.8  289361.25  13309.95  4.60
689.1  290451.50  14177.70  4.88
690.5  291823.95  15314.22  5.25
691.8  292624.50  16752.87  5.73
693.1  294042.30  18631.89  6.34
694.5  295226.75  20934.55  7.09
695.8  296478.00  23669.10  7.98
697.1  297683.75  26822.25  9.01
698.5  298800.10  30381.68  10.17
699.8  299922.23  34316.35  11.44
701.1  301055.98  38574.71  12.81
702.5  301899.40  43038.93  14.26
703.8  302872.50  47718.00  15.76
705.1  304083.00  52550.75  17.28
706.5  305127.88  57472.43  18.84
707.8  306172.65  62454.84  20.40
709.1  307080.38  67452.76  21.97
710.5  308241.28  72560.72  23.54
711.8  309122.60  77635.22  25.11
713.1  310148.40  82795.44  26.70
714.4  311085.00  87942.28  28.27
715.8  311954.70  93093.58  29.84
717.1  313324.65  98398.11  31.40
718.4  314272.00  103582.08  32.96
719.7  315414.15  108810.47  34.50
721.0  315967.50  113787.00  36.01
722.4  316759.85  118788.89  37.50
723.7  317779.50  123773.19  38.95
725.0  318854.48  128696.22  40.36
726.3  319823.90  133457.78  41.73
727.6  320394.53  137904.09  43.04
729.0  321339.73  142345.91  44.30
730.3  322119.75  146544.92  45.49
731.6  323081.40  150618.53  46.62
732.9  323918.18  154471.52  47.69
734.2  324772.25  158141.23  48.69
735.5  325844.78  161734.38  49.64
736.8  326633.40  165023.10  50.52
738.1  327477.80  168146.06  51.35
739.5  328465.73  171154.17  52.11
740.8  329188.75  173850.82  52.81
742.1  329953.45  176432.69  53.47
743.4  330700.00  178835.00  54.08
744.7  331730.98  181229.79  54.63
746.0  332668.05  183412.32  55.13
747.3  333254.40  185265.56  55.59
748.6  334003.25  187078.90  56.01
749.9  334776.00  188780.80  56.39
751.2  335504.50  190372.00  56.74
752.5  336419.75  191961.92  57.06
753.8  337045.45  193288.76  57.35
755.1  337740.00  194568.40  57.61
756.4  338350.35  195685.26  57.84
757.7  339366.13  196960.12  58.04
759.0  341213.48  198664.87  58.22
760.3  342460.80  199927.20  58.38
761.6  344097.60  201367.32  58.52
762.9  344647.00  202149.75  58.65
764.2  345046.30  202788.34  58.77
765.5  345352.48  203325.29  58.87
766.8  345793.60  203907.52  58.97
768.1  346336.00  204530.04  59.06
769.3  346952.20  205157.47  59.13
770.6  347642.10  205807.03  59.20
771.9  348412.05  206483.31  59.26
773.2  348837.20  206933.76  59.32
774.5  349463.40  207498.72  59.38
775.8  350152.45  208089.28  59.43
777.1  350761.95  208609.06  59.47
778.4  351128.53  208964.58  59.51
779.6  351944.00  209602.87  59.56
780.9  352440.00  210030.00  59.59
782.2  352896.50  210455.30  59.64
783.5  353251.00  210785.50  59.67
784.8  353809.35  211231.40  59.70
786.0  354206.65  211577.03  59.73
787.3  354628.83  211940.06  59.76
788.6  355103.35  212310.94  59.79
789.9  355584.60  212693.88  59.82
791.2  356272.78  213203.38  59.84
792.4  356987.35  213710.98  59.87
793.7  357513.60  214107.36  59.89
795.0  358139.10  214599.33  59.92
796.2  358814.90  215083.59  59.94
797.5  359577.38  215607.53  59.96
798.8  360281.30  216105.38  59.98
800.0  360995.33  216611.47  60.00
801.3  361505.40  216989.88  60.02
802.6  362165.63  217438.74  60.04
803.8  362790.83  217927.29  60.07
805.1  363307.00  218307.78  60.09
806.4  363778.80  218671.14  60.11
807.7  364358.25  219099.74  60.13
808.9  364961.50  219506.62  60.15
810.2  365521.10  219913.82  60.16
811.4  366032.80  220293.36  60.18
812.7  366721.88  220756.25  60.20
814.0  367551.80  221362.31  60.23
815.2  368193.25  221842.80  60.25
816.5  368638.00  222180.49  60.27
817.7  369152.75  222562.90  60.29
819.0  369716.05  222959.33  60.31
820.2  369908.00  223141.60  60.32
821.5  370639.65  223651.85  60.34
822.7  370938.08  223939.21  60.37
824.0  371285.10  224230.68  60.39
825.2  371808.23  224612.60  60.41
826.5  372101.53  224887.18  60.44
827.7  372674.00  225304.49  60.46
829.0  373136.05  225606.50  60.46
830.2  373495.85  225857.93  60.47
831.5  374018.70  226236.68  60.49
832.7  374349.68  226504.22  60.51
834.0  374644.18  226772.75  60.53
835.2  375028.50  227086.59  60.55
836.4  375370.60  227356.36  60.57
837.7  375822.80  227683.36  60.58
838.9  376217.33  228043.55  60.61
840.1  376600.05  228357.90  60.64
841.4  377076.30  228749.38  60.66
842.6  377434.00  229072.96  60.69
843.8  377794.20  229383.84  60.72
845.1  378356.25  229803.20  60.74
846.3  378810.30  230134.92  60.75
847.5  379224.30  230457.78  60.77
848.8  379699.20  230810.64  60.79
850.0  379972.25  231103.32  60.82
851.2  380509.65  231567.12  60.86
852.5  380977.50  231852.94  60.86
853.7  381516.75  232250.85  60.88
854.9  381991.90  232619.12  60.90
856.1  382418.40  232972.61  60.92
857.4  382600.83  233168.79  60.94
858.6  383135.65  233561.03  60.96
859.8  383574.38  233890.88  60.98
861.0  384064.20  234257.40  60.99
862.2  384515.75  234632.79  61.02
863.5  384910.18  234896.48  61.03
864.7  385506.00  235282.08  61.03
865.9  385937.20  235599.32  61.05
867.1  386247.35  235856.32  61.06
868.3  386675.10  236211.63  61.09
869.5  387176.70  236602.94  61.11
870.8  387778.50  236981.70  61.11
872.0  388326.15  237387.75  61.13
873.2  388796.25  237701.04  61.14
874.4  389188.80  238030.65  61.16
875.6  389621.10  238287.93  61.16
876.8  390184.70  238675.61  61.17
878.0  390695.25  239038.54  61.18
879.2  391265.10  239387.46  61.18
880.4  391783.13  239769.60  61.20
881.6  392343.43  240142.26  61.21
882.8  392732.80  240399.04  61.21
884.0  393396.80  240782.39  61.21
885.2  393948.40  241139.92  61.21
886.5  394582.85  241565.38  61.22
887.7  395029.70  241897.18  61.24
888.8  395768.40  242353.38  61.24
890.0  396425.60  242736.72  61.23
891.2  397100.60  243132.76  61.23
892.4  397679.63  243549.08  61.24
893.6  398310.90  243958.20  61.25
894.8  399308.75  244550.95  61.24
896.0  400176.00  245107.80  61.25
897.2  400985.00  245628.50  61.26
898.4  401936.70  246113.34  61.23
899.6  402411.75  246516.15  61.26
900.8  402828.93  246799.93  61.27
902.0  403094.55  246947.55  61.26
903.2  403495.95  247198.25  61.26
904.3  403846.80  247416.72  61.26
905.5  404513.73  247827.53  61.27
906.7  405195.00  248179.10  61.25
907.9  405788.60  248562.79  61.25
909.1  406143.45  248824.17  61.27
910.2  406434.60  248953.04  61.25
911.4  406545.75  249108.21  61.27
912.6  406827.85  249226.12  61.26
913.8  407012.18  249407.40  61.28
915.0  407586.90  249700.08  61.26
916.2  408008.25  249849.60  61.24
917.3  408036.60  249909.57  61.25
918.5  408123.70  250052.20  61.27
919.7  408462.75  250208.10  61.26
920.8  408652.80  250246.63  61.24
922.0  408696.75  250311.60  61.25
923.2  409090.50  250477.50  61.23
924.4  409313.25  250624.80  61.23
925.5  409676.00  250716.10  61.20
926.7  410182.38  251064.08  61.21
927.9  411097.80  251517.24  61.18
929.0  412608.60  252362.25  61.16
930.2  414876.40  253699.02  61.15
931.4  417538.13  255211.56  61.12
932.5  420336.75  256804.62  61.09
933.7  421733.28  257564.80  61.07
934.9  422493.75  257899.25  61.04
936.0  421965.38  257512.13  61.03
937.2  419912.10  256149.69  61.00
938.3  418376.45  255004.04  60.95
939.5  416739.60  253935.36  60.93
940.7  417029.40  253965.06  60.90
941.8  418739.48  254822.36  60.85
943.0  420162.00  255538.80  60.82
944.2  421008.25  255856.12  60.77
945.3  420702.75  255422.70  60.71
946.5  419773.05  254791.17  60.70
947.6  420112.10  254698.92  60.63
948.8  420064.13  254366.78  60.55
949.9  420462.00  254172.24  60.45
951.1  419899.35  253624.02  60.40
952.2  419832.00  253164.00  60.30
953.4  419474.00  252637.75  60.23
954.5  419515.20  252214.56  60.12
955.7  419403.60  251813.52  60.04
956.8  419239.60  251238.70  59.93
958.0  419078.00  250693.70  59.82
959.1  419171.33  250329.03  59.72
960.3  418784.48  249890.84  59.67
961.4  418437.20  249608.11  59.65
962.6  418603.50  249483.85  59.60
963.7  418279.13  249201.14  59.58
964.9  418207.65  248966.60  59.53
966.0  418423.73  248893.97  59.48
967.2  418677.75  248723.64  59.41
968.3  418421.70  248556.60  59.40
969.5  418244.20  248262.60  59.36
970.6  418073.80  248188.01  59.36
971.8  418296.73  248283.21  59.36
972.9  418381.50  248218.88  59.33
974.0  418781.50  248270.62  59.28
975.2  418560.38  248134.33  59.28
976.3  418757.20  248027.60  59.23
977.5  419017.90  247855.90  59.15
978.6  418904.70  247821.94  59.16
979.7  419203.58  247954.46  59.15
980.9  419360.25  247828.38  59.10
982.0  418996.35  247750.19  59.13
983.2  418958.50  247492.07  59.07
984.3  419269.80  247211.48  58.96
985.4  418888.30  247167.24  59.01
986.6  418833.25  247246.73  59.03
987.7  420032.90  247975.95  59.04
988.9  419844.60  247908.24  59.05
990.0  420610.60  248436.78  59.07
993.1  369299.99  217975.92  59.02
996.9  369918.20  218859.03  59.16
1000.7  370972.18  220073.59  59.32
1004.5  371585.25  220985.64  59.47
1008.4  371346.21  221498.38  59.65
1012.2  371456.38  222073.36  59.78
1016.0  371686.80  222679.20  59.91
1019.8  371910.00  223240.33  60.03
1023.7  371942.16  223640.83  60.13
1027.5  371679.57  223840.24  60.22
1031.3  371877.05  224313.88  60.32
1035.1  371655.32  224557.18  60.42
1038.9  371648.75  224892.62  60.51
1042.7  371430.17  225122.95  60.61
1046.5  371235.50  225338.22  60.70
1050.3  371262.69  225599.67  60.77
1054.2  370938.17  225660.75  60.84
1058.0  370474.42  225556.82  60.88
1061.8  370337.10  225637.31  60.93
1065.6  370010.67  225560.35  60.96
1069.4  370023.13  225624.82  60.98
1073.2  369602.15  225334.13  60.97
1077.0  369097.33  224987.34  60.96
1080.8  368632.29  224629.17  60.94
1084.6  367646.18  223986.08  60.92
1088.4  366950.10  223549.81  60.92
1092.2  366093.00  222953.25  60.90
1096.0  365479.58  222446.58  60.86
1099.8  364952.90  221938.75  60.81
1103.6  364300.72  221294.31  60.74
1107.4  363356.58  220456.68  60.67
1111.2  363119.30  219993.40  60.58
1114.9  362393.50  219214.53  60.49
1118.7  361765.80  218380.80  60.37
1122.5  361061.13  217351.33  60.20
1126.3  359940.82  215861.41  59.97
1130.1  359428.11  214397.10  59.65
1133.9  357834.40  211887.90  59.21
1137.7  356381.90  209060.94  58.66
1141.4  354620.18  205660.69  57.99
1145.2  353873.78  202663.45  57.27
1149.0  352760.63  199523.33  56.56
1152.8  351138.65  196408.19  55.93
1156.6  349461.93  193774.35  55.45
1160.3  347699.00  191584.45  55.10
1164.1  345252.30  189448.12  54.87
1167.9  343466.67  187945.14  54.72
1171.7  342208.13  186873.75  54.61
1175.4  341048.73  185927.88  54.52
1179.2  340013.88  185034.08  54.42
1183.0  339687.67  184529.00  54.32
1186.7  339147.90  183969.26  54.24
1190.5  338111.20  183201.74  54.18
1194.3  336931.60  182454.71  54.15
1198.0  335732.93  181747.87  54.13
1201.8  334225.95  180988.38  54.15
1205.6  332967.67  180475.67  54.20
1209.3  332011.33  180279.81  54.30
1213.1  331042.28  180198.73  54.43
1216.8  330030.98  180241.45  54.61
1220.6  328882.40  180262.14  54.81
1224.3  327619.42  180174.28  54.99
1228.1  326366.20  180090.20  55.18
1231.9  325099.20  179900.40  55.34
1235.6  323620.58  179534.03  55.48
1239.4  322249.75  179191.13  55.61
1243.1  321008.15  178840.57  55.71
1246.9  319791.31  178460.25  55.81
1250.6  318818.80  178149.74  55.88
1254.3  317724.64  177736.38  55.94
1258.1  316730.05  177311.75  55.98
1261.8  315448.00  176669.51  56.01
1265.6  314059.78  175888.60  56.00
1269.3  312621.68  175066.56  56.00
1273.1  312585.44  174974.33  55.98
1276.8  312830.00  174949.73  55.92
1280.6  312668.80  174583.24  55.84
1284.3  311304.80  173468.27  55.72
1288.0  309874.76  172259.12  55.59
1291.8  308607.91  171105.96  55.44
1295.5  307243.20  169819.47  55.27
1299.2  305964.98  168463.95  55.06
1302.9  304502.98  166853.09  54.80
1306.7  302931.88  165030.09  54.48
1310.4  301433.23  163050.99  54.09
1314.1  300042.23  160992.34  53.66
1317.9  298813.33  158800.35  53.14
1321.6  297392.07  156347.57  52.57
1325.3  295760.85  153605.03  51.94
1329.0  294433.42  150877.07  51.24
1332.8  292384.40  147639.80  50.50
1336.5  290555.20  144493.92  49.73
1340.2  290168.67  142076.28  48.96
1343.9  289703.54  139642.92  48.20
1347.6  289084.95  137170.25  47.45
