/*** Spectra Vista SIG Data ***/
name= 21_20220926_TITO_18_avg.sig
comm= Averaged Ref/Tar of files: HR.092622.0059_moc.sig,HR.092622.0060_moc.sig,HR.092622.0061_moc.sig
data=
337.3  3126.38  238.20  7.62
338.8  3270.80  259.74  7.94
340.3  3420.05  238.94  6.99
341.8  3612.28  225.58  6.24
343.2  3774.00  226.44  6.00
344.7  3923.80  230.31  5.87
346.2  4085.00  232.85  5.70
347.7  4286.43  230.71  5.38
349.2  4460.40  221.76  4.97
350.6  4700.80  225.25  4.79
352.1  4965.78  231.02  4.65
353.6  5239.70  234.80  4.48
355.1  5522.70  237.97  4.31
356.6  5801.18  242.53  4.18
358.0  6061.00  240.31  3.96
359.5  6334.50  242.05  3.82
361.0  6643.35  266.33  4.01
362.5  6996.73  269.33  3.85
364.0  7340.80  273.37  3.72
365.4  7671.30  284.75  3.71
366.9  8038.88  297.43  3.70
368.4  8427.98  310.03  3.68
369.9  8783.13  319.80  3.64
371.3  9211.50  328.41  3.57
372.8  9611.10  342.50  3.56
374.3  10024.38  351.17  3.50
375.8  10429.65  368.32  3.53
377.2  10840.70  374.81  3.46
378.7  11298.00  384.67  3.40
380.2  11701.50  381.08  3.26
381.7  12215.30  390.06  3.19
383.1  12666.50  401.56  3.17
384.6  13190.78  414.52  3.14
386.1  13674.65  430.60  3.15
387.6  14121.80  438.39  3.10
389.0  14632.80  448.45  3.06
390.5  15106.95  461.09  3.05
392.0  15684.85  476.10  3.04
393.4  16264.23  488.72  3.00
394.9  16808.40  505.47  3.01
396.4  17362.13  519.22  2.99
397.9  17886.25  533.85  2.98
399.3  18461.93  552.09  2.99
400.8  19017.78  562.47  2.96
402.2  19664.55  584.29  2.97
403.7  20271.15  587.43  2.90
405.2  20905.03  610.82  2.92
406.6  21483.20  630.27  2.93
408.1  22102.80  638.07  2.89
409.6  22674.35  660.70  2.91
411.0  23356.90  681.78  2.92
412.5  24032.05  697.64  2.90
414.0  24694.50  715.84  2.90
415.4  25400.25  728.75  2.87
416.9  26079.08  751.08  2.88
418.4  26779.95  773.77  2.89
419.8  27500.20  796.55  2.90
421.3  28234.80  821.14  2.91
422.7  29023.20  846.80  2.92
424.2  29801.25  865.13  2.90
425.7  30546.20  885.63  2.90
427.1  31333.50  905.72  2.89
428.6  32162.50  927.93  2.89
430.0  32914.58  949.96  2.89
431.5  33775.28  978.08  2.90
432.9  34647.25  1000.60  2.89
434.4  35540.33  1024.71  2.88
435.9  36386.00  1048.60  2.88
437.3  37248.75  1074.33  2.88
438.8  38105.03  1097.77  2.88
440.2  38983.18  1124.72  2.89
441.7  39958.80  1153.29  2.89
443.1  40849.75  1183.23  2.90
444.6  41841.40  1210.44  2.89
446.0  42791.55  1242.57  2.90
447.5  43764.05  1273.54  2.91
448.9  44724.30  1302.47  2.91
450.4  45726.45  1332.99  2.92
451.8  46618.00  1360.23  2.92
453.3  47540.70  1390.75  2.93
454.7  48563.05  1423.34  2.93
456.2  49448.28  1455.19  2.94
457.6  50431.73  1486.80  2.95
459.1  51421.18  1512.83  2.94
460.5  52363.13  1541.25  2.94
462.0  53437.28  1573.41  2.94
463.4  54484.90  1604.27  2.94
464.8  55486.13  1637.25  2.95
466.3  56464.65  1669.44  2.96
467.7  57440.08  1699.32  2.96
469.2  58509.78  1727.94  2.95
470.6  59515.80  1759.53  2.96
472.0  60578.80  1790.81  2.96
473.5  61599.13  1823.07  2.96
474.9  62643.00  1856.78  2.96
476.4  63806.40  1891.20  2.96
477.8  64873.00  1928.98  2.97
479.2  65873.50  1962.33  2.98
480.7  66990.30  1996.59  2.98
482.1  68146.20  2028.78  2.98
483.6  69345.55  2064.43  2.98
485.0  70449.83  2108.04  2.99
486.4  71644.20  2145.64  2.99
487.9  72730.13  2185.95  3.01
489.3  73890.05  2230.35  3.02
490.7  74950.25  2271.58  3.03
492.2  76204.80  2314.76  3.04
493.6  77322.70  2361.09  3.05
495.0  78448.50  2413.13  3.08
496.5  79626.55  2468.82  3.10
497.9  80741.85  2525.08  3.13
499.3  81901.18  2583.78  3.15
500.7  83168.05  2654.09  3.19
502.2  84344.20  2727.77  3.23
503.6  85629.00  2813.42  3.29
505.0  86713.35  2908.52  3.35
506.5  88029.45  3019.52  3.43
507.9  89202.03  3141.91  3.52
509.3  90546.40  3282.15  3.62
510.7  91786.50  3438.83  3.75
512.2  93175.58  3628.88  3.89
513.6  94695.65  3842.45  4.06
515.0  96132.55  4086.84  4.25
516.4  97524.00  4355.98  4.47
517.8  99171.63  4674.44  4.71
519.3  100495.50  5001.79  4.98
520.7  102073.25  5375.53  5.27
522.1  103373.08  5763.76  5.58
523.5  104722.60  6168.36  5.89
524.9  106215.30  6594.17  6.21
526.3  107682.40  7008.06  6.51
527.8  109177.20  7430.45  6.81
529.2  110170.60  7830.94  7.11
530.6  111741.85  8258.66  7.39
532.0  113498.00  8679.07  7.65
533.4  114817.35  9039.59  7.87
534.8  115652.63  9343.02  8.08
536.3  117325.50  9680.59  8.25
537.7  119359.80  10032.54  8.41
539.1  120858.95  10329.17  8.55
540.5  122054.45  10587.53  8.67
541.9  123802.35  10892.27  8.80
543.3  125079.45  11148.66  8.91
544.7  126403.20  11406.08  9.02
546.1  128196.75  11707.58  9.13
547.5  129472.00  11948.16  9.23
549.0  131153.00  12221.73  9.32
550.4  132653.13  12463.13  9.40
551.8  134225.33  12683.68  9.45
553.2  135756.00  12867.84  9.48
554.6  137113.60  12995.15  9.48
556.0  138658.95  13094.82  9.44
557.4  140296.10  13156.81  9.38
558.8  141939.90  13186.59  9.29
560.2  143403.25  13154.81  9.17
561.6  145074.30  13099.71  9.03
563.0  146681.43  12999.13  8.86
564.4  148290.80  12867.49  8.68
565.8  149833.75  12695.10  8.47
567.2  151585.75  12513.00  8.25
568.6  153087.38  12290.56  8.03
570.0  154538.98  12040.31  7.79
571.4  156258.05  11803.61  7.55
572.8  158041.75  11574.08  7.32
574.2  159667.20  11345.23  7.11
575.6  161235.00  11136.00  6.91
577.0  162776.50  10950.08  6.73
578.4  164516.63  10799.05  6.56
579.8  166043.25  10654.16  6.42
581.2  167768.05  10540.97  6.28
582.5  169217.10  10422.75  6.16
583.9  170746.00  10332.08  6.05
585.3  172554.75  10267.42  5.95
586.7  174049.85  10198.00  5.86
588.1  175521.50  10144.99  5.78
589.5  177196.25  10115.64  5.71
590.9  178845.20  10094.43  5.64
592.3  180657.25  10103.17  5.59
593.7  182127.08  10101.98  5.55
595.0  183756.60  10118.92  5.51
596.4  185223.85  10129.49  5.47
597.8  186697.93  10142.28  5.43
599.2  188258.40  10158.28  5.40
600.6  190014.50  10172.31  5.35
602.0  191319.68  10151.98  5.31
603.3  193114.60  10146.24  5.25
604.7  194800.38  10107.65  5.19
606.1  196291.20  10046.86  5.12
607.5  197957.80  9981.44  5.04
608.9  199650.50  9904.78  4.96
610.2  201044.03  9810.04  4.88
611.6  202641.45  9718.56  4.80
613.0  204221.85  9628.04  4.71
614.4  205606.05  9529.77  4.63
615.8  207075.38  9441.41  4.56
617.1  208622.40  9365.37  4.49
618.5  210263.60  9311.17  4.43
619.9  211770.83  9265.94  4.38
621.3  213401.70  9243.49  4.33
622.6  215009.75  9238.45  4.30
624.0  216485.40  9241.16  4.27
625.4  217976.55  9258.18  4.25
626.8  219573.90  9298.08  4.23
628.1  220870.93  9333.16  4.23
629.5  222674.38  9388.41  4.22
630.9  224197.88  9438.18  4.21
632.2  225495.90  9462.43  4.20
633.6  227043.25  9483.26  4.18
635.0  228519.20  9474.33  4.15
636.3  230038.10  9441.19  4.10
637.7  231417.63  9366.86  4.05
639.1  233082.50  9280.83  3.98
640.4  234564.93  9172.74  3.91
641.8  235771.28  9047.97  3.84
643.2  237353.20  8935.59  3.76
644.5  238728.25  8817.18  3.69
645.9  240366.60  8709.02  3.62
647.2  241794.70  8608.55  3.56
648.6  243486.00  8541.45  3.51
650.0  244857.60  8491.68  3.47
651.3  245482.88  8440.69  3.44
652.7  247280.40  8441.68  3.41
654.0  249426.80  8450.10  3.39
655.4  250843.85  8435.10  3.36
656.8  250903.10  8368.73  3.34
658.1  252197.00  8344.52  3.31
659.5  254691.15  8336.20  3.27
660.8  256410.00  8310.75  3.24
662.2  257398.40  8256.64  3.21
663.5  258999.95  8222.82  3.17
664.9  260094.90  8199.84  3.15
666.2  260850.00  8175.52  3.13
667.6  262586.65  8190.30  3.12
668.9  263632.60  8204.36  3.11
670.3  265210.88  8245.93  3.11
671.6  266451.38  8286.55  3.11
673.0  267624.00  8350.71  3.12
674.3  268912.80  8429.68  3.13
675.7  270264.23  8518.01  3.15
677.0  271348.00  8603.70  3.17
678.4  272691.53  8714.56  3.20
679.7  273770.75  8847.44  3.23
681.1  275076.58  9000.71  3.27
682.4  276205.80  9170.76  3.32
683.8  277443.40  9367.45  3.38
685.1  278421.00  9578.65  3.44
686.4  279675.60  9880.48  3.53
687.8  280973.00  10262.44  3.65
689.1  282041.00  10776.42  3.82
690.5  283353.30  11494.61  4.06
691.8  284241.33  12475.12  4.39
693.1  285525.90  13836.13  4.85
694.5  286695.50  15599.68  5.44
695.8  287946.75  17818.56  6.19
697.1  289107.00  20506.85  7.09
698.5  290174.10  23658.70  8.15
699.8  291283.05  27244.77  9.35
701.1  292416.80  31218.18  10.68
702.5  293240.20  35471.90  12.10
703.8  294187.50  39987.00  13.59
705.1  295359.68  44716.20  15.14
706.5  296424.00  49563.61  16.72
707.8  297389.10  54487.81  18.32
709.1  298239.68  59454.45  19.94
710.5  299378.25  64530.41  21.55
711.8  300224.90  69577.49  23.18
713.1  301250.70  74685.67  24.79
714.4  302187.30  79788.66  26.40
715.8  302990.10  84859.68  28.01
717.1  304317.60  90060.82  29.59
718.4  305289.60  95107.41  31.15
719.7  306424.15  100151.60  32.68
721.0  306945.00  104932.50  34.19
722.4  307717.30  109681.70  35.64
723.7  308696.85  114390.05  37.06
725.0  309741.75  119000.98  38.42
726.3  310693.90  123404.89  39.72
727.6  311241.70  127482.19  40.96
729.0  312169.73  131524.55  42.13
730.3  313001.85  135327.13  43.24
731.6  313914.00  138987.97  44.28
732.9  314701.28  142396.45  45.25
734.2  315515.75  145634.04  46.16
735.5  316552.40  148791.70  47.00
736.8  317366.70  151648.40  47.78
738.1  318228.50  154349.39  48.50
739.5  319230.88  156953.77  49.17
740.8  319937.20  159253.93  49.78
742.1  320638.05  161405.82  50.34
743.4  321300.00  163408.33  50.86
744.7  322214.83  165390.52  51.33
746.0  323085.75  167216.21  51.76
747.3  323708.05  168776.41  52.14
748.6  324450.00  170296.77  52.49
749.9  325130.00  171682.33  52.80
751.2  325750.55  172935.18  53.09
752.5  326561.20  174204.33  53.35
753.8  327084.80  175263.98  53.58
755.1  327782.00  176310.33  53.79
756.4  328401.93  177236.95  53.97
757.7  329405.48  178316.50  54.13
759.0  331247.98  179781.99  54.27
760.3  332455.20  180855.84  54.40
761.6  334016.20  182095.62  54.52
762.9  334562.25  182726.58  54.62
764.2  334931.90  183224.87  54.71
765.5  335191.08  183629.47  54.78
766.8  335620.80  184093.23  54.85
768.1  336143.20  184593.80  54.92
769.3  336721.70  185107.53  54.97
770.6  337356.50  185626.20  55.02
771.9  338071.83  186186.97  55.07
773.2  338471.20  186521.73  55.11
774.5  339053.00  186980.13  55.15
775.8  339708.75  187458.65  55.18
777.1  340267.95  187876.61  55.21
778.4  340594.38  188166.99  55.25
779.6  341361.90  188679.44  55.27
780.9  341820.00  189009.00  55.29
782.2  342278.75  189348.87  55.32
783.5  342515.00  189598.17  55.35
784.8  343051.43  189955.98  55.37
786.0  343428.75  190226.82  55.39
787.3  343832.90  190504.54  55.41
788.6  344219.20  190804.67  55.43
789.9  344636.60  191123.10  55.46
791.2  345262.43  191521.46  55.47
792.4  345907.75  191946.38  55.49
793.7  346391.40  192264.87  55.51
795.0  347010.68  192643.52  55.52
796.2  347657.55  193059.80  55.53
797.5  348326.48  193494.65  55.55
798.8  349009.30  193903.06  55.56
800.0  349615.00  194301.51  55.58
801.3  350061.70  194609.08  55.59
802.6  350576.33  194974.08  55.62
803.8  351229.40  195369.50  55.62
805.1  351718.50  195682.61  55.64
806.4  352158.30  195974.97  55.65
807.7  352700.33  196314.84  55.66
808.9  353237.55  196655.96  55.67
810.2  353735.20  196980.09  55.69
811.4  354203.30  197302.69  55.70
812.7  354818.75  197682.61  55.71
814.0  355618.30  198196.23  55.73
815.2  356211.00  198583.88  55.75
816.5  356631.90  198865.83  55.76
817.7  357154.75  199173.94  55.77
819.0  357636.95  199507.92  55.79
820.2  357808.00  199647.07  55.80
821.5  358450.20  200070.70  55.82
822.7  358804.38  200332.82  55.83
824.0  359075.70  200552.40  55.85
825.2  359559.00  200868.66  55.87
826.5  359904.58  201084.21  55.87
827.7  360427.63  201448.87  55.89
829.0  360857.35  201718.25  55.90
830.2  361133.35  201925.78  55.91
831.5  361631.65  202256.62  55.93
832.7  361974.90  202503.26  55.94
834.0  362333.63  202729.24  55.95
835.2  362685.13  202993.37  55.97
836.4  362993.40  203222.60  55.99
837.7  363356.80  203497.51  56.00
838.9  363770.38  203803.20  56.03
840.1  364162.50  204065.46  56.04
841.4  364558.30  204360.14  56.06
842.6  364949.20  204637.05  56.07
843.8  365312.40  204904.67  56.09
845.1  365833.40  205242.19  56.10
846.3  366249.40  205521.97  56.12
847.5  366618.00  205799.37  56.13
848.8  367030.20  206088.58  56.15
850.0  367379.60  206356.57  56.17
851.2  367946.55  206724.33  56.18
852.5  368374.70  207007.42  56.19
853.7  368923.50  207351.45  56.20
854.9  369366.80  207661.96  56.22
856.1  369764.85  207957.86  56.24
857.4  369985.38  208107.45  56.25
858.6  370504.05  208428.27  56.26
859.8  370948.13  208707.75  56.26
861.0  371428.20  209025.18  56.28
862.2  371935.48  209330.09  56.28
863.5  372197.15  209568.59  56.31
864.7  372728.40  209918.06  56.32
865.9  373165.60  210173.56  56.32
867.1  373493.55  210393.21  56.33
868.3  373950.60  210672.81  56.34
869.5  374467.50  210965.16  56.34
870.8  375003.00  211308.30  56.35
872.0  375490.20  211633.37  56.36
873.2  375901.50  211916.75  56.38
874.4  376394.85  212197.93  56.38
875.6  376777.33  212406.26  56.37
876.8  377280.70  212709.00  56.38
878.0  377794.55  213016.69  56.38
879.2  378289.05  213322.41  56.39
880.4  378821.25  213647.94  56.40
881.6  379318.88  213915.55  56.39
882.8  379721.60  214162.64  56.40
884.0  380323.98  214480.91  56.39
885.2  380793.40  214794.84  56.41
886.5  381433.05  215132.51  56.40
887.7  381976.08  215429.83  56.40
888.8  382624.80  215777.14  56.39
890.0  383205.25  216108.04  56.39
891.2  383795.20  216403.27  56.39
892.4  384376.13  216767.86  56.39
893.6  385014.60  217105.46  56.39
894.8  385819.25  217562.18  56.39
896.0  386678.00  218075.41  56.40
897.2  387484.50  218520.03  56.39
898.4  388228.50  218935.64  56.39
899.6  388804.13  219235.11  56.39
900.8  389123.68  219480.80  56.40
902.0  389404.95  219607.57  56.40
903.2  389713.28  219752.27  56.39
904.3  389974.20  219928.42  56.40
905.5  390653.63  220245.19  56.38
906.7  391234.50  220598.60  56.39
907.9  391740.30  220876.89  56.38
909.1  392013.68  221023.94  56.38
910.2  392105.18  221048.16  56.37
911.4  392514.53  221193.67  56.35
912.6  392606.50  221269.62  56.36
913.8  392718.08  221398.36  56.38
915.0  393217.65  221648.81  56.37
916.2  393432.00  221715.33  56.35
917.3  393390.45  221683.61  56.35
918.5  393552.50  221764.12  56.35
919.7  393729.15  221907.31  56.36
920.8  393754.00  221899.00  56.35
922.0  393874.25  221951.22  56.35
923.2  394212.00  221994.50  56.31
924.4  394368.75  222036.53  56.30
925.5  394523.60  222169.73  56.31
926.7  395090.63  222432.46  56.30
927.9  395914.80  222857.52  56.29
929.0  397305.00  223594.43  56.28
930.2  399566.20  224769.75  56.25
931.4  401909.18  226144.78  56.27
932.5  404681.75  227555.86  56.23
933.7  406119.43  228227.75  56.20
934.9  406791.88  228443.40  56.16
936.0  406373.50  228111.87  56.13
937.2  404194.35  226793.35  56.11
938.3  402330.05  225724.93  56.10
939.5  400665.60  224816.04  56.11
940.7  400870.80  224799.36  56.08
941.8  402600.38  225549.77  56.02
943.0  403850.25  226159.73  56.00
944.2  404569.75  226431.21  55.97
945.3  404215.50  226066.75  55.93
946.5  403447.50  225473.99  55.89
947.6  403711.90  225490.04  55.85
948.8  403377.98  225178.95  55.82
949.9  403683.00  224930.72  55.72
951.1  403255.78  224447.63  55.66
952.2  403104.00  224162.00  55.61
953.4  402686.75  223747.10  55.56
954.5  402667.20  223509.78  55.51
955.7  402267.60  223203.54  55.49
956.8  402025.50  222831.80  55.43
958.0  401579.50  222386.00  55.38
959.1  401564.78  221970.44  55.28
960.3  401306.38  221619.24  55.22
961.4  401080.50  221376.11  55.19
962.6  401101.75  221369.17  55.19
963.7  400615.73  221152.31  55.20
964.9  400635.90  220994.04  55.16
966.0  400421.48  220784.74  55.14
967.2  400451.40  220750.16  55.13
968.3  400512.60  220462.83  55.05
969.5  400071.83  220351.70  55.08
970.6  400172.85  220316.42  55.06
971.8  400331.23  220456.65  55.07
972.9  399960.23  220264.33  55.07
974.0  400531.10  220427.90  55.03
975.2  400139.63  220264.41  55.05
976.3  400472.43  220194.11  54.98
977.5  400109.15  220097.85  55.01
978.6  400500.10  220108.35  54.96
979.7  400515.68  219993.39  54.93
980.9  399970.48  219961.22  54.99
982.0  399318.40  219769.11  55.04
983.2  399032.43  219544.47  55.02
984.3  398605.40  219205.78  54.99
985.4  398638.18  218971.35  54.93
986.6  398567.13  218976.50  54.94
987.7  399161.70  219321.53  54.95
988.9  398473.20  219068.34  54.98
990.0  399507.30  219377.29  54.91
993.1  375123.18  205822.43  54.87
996.9  374562.98  206064.71  55.01
1000.7  374944.85  206775.28  55.15
1004.5  375213.00  207325.59  55.26
1008.4  374775.46  207556.22  55.38
1012.2  374636.08  207867.50  55.49
1016.0  374402.40  208118.13  55.59
1019.8  374052.53  208278.58  55.68
1023.7  373421.88  208232.30  55.76
1027.5  372361.35  207947.91  55.85
1031.3  371980.03  207971.36  55.91
1035.1  371386.05  207881.35  55.97
1038.9  371123.68  207933.69  56.03
1042.7  370879.08  207985.33  56.08
1046.5  370753.00  208068.30  56.12
1050.3  370758.56  208200.06  56.16
1054.2  370412.58  208137.87  56.19
1058.0  369957.76  207966.80  56.21
1061.8  369887.23  207988.87  56.23
1065.6  369410.00  207783.95  56.25
1069.4  369048.53  207606.21  56.25
1073.2  368208.21  207114.03  56.25
1077.0  367566.05  206712.12  56.24
1080.8  367303.13  206510.88  56.22
1084.6  366769.90  206124.67  56.20
1088.4  366591.40  205946.94  56.18
1092.2  365976.00  205504.00  56.15
1096.0  365392.91  205053.79  56.12
1099.8  364839.37  204587.07  56.08
1103.6  364048.57  203998.69  56.04
1107.4  363051.24  203258.86  55.99
1111.2  362759.20  202936.36  55.94
1114.9  362119.33  202383.74  55.89
1118.7  361711.35  201870.35  55.81
1122.5  361222.33  201237.30  55.71
1126.3  360207.40  200180.39  55.57
1130.1  359771.20  199204.30  55.37
1133.9  358171.10  197300.44  55.09
1137.7  356716.00  195188.65  54.72
1141.4  354796.87  192593.92  54.28
1145.2  353999.08  190465.61  53.80
1149.0  352785.42  188234.86  53.36
1152.8  351065.00  185979.89  52.98
1156.6  349340.02  184056.24  52.69
1160.3  347601.67  182435.11  52.48
1164.1  345252.30  180742.97  52.35
1167.9  343562.50  179559.72  52.26
1171.7  342279.00  178678.50  52.20
1175.4  340955.00  177843.38  52.16
1179.2  339732.78  177040.95  52.11
1183.0  339356.33  176674.30  52.06
1186.7  339053.63  176367.69  52.02
1190.5  338390.40  175875.32  51.97
1194.3  337392.27  175263.19  51.95
1198.0  336052.48  174545.31  51.94
1201.8  334428.68  173767.86  51.96
1205.6  333258.00  173321.56  52.01
1209.3  332539.73  173187.99  52.08
1213.1  331865.93  173135.08  52.17
1216.8  331143.54  173106.61  52.28
1220.6  330093.87  172927.17  52.39
1224.3  328904.75  172645.26  52.49
1228.1  327569.00  172302.18  52.60
1231.9  326164.60  171867.62  52.69
1235.6  324543.00  171286.58  52.78
1239.4  323106.50  170766.42  52.85
1243.1  321835.78  170290.48  52.91
1246.9  320591.74  169788.89  52.96
1250.6  319572.00  169378.34  53.00
1254.3  318432.31  168880.72  53.04
1258.1  317293.78  168348.78  53.06
1261.8  315919.60  167664.47  53.07
1265.6  314575.28  166953.26  53.07
1269.3  313417.15  166305.05  53.06
1273.1  313615.16  166323.23  53.03
1276.8  313699.20  166230.40  52.99
1280.6  313061.60  165707.04  52.93
1284.3  311304.80  164557.60  52.86
1288.0  309907.24  163528.32  52.77
1291.8  309030.19  162698.19  52.65
1295.5  308033.73  161738.46  52.51
1299.2  306871.75  160645.89  52.35
1302.9  305377.04  159277.84  52.16
1306.7  303723.23  157745.88  51.94
1310.4  302126.60  156103.54  51.67
1314.1  300681.33  154425.50  51.36
1317.9  299391.25  152701.81  51.00
1321.6  297938.97  150775.60  50.61
1325.3  296278.50  148633.22  50.17
1329.0  294983.62  146587.54  49.69
1332.8  293015.80  144106.36  49.18
1336.5  291303.27  141735.73  48.66
1340.2  291048.33  140075.96  48.13
1343.9  290844.17  138443.15  47.60
1347.6  290676.30  136852.67  47.08
1351.4  291586.00  135807.55  46.58
1355.1  292818.53  134917.12  46.08
