/*** Spectra Vista SIG Data ***/
name= 40_20220926_CECA_12_avg.sig
comm= Averaged Ref/Tar of files: HR.092722.0035_moc.sig,HR.092722.0036_moc.sig,HR.092722.0037_moc.sig
data=
337.3  3027.13  185.27  6.12
338.8  3174.60  179.57  5.66
340.3  3279.50  174.91  5.33
341.8  3520.83  182.90  5.19
343.2  3685.20  189.44  5.14
344.7  3881.15  187.66  4.84
346.2  4044.15  190.63  4.71
347.7  4286.43  183.52  4.28
349.2  4460.40  176.40  3.95
350.6  4700.80  190.97  4.06
352.1  5001.50  185.77  3.71
353.6  5239.70  189.69  3.62
355.1  5556.38  202.05  3.64
356.6  5866.73  209.76  3.58
358.0  6156.70  208.41  3.39
359.5  6427.20  218.36  3.40
361.0  6733.13  223.44  3.32
362.5  7084.55  234.20  3.31
364.0  7455.50  244.69  3.28
365.4  7811.80  251.03  3.21
366.9  8177.00  261.52  3.20
368.4  8537.08  265.48  3.11
369.9  8918.25  284.66  3.19
371.3  9345.00  299.04  3.20
372.8  9770.40  307.98  3.15
374.3  10212.50  311.75  3.05
375.8  10645.25  312.62  2.94
377.2  11055.90  319.21  2.89
378.7  11459.40  329.97  2.88
380.2  11862.90  340.73  2.87
381.7  12377.45  356.73  2.88
383.1  12855.15  362.93  2.82
384.6  13352.63  363.26  2.72
386.1  13809.78  367.54  2.66
387.6  14283.50  380.89  2.67
389.0  14766.80  393.07  2.66
390.5  15266.25  407.10  2.67
392.0  15843.55  412.62  2.60
393.4  16421.88  423.90  2.58
394.9  16938.90  438.48  2.59
396.4  17465.63  445.05  2.55
397.9  18040.00  457.83  2.54
399.3  18588.55  472.73  2.54
400.8  19142.40  481.88  2.52
402.2  19787.30  494.27  2.50
403.7  20367.45  500.76  2.46
405.2  20976.05  520.85  2.48
406.6  21552.80  528.96  2.45
408.1  22148.00  542.40  2.45
409.6  22740.20  558.99  2.46
411.0  23420.95  566.49  2.42
412.5  24094.53  580.32  2.41
414.0  24735.25  597.67  2.42
415.4  25420.13  622.75  2.45
416.9  26098.35  647.64  2.48
418.4  26798.63  662.34  2.47
419.8  27554.80  681.89  2.47
421.3  28252.63  708.25  2.51
422.7  29040.60  742.40  2.56
424.2  29801.25  771.75  2.59
425.7  30562.50  810.65  2.65
427.1  31333.50  850.33  2.71
428.6  32147.00  884.53  2.75
430.0  32899.40  922.64  2.80
431.5  33760.35  959.18  2.84
432.9  34632.60  998.15  2.88
434.4  35526.00  1048.59  2.95
435.9  36372.00  1086.40  2.99
437.3  37235.00  1127.50  3.03
438.8  38091.45  1169.26  3.07
440.2  38983.18  1209.16  3.10
441.7  39945.40  1250.67  3.13
443.1  40849.75  1289.67  3.16
444.6  41815.20  1332.71  3.19
446.0  42765.60  1373.62  3.21
447.5  43738.20  1413.13  3.23
448.9  44685.60  1456.84  3.26
450.4  45700.55  1502.20  3.29
451.8  46579.00  1537.47  3.30
453.3  47527.63  1577.72  3.32
454.7  48536.70  1610.86  3.32
456.2  49408.60  1643.43  3.33
457.6  50378.63  1677.96  3.33
459.1  51381.20  1718.04  3.34
460.5  52323.00  1751.23  3.35
462.0  53396.70  1792.51  3.36
463.4  54457.50  1828.49  3.36
464.8  55444.50  1861.10  3.36
466.3  56422.58  1894.31  3.36
467.7  57397.85  1927.34  3.36
469.2  58453.48  1964.87  3.36
470.6  59459.60  1998.85  3.36
472.0  60522.50  2039.94  3.37
473.5  61556.75  2077.32  3.37
474.9  62600.25  2112.80  3.38
476.4  63763.20  2154.24  3.38
477.8  64829.50  2186.60  3.37
479.2  65844.50  2219.47  3.37
480.7  66961.35  2258.10  3.37
482.1  68102.85  2304.29  3.38
483.6  69302.20  2348.61  3.39
485.0  70377.45  2387.41  3.39
486.4  71586.00  2432.76  3.40
487.9  72657.00  2476.50  3.41
489.3  73801.70  2520.92  3.42
490.7  74876.63  2570.00  3.43
492.2  76101.90  2628.36  3.45
493.6  77220.15  2683.88  3.48
495.0  78331.50  2739.75  3.50
496.5  79523.83  2803.90  3.53
497.9  80639.13  2874.34  3.56
499.3  81813.13  2942.83  3.60
500.7  83080.15  3027.67  3.64
502.2  84242.00  3116.61  3.70
503.6  85526.80  3213.95  3.76
505.0  86625.45  3316.76  3.83
506.5  87940.80  3441.59  3.91
507.9  89098.25  3573.81  4.01
509.3  90428.00  3733.55  4.13
510.7  91669.50  3900.00  4.25
512.2  93045.30  4097.39  4.40
513.6  94552.15  4310.74  4.56
515.0  96004.53  4557.69  4.75
516.4  97410.60  4827.06  4.96
517.8  99044.50  5132.08  5.18
519.3  100396.98  5453.59  5.43
520.7  101974.90  5812.95  5.70
522.1  103261.28  6176.95  5.98
523.5  104611.40  6560.80  6.27
524.9  106103.70  6954.54  6.55
526.3  107567.60  7352.94  6.84
527.8  109073.25  7757.64  7.11
529.2  110081.20  8135.40  7.39
530.6  111597.35  8538.99  7.65
532.0  113246.00  8935.73  7.89
533.4  114613.73  9281.68  8.10
534.8  115546.83  9580.19  8.29
536.3  117132.00  9912.36  8.46
537.7  119057.40  10263.12  8.62
539.1  120489.20  10556.77  8.76
540.5  121692.95  10816.08  8.89
541.9  123449.10  11120.31  9.01
543.3  124743.78  11377.45  9.12
544.7  126084.00  11638.64  9.23
546.1  127881.05  11931.96  9.33
547.5  129124.80  12169.17  9.42
549.0  130746.00  12424.13  9.50
550.4  132249.38  12652.25  9.57
551.8  133814.85  12858.74  9.61
553.2  135316.05  13023.92  9.62
554.6  136656.00  13142.83  9.62
556.0  138162.15  13231.44  9.58
557.4  139769.53  13294.47  9.51
558.8  141422.40  13329.42  9.43
560.2  142884.50  13313.20  9.32
561.6  144553.05  13285.62  9.19
563.0  146126.25  13216.66  9.04
564.4  147731.65  13128.42  8.89
565.8  149238.75  13006.42  8.72
567.2  150994.50  12874.20  8.53
568.6  152467.50  12700.55  8.33
570.0  153880.48  12501.26  8.12
571.4  155595.05  12309.70  7.91
572.8  157352.00  12126.25  7.71
574.2  158972.80  11945.17  7.51
575.6  160537.50  11776.50  7.34
577.0  162053.30  11619.41  7.17
578.4  163754.50  11496.33  7.02
579.8  165285.90  11377.08  6.88
581.2  166980.95  11292.57  6.76
582.5  168409.80  11205.48  6.65
583.9  169920.00  11137.63  6.55
585.3  171708.08  11101.38  6.47
586.7  173196.08  11058.19  6.38
588.1  174672.75  11025.67  6.31
589.5  176314.25  11016.83  6.25
590.9  177940.00  11019.47  6.19
592.3  179728.55  11047.35  6.15
593.7  181176.45  11066.12  6.11
595.0  182794.73  11094.48  6.07
596.4  184239.65  11114.55  6.03
597.8  185730.38  11131.18  5.99
599.2  187255.20  11142.56  5.95
600.6  189001.80  11152.14  5.90
602.0  190312.80  11121.27  5.84
603.3  192084.80  11101.97  5.78
604.7  193747.40  11056.69  5.71
606.1  195242.40  10984.80  5.63
607.5  196885.58  10900.49  5.54
608.9  198582.70  10811.01  5.44
610.2  199938.38  10699.29  5.35
611.6  201538.43  10600.50  5.26
613.0  203109.20  10500.33  5.17
614.4  204485.70  10394.52  5.08
615.8  205934.63  10307.70  5.01
617.1  207461.10  10233.16  4.93
618.5  209079.60  10178.45  4.87
619.9  210591.75  10137.06  4.81
621.3  212210.78  10114.32  4.77
622.6  213805.00  10109.73  4.73
624.0  215280.30  10114.60  4.70
625.4  216738.23  10134.41  4.68
626.8  218299.90  10168.64  4.66
628.1  219556.70  10204.44  4.65
629.5  221335.85  10267.53  4.64
630.9  222788.78  10313.27  4.63
632.2  224053.03  10350.22  4.62
633.6  225570.50  10384.60  4.60
635.0  227005.60  10395.68  4.58
636.3  228481.10  10384.61  4.55
637.7  229836.50  10343.92  4.50
639.1  231490.00  10283.00  4.44
640.4  232956.50  10197.30  4.38
641.8  234184.85  10084.20  4.31
643.2  235748.98  9983.45  4.23
644.5  237104.00  9862.30  4.16
645.9  238650.75  9748.98  4.09
647.2  239696.45  9626.52  4.02
648.6  241218.00  9547.20  3.96
650.0  242611.20  9472.32  3.90
651.3  243611.23  9388.68  3.85
652.7  245736.05  9355.23  3.81
654.0  247755.10  9315.72  3.76
655.4  249135.73  9264.87  3.72
656.8  249404.90  9158.69  3.67
658.1  250835.00  9086.05  3.62
659.5  253065.75  9033.01  3.57
660.8  254430.00  8955.00  3.52
662.2  255449.60  8867.41  3.47
663.5  256962.15  8809.79  3.43
664.9  258017.50  8757.49  3.39
666.2  258852.00  8720.16  3.37
667.6  260555.08  8736.52  3.35
668.9  261515.25  8745.71  3.34
670.3  263331.38  8800.83  3.34
671.6  264371.63  8855.90  3.35
673.0  265544.25  8944.40  3.37
674.3  266791.20  9037.43  3.39
675.7  268122.95  9153.77  3.41
677.0  269189.55  9279.87  3.45
678.4  270489.03  9420.83  3.48
679.7  271524.20  9573.53  3.53
681.1  272758.70  9763.04  3.58
682.4  273819.00  9977.41  3.64
683.8  274990.30  10233.77  3.72
685.1  275987.25  10531.50  3.82
686.4  277278.00  10916.48  3.94
687.8  278481.00  11380.13  4.09
689.1  279526.75  11970.50  4.28
690.5  280850.10  12745.46  4.54
691.8  281656.70  13742.71  4.88
693.1  282943.80  15090.94  5.33
694.5  284102.00  16798.60  5.91
695.8  285330.50  18937.10  6.64
697.1  286490.75  21527.57  7.51
698.5  287518.20  24579.56  8.55
699.8  288562.05  28107.93  9.74
701.1  289718.48  32077.57  11.07
702.5  290511.65  36377.66  12.52
703.8  291420.00  40992.00  14.07
705.1  292556.55  45854.64  15.67
706.5  293560.00  50865.83  17.33
707.8  294528.30  55952.48  19.00
709.1  295359.75  61054.41  20.67
710.5  296453.68  66215.95  22.34
711.8  297259.00  71282.69  23.98
713.1  298262.50  76325.47  25.59
714.4  299154.50  81279.04  27.17
715.8  299935.00  86104.76  28.71
717.1  301255.65  90952.58  30.19
718.4  302198.40  95573.33  31.63
719.7  303277.65  100091.66  33.00
721.0  303795.00  104277.00  34.32
722.4  304515.20  108378.31  35.59
723.7  305480.55  112371.18  36.79
725.0  306469.35  116233.83  37.93
726.3  307384.28  119882.99  39.00
727.6  307932.08  123206.31  40.01
729.0  308822.68  126484.87  40.96
730.3  309617.18  129544.79  41.84
731.6  310487.80  132476.65  42.67
732.9  311233.30  135181.20  43.43
734.2  312032.88  137737.97  44.14
735.5  313023.65  140249.78  44.80
736.8  313859.10  142506.52  45.40
738.1  314691.30  144649.17  45.97
739.5  315628.80  146706.79  46.48
740.8  316314.90  148514.30  46.95
742.1  316971.35  150192.66  47.38
743.4  317575.00  151760.00  47.79
744.7  318438.58  153342.60  48.15
746.0  319333.95  154834.42  48.49
747.3  319930.35  156087.08  48.79
748.6  320664.75  157311.90  49.06
749.9  321308.00  158412.80  49.30
751.2  321854.20  159403.43  49.53
752.5  322586.40  160418.05  49.73
753.8  323069.25  161244.32  49.91
755.1  323726.00  162090.93  50.07
756.4  324297.88  162845.93  50.21
757.7  325285.63  163768.38  50.35
759.0  327051.98  165028.68  50.46
760.3  328204.80  165932.80  50.56
761.6  329707.00  166991.25  50.65
762.9  330228.75  167490.67  50.72
764.2  330574.10  167895.45  50.79
765.5  330813.03  168218.01  50.85
766.8  331187.20  168596.48  50.91
768.1  331649.60  169006.85  50.96
769.3  332214.75  169431.83  51.00
770.6  332800.65  169876.37  51.04
771.9  333479.30  170331.02  51.08
773.2  333813.60  170608.27  51.11
774.5  334391.20  170997.49  51.14
775.8  335006.20  171403.62  51.16
777.1  335516.50  171759.57  51.19
778.4  335798.10  171983.24  51.22
779.6  336487.00  172432.74  51.24
780.9  336900.00  172720.00  51.27
782.2  337317.75  173005.80  51.29
783.5  337574.00  173211.53  51.31
784.8  338026.95  173515.98  51.33
786.0  338351.30  173750.55  51.35
787.3  338702.48  173972.82  51.36
788.6  339063.55  174222.78  51.38
789.9  339420.20  174493.95  51.41
791.2  340017.85  174858.26  51.43
792.4  340631.75  175220.36  51.44
793.7  341080.80  175496.96  51.45
795.0  341632.50  175835.88  51.47
796.2  342181.55  176194.86  51.49
797.5  342770.48  176560.42  51.51
798.8  343373.30  176937.52  51.53
800.0  344014.03  177295.24  51.54
801.3  344394.00  177520.55  51.55
802.6  344928.38  177849.30  51.56
803.8  345467.28  178192.17  51.58
805.1  345886.63  178447.85  51.59
806.4  346290.90  178704.24  51.61
807.7  346775.18  179001.09  51.62
808.9  347278.20  179289.45  51.63
810.2  347723.60  179557.00  51.64
811.4  348148.20  179829.79  51.65
812.7  348684.38  180163.75  51.67
814.0  349445.80  180610.09  51.68
815.2  350032.00  180950.07  51.70
816.5  350375.20  181179.38  51.71
817.7  350812.95  181432.61  51.72
819.0  351293.25  181713.69  51.73
820.2  351428.00  181808.00  51.73
821.5  352020.60  182183.91  51.75
822.7  352330.05  182385.81  51.77
824.0  352603.80  182559.60  51.77
825.2  353038.50  182816.19  51.78
826.5  353286.08  182979.46  51.79
827.7  353848.20  183269.80  51.79
829.0  354230.75  183511.34  51.81
830.2  354507.05  183677.08  51.81
831.5  354961.70  183930.14  51.82
832.7  355252.80  184097.27  51.82
834.0  355505.93  184292.73  51.84
835.2  355856.88  184467.80  51.84
836.4  356164.60  184640.79  51.84
837.7  356527.60  184872.59  51.85
838.9  356941.08  185132.78  51.87
840.1  357215.40  185345.64  51.89
841.4  357616.50  185585.04  51.89
842.6  357955.40  185800.03  51.91
843.8  358280.40  186004.21  51.92
845.1  358770.75  186295.69  51.93
846.3  359097.50  186510.33  51.94
847.5  359553.60  186735.64  51.94
848.8  359923.20  186965.60  51.95
850.0  360237.50  187189.85  51.96
851.2  360649.80  187465.14  51.98
852.5  361044.50  187695.99  51.99
853.7  361485.00  187972.20  52.00
854.9  361963.60  188235.17  52.00
856.1  362333.40  188477.64  52.02
857.4  362524.63  188580.63  52.02
858.6  363021.20  188851.57  52.02
859.8  363386.25  189042.25  52.02
861.0  363706.20  189268.56  52.04
862.2  364117.23  189514.38  52.05
863.5  364440.05  189685.04  52.05
864.7  364960.20  189960.32  52.05
865.9  365311.80  190154.93  52.05
867.1  365559.50  190318.33  52.06
868.3  365941.65  190558.12  52.07
869.5  366372.95  190779.21  52.07
870.8  366817.50  191056.20  52.08
872.0  367371.08  191291.74  52.07
873.2  367695.75  191488.34  52.08
874.4  368102.48  191709.18  52.08
875.6  368480.73  191896.10  52.08
876.8  368893.10  192140.56  52.09
878.0  369302.95  192367.40  52.09
879.2  369776.10  192585.52  52.08
880.4  370207.88  192828.10  52.09
881.6  370607.65  193045.26  52.09
882.8  370990.40  193227.73  52.08
884.0  371579.90  193489.35  52.07
885.2  372023.40  193676.68  52.06
886.5  372459.20  193941.78  52.07
887.7  372973.58  194129.91  52.05
888.8  373497.30  194452.26  52.06
890.0  374052.70  194662.72  52.04
891.2  374425.20  194933.48  52.06
892.4  375063.68  195168.68  52.04
893.6  375475.95  195410.65  52.04
894.8  376239.75  195812.80  52.04
896.0  377050.75  196184.17  52.03
897.2  377812.50  196543.10  52.02
898.4  378510.00  196838.84  52.00
899.6  378936.00  197043.95  52.00
900.8  379213.73  197172.86  52.00
902.0  379351.65  197244.32  52.00
903.2  379620.45  197356.33  51.99
904.3  379845.00  197460.68  51.98
905.5  380370.33  197662.91  51.97
906.7  380906.00  197913.73  51.96
907.9  381261.65  198088.71  51.96
909.1  381387.15  198174.96  51.96
910.2  381446.93  198164.50  51.95
911.4  381721.28  198212.04  51.93
912.6  381788.55  198223.74  51.92
913.8  381874.28  198260.81  51.92
915.0  382097.10  198370.62  51.92
916.2  382151.25  198389.10  51.91
917.3  382084.65  198296.88  51.90
918.5  382233.80  198289.75  51.88
919.7  382415.85  198324.78  51.86
920.8  382313.85  198242.72  51.85
922.0  382285.75  198208.27  51.85
923.2  382336.50  198179.80  51.83
924.4  382468.50  198189.90  51.82
925.5  382738.40  198215.84  51.79
926.7  383273.50  198413.80  51.77
927.9  384057.60  198738.24  51.75
929.0  385238.70  199319.58  51.74
930.2  387258.00  200253.41  51.71
931.4  389497.95  201317.22  51.69
932.5  392157.75  202513.08  51.64
933.7  393373.43  203065.02  51.62
934.9  394003.75  203271.83  51.59
936.0  393407.63  202858.50  51.56
937.2  391289.25  201606.34  51.52
938.3  389292.35  200490.85  51.50
939.5  387637.20  199498.08  51.47
940.7  387978.30  199426.92  51.40
941.8  389268.08  199984.50  51.37
943.0  390585.75  200401.50  51.31
944.2  391236.30  200622.76  51.28
945.3  390507.00  200168.80  51.26
946.5  389749.05  199534.50  51.20
947.6  389790.80  199345.07  51.14
948.8  389408.18  198992.04  51.10
949.9  389470.20  198689.68  51.02
951.1  389018.50  198198.91  50.95
952.2  388620.00  197744.00  50.88
953.4  388386.50  197163.83  50.76
954.5  388135.80  196756.56  50.69
955.7  387916.20  196378.56  50.62
956.8  387426.20  195906.63  50.57
958.0  386960.50  195303.93  50.47
959.1  386892.65  194875.92  50.37
960.3  386358.00  194374.87  50.31
961.4  386069.30  194082.31  50.27
962.6  385997.50  193845.87  50.22
963.7  385650.90  193479.65  50.17
964.9  385323.38  193289.25  50.16
966.0  385248.15  193052.70  50.11
967.2  385394.85  192899.94  50.05
968.3  385045.65  192622.32  50.03
969.5  384695.20  192422.15  50.02
970.6  384292.98  192367.84  50.06
971.8  384461.70  192390.54  50.04
972.9  384348.98  192288.97  50.03
974.0  384887.90  192324.45  49.97
975.2  384789.00  192258.05  49.96
976.3  384338.80  192217.20  50.01
977.5  384225.80  192112.90  50.00
978.6  384496.10  192154.69  49.98
979.7  384376.13  192202.22  50.00
980.9  384188.10  191973.80  49.97
982.0  383960.00  191916.01  49.98
983.2  383704.68  191699.06  49.96
984.3  383379.00  191417.60  49.93
985.4  383016.65  191161.18  49.91
986.6  381985.75  191279.47  50.08
987.7  382856.08  191493.26  50.02
988.9  381927.60  191469.36  50.13
990.0  382770.20  191627.67  50.06
993.1  386297.39  191044.63  49.46
996.9  385031.05  191071.81  49.63
1000.7  385097.24  191656.30  49.77
1004.5  385174.92  192249.73  49.91
1008.4  384699.50  192553.46  50.05
1012.2  384507.42  192946.75  50.18
1016.0  384169.80  193240.73  50.30
1019.8  383552.40  193364.33  50.41
1023.7  382376.12  193152.60  50.51
1027.5  380758.05  192649.07  50.60
1031.3  379771.80  192419.96  50.67
1035.1  378757.23  192135.12  50.73
1038.9  378277.72  192092.62  50.78
1042.7  377945.92  192093.45  50.83
1046.5  377797.50  192164.18  50.86
1050.3  377753.41  192247.34  50.89
1054.2  377368.83  192156.90  50.92
1058.0  376978.23  192000.08  50.93
1061.8  376905.28  192017.60  50.95
1065.6  376347.70  191739.48  50.95
1069.4  375575.40  191340.84  50.95
1073.2  374288.17  190639.53  50.93
1077.0  373571.05  190185.02  50.91
1080.8  373646.88  190114.47  50.88
1084.6  373629.08  189981.30  50.85
1088.4  373825.18  189977.20  50.82
1092.2  373347.00  189549.75  50.77
1096.0  372702.50  189004.24  50.71
1099.8  372020.35  188413.07  50.65
1103.6  371080.75  187689.43  50.58
1107.4  369935.31  186830.33  50.50
1111.2  369573.40  186362.52  50.43
1114.9  369000.92  185722.68  50.33
1118.7  368708.18  185107.53  50.20
1122.5  368315.13  184330.92  50.05
1126.3  367351.83  183123.29  49.85
1130.1  366976.13  181910.64  49.57
1133.9  365293.60  179732.43  49.20
1137.7  363732.10  177272.48  48.74
1141.4  361687.84  174260.86  48.18
1145.2  360739.77  171648.79  47.58
1149.0  359429.58  168978.03  47.01
1152.8  357619.85  166364.05  46.52
1156.6  355777.22  164193.88  46.15
1160.3  353952.67  162455.51  45.90
1164.1  351601.43  160814.32  45.74
1167.9  349959.38  159716.14  45.64
1171.7  348681.38  158909.25  45.57
1175.4  347211.70  158077.17  45.53
1179.2  345823.28  157248.68  45.47
1183.0  345462.33  156862.29  45.41
1186.7  345393.07  156616.21  45.34
1190.5  344974.87  156250.07  45.29
1194.3  344025.87  155682.30  45.25
1198.0  342580.43  154950.23  45.23
1201.8  340870.83  154254.06  45.25
1205.6  339779.33  153979.82  45.32
1209.3  339188.77  154054.81  45.42
1213.1  338671.88  154227.26  45.54
1216.8  338028.81  154405.70  45.68
1220.6  336931.47  154355.26  45.81
1224.3  335672.83  154220.56  45.94
1228.1  334165.00  153971.33  46.08
1231.9  332576.03  153590.03  46.18
1235.6  330811.73  153082.51  46.27
1239.4  329271.38  152653.46  46.36
1243.1  327886.63  152238.63  46.43
1246.9  326576.80  151812.63  46.49
1250.6  325525.87  151437.32  46.52
1254.3  324341.33  150970.29  46.55
1258.1  323107.28  150449.13  46.56
1261.8  321666.13  149798.57  46.57
1265.6  320451.98  149192.79  46.56
1269.3  319628.63  148706.81  46.52
1273.1  319959.54  148706.27  46.48
1276.8  319750.80  148422.08  46.42
1280.6  318659.00  147680.59  46.34
1284.3  316667.60  146473.35  46.25
1288.0  315396.93  145506.00  46.13
1291.8  314877.19  144807.86  45.99
1295.5  314116.00  143921.88  45.82
1299.2  312980.55  142788.65  45.62
1302.9  311355.03  141321.32  45.39
1306.7  309573.02  139673.89  45.12
1310.4  307873.91  137900.67  44.79
1314.1  306296.28  136058.50  44.42
1317.9  304866.25  134133.88  44.00
1321.6  303332.01  132008.59  43.52
1325.3  301668.15  129681.48  42.99
1329.0  300348.07  127399.20  42.42
1332.8  298405.80  124728.27  41.80
1336.5  296753.47  122144.97  41.16
1340.2  296584.17  120172.24  40.52
1343.9  296532.08  118256.86  39.88
1347.6  296732.70  116459.65  39.25
1351.4  298189.00  115180.01  38.63
