/*** Spectra Vista SIG Data ***/
name= 17_20221020_ACRU_25_avg.sig
comm= Averaged Ref/Tar of files: HR.102022.0048_moc.sig,HR.102022.0049_moc.sig,HR.102022.0050_moc.sig
data=
337.3  3076.75  222.13  7.22
338.8  3174.60  224.47  7.07
340.3  3326.35  214.17  6.44
341.8  3475.10  217.74  6.27
343.2  3640.80  211.43  5.81
344.7  3795.85  215.28  5.67
346.2  3962.45  206.20  5.20
347.7  4168.45  205.99  4.94
349.2  4384.80  201.60  4.60
350.6  4590.63  209.86  4.57
352.1  4858.60  210.95  4.34
353.6  5135.60  221.42  4.31
355.1  5388.00  230.91  4.29
356.6  5702.85  227.87  4.00
358.0  5965.30  221.78  3.72
359.5  6210.90  226.60  3.65
361.0  6493.73  230.85  3.55
362.5  6850.35  245.35  3.58
364.0  7168.75  251.25  3.50
365.4  7558.90  267.62  3.54
366.9  7928.38  270.99  3.42
368.4  8264.33  277.95  3.36
369.9  8593.95  288.27  3.35
371.3  8971.20  300.06  3.34
372.8  9398.70  321.13  3.42
374.3  9809.38  332.74  3.39
375.8  10214.05  333.67  3.27
377.2  10598.60  335.61  3.17
378.7  11002.10  343.30  3.12
380.2  11378.70  340.73  2.99
381.7  11863.98  350.04  2.95
383.1  12316.15  359.33  2.92
384.6  12813.13  367.37  2.87
386.1  13242.25  380.92  2.88
387.6  13663.65  395.27  2.89
389.0  14123.60  405.83  2.87
390.5  14575.95  407.10  2.79
392.0  15102.95  418.16  2.77
393.4  15659.90  425.41  2.72
394.9  16155.90  432.51  2.68
396.4  16689.38  448.50  2.69
397.9  17220.00  471.01  2.74
399.3  17727.50  477.56  2.69
400.8  18270.03  486.63  2.66
402.2  18878.95  495.68  2.63
403.7  19452.60  506.72  2.60
405.2  20029.05  520.85  2.60
406.6  20601.60  534.70  2.60
408.1  21131.00  546.70  2.59
409.6  21708.55  549.80  2.53
411.0  22353.45  567.30  2.54
412.5  23011.63  579.13  2.52
414.0  23655.38  595.73  2.52
415.4  24307.13  611.39  2.52
416.9  24941.85  629.65  2.52
418.4  25603.43  645.62  2.52
419.8  26299.00  660.40  2.51
421.3  27004.88  677.35  2.51
422.7  27735.60  699.31  2.52
424.2  28485.00  720.00  2.53
425.7  29242.20  746.69  2.55
427.1  29972.55  770.15  2.57
428.6  30752.00  797.14  2.59
430.0  31457.78  822.34  2.61
431.5  32297.70  854.28  2.65
432.9  33138.30  890.16  2.69
434.4  34007.55  923.62  2.72
435.9  34818.00  954.67  2.74
437.3  35640.00  984.76  2.76
438.8  36462.45  1021.36  2.80
440.2  37298.80  1056.18  2.83
441.7  38243.60  1092.42  2.86
443.1  39114.00  1129.41  2.89
444.6  40059.80  1164.03  2.91
446.0  40962.08  1201.11  2.93
447.5  41915.78  1233.41  2.94
448.9  42815.10  1267.88  2.96
450.4  43783.95  1303.63  2.98
451.8  44642.00  1337.14  3.00
453.3  45540.23  1366.03  3.00
454.7  46520.93  1397.80  3.00
456.2  47358.73  1427.04  3.01
457.6  48307.73  1460.25  3.02
459.1  49262.53  1489.86  3.02
460.5  50169.63  1520.93  3.03
462.0  51219.18  1554.73  3.04
463.4  52238.10  1586.59  3.04
464.8  53196.75  1612.14  3.03
466.3  54136.50  1642.93  3.03
467.7  55075.48  1674.25  3.04
469.2  56117.03  1707.76  3.04
470.6  57085.15  1738.18  3.04
472.0  58115.68  1768.09  3.04
473.5  59113.13  1797.24  3.04
474.9  60120.75  1828.07  3.04
476.4  61243.20  1861.03  3.04
477.8  62277.50  1891.91  3.04
479.2  63249.00  1916.76  3.03
480.7  64326.90  1943.79  3.02
482.1  65429.60  1980.34  3.03
483.6  66585.60  2016.12  3.03
485.0  67641.68  2048.56  3.03
486.4  68792.40  2085.50  3.03
487.9  69834.38  2117.14  3.03
489.3  70959.78  2154.06  3.04
490.7  71975.80  2190.52  3.04
492.2  73161.90  2238.60  3.06
493.6  74246.20  2285.40  3.08
495.0  75333.38  2328.86  3.09
496.5  76471.43  2381.54  3.11
497.9  77557.38  2431.86  3.14
499.3  78687.35  2487.76  3.16
500.7  79915.75  2551.89  3.19
502.2  81044.60  2618.27  3.23
503.6  82285.60  2696.13  3.28
505.0  83343.85  2772.34  3.33
506.5  84616.43  2867.76  3.39
507.9  85747.80  2962.18  3.45
509.3  87038.80  3071.35  3.53
510.7  88232.63  3189.64  3.62
512.2  89585.78  3322.36  3.71
513.6  91050.75  3475.43  3.82
515.0  92462.50  3636.18  3.93
516.4  93810.15  3811.05  4.06
517.8  95400.25  4010.15  4.20
519.3  96695.25  4205.07  4.35
520.7  98237.60  4425.08  4.50
522.1  99502.00  4643.69  4.67
523.5  100816.70  4872.94  4.83
524.9  102239.55  5111.02  5.00
526.3  103621.35  5346.40  5.16
527.8  105063.75  5586.43  5.32
529.2  106102.90  5808.16  5.47
530.6  107638.05  6060.74  5.63
532.0  109298.00  6313.33  5.78
533.4  110581.95  6539.27  5.91
534.8  111433.85  6730.90  6.04
536.3  112965.30  6957.40  6.16
537.7  114849.00  7197.60  6.27
539.1  116237.08  7409.08  6.37
540.5  117415.20  7605.27  6.48
541.9  119115.90  7838.79  6.58
543.3  120403.15  8046.28  6.68
544.7  121683.60  8259.03  6.79
546.1  123449.98  8507.79  6.89
547.5  124656.00  8724.27  7.00
549.0  126269.00  8966.57  7.10
550.4  127723.13  9196.19  7.20
551.8  129257.53  9431.40  7.30
553.2  130717.53  9651.96  7.38
554.6  132017.60  9849.30  7.46
556.0  133494.30  10052.31  7.53
557.4  135061.33  10249.28  7.59
558.8  136682.10  10446.60  7.64
560.2  138112.00  10619.06  7.69
561.6  139747.13  10795.34  7.72
563.0  141297.28  10953.86  7.75
564.4  142868.10  11107.64  7.77
565.8  144340.63  11248.33  7.79
567.2  146060.25  11387.83  7.80
568.6  147508.50  11495.39  7.79
570.0  148897.83  11565.56  7.77
571.4  150578.35  11636.18  7.73
572.8  152301.25  11706.68  7.69
574.2  153876.80  11761.07  7.64
575.6  155396.25  11812.50  7.60
577.0  156889.20  11867.15  7.56
578.4  158567.50  11945.92  7.53
579.8  160064.78  12014.87  7.51
581.2  161725.90  12104.14  7.48
582.5  163133.10  12174.69  7.46
583.9  164610.00  12251.77  7.44
585.3  166341.83  12352.03  7.43
586.7  167796.85  12433.85  7.41
588.1  169240.75  12521.08  7.40
589.5  170863.00  12623.33  7.39
590.9  172446.80  12731.85  7.38
592.3  174206.55  12861.96  7.38
593.7  175637.48  12979.20  7.39
595.0  177203.03  13108.37  7.40
596.4  178619.35  13225.03  7.40
597.8  180068.90  13336.50  7.41
599.2  181552.80  13440.11  7.40
600.6  183272.05  13538.20  7.39
602.0  184526.63  13583.54  7.36
603.3  186258.30  13641.62  7.32
604.7  187894.50  13659.37  7.27
606.1  189349.80  13634.40  7.20
607.5  190953.53  13586.82  7.12
608.9  192597.40  13522.79  7.02
610.2  193942.35  13419.00  6.92
611.6  195507.60  13319.52  6.81
613.0  197040.20  13207.30  6.70
614.4  198360.15  13082.53  6.60
615.8  199777.50  12967.50  6.49
617.1  201301.80  12866.00  6.39
618.5  202878.40  12791.43  6.30
619.9  204382.95  12734.58  6.23
621.3  205954.65  12706.07  6.17
622.6  207506.75  12699.62  6.12
624.0  208945.80  12708.73  6.08
625.4  210374.18  12741.54  6.06
626.8  211913.98  12797.63  6.04
628.1  213147.83  12847.11  6.03
629.5  214874.58  12939.86  6.02
630.9  216330.40  13009.41  6.01
632.2  217551.60  13051.35  6.00
633.6  219028.75  13078.61  5.97
635.0  220435.20  13058.89  5.92
636.3  221889.80  12984.89  5.85
637.7  223216.63  12845.92  5.75
639.1  224805.00  12673.33  5.64
640.4  226257.68  12453.30  5.50
641.8  227429.18  12188.90  5.36
643.2  228953.55  11927.40  5.21
644.5  230296.75  11653.93  5.06
645.9  231787.35  11393.31  4.92
647.2  232695.93  11143.43  4.79
648.6  234069.75  10958.14  4.68
650.0  235353.60  10804.11  4.59
651.3  236398.53  10675.58  4.52
652.7  238705.80  10600.80  4.44
654.0  240816.40  10525.28  4.37
655.4  242121.03  10424.44  4.31
656.8  242254.40  10253.92  4.23
658.1  243616.40  10113.39  4.15
659.5  245796.60  9976.00  4.06
660.8  247072.50  9786.43  3.96
662.2  248057.60  9582.93  3.86
663.5  249519.75  9400.04  3.77
664.9  250503.50  9218.86  3.68
666.2  251259.60  9059.71  3.61
667.6  252897.60  8964.02  3.54
668.9  253789.18  8876.99  3.50
670.3  255656.75  8832.80  3.45
671.6  256605.75  8799.43  3.43
673.0  257778.38  8803.64  3.42
674.3  259034.10  8840.00  3.41
675.7  260330.48  8899.38  3.42
677.0  261370.68  8971.52  3.43
678.4  262648.13  9080.59  3.46
679.7  263705.33  9210.64  3.49
681.1  264944.15  9391.34  3.54
682.4  265995.60  9629.29  3.62
683.8  267166.90  9951.31  3.72
685.1  268155.00  10384.00  3.87
686.4  269463.60  10973.14  4.07
687.8  270671.25  11773.43  4.35
689.1  271761.50  12849.90  4.73
690.5  273049.95  14308.26  5.24
691.8  273835.40  16216.25  5.92
693.1  275152.20  18689.49  6.79
694.5  276298.75  21718.67  7.86
695.8  277527.25  25287.17  9.11
697.1  278710.25  29336.67  10.53
698.5  279732.10  33805.71  12.09
699.8  280784.53  38618.76  13.75
701.1  281895.60  43674.21  15.49
702.5  282664.25  48804.64  17.27
703.8  283590.00  53982.86  19.04
705.1  284730.23  59140.06  20.77
706.5  285751.13  64165.11  22.45
707.8  286683.45  69040.21  24.08
709.1  287479.03  73706.52  25.64
710.5  288572.95  78286.33  27.13
711.8  289364.80  82620.44  28.55
713.1  290346.00  86844.69  29.91
714.4  291215.70  90879.94  31.21
715.8  292040.80  94734.65  32.44
717.1  293321.40  98595.43  33.61
718.4  294246.40  102190.93  34.73
719.7  295299.03  105683.87  35.79
721.0  295830.00  108833.57  36.79
722.4  296532.50  111916.72  37.74
723.7  297462.45  114923.94  38.63
725.0  298447.43  117806.40  39.47
726.3  299372.70  120513.83  40.26
727.6  299920.50  122924.58  40.99
729.0  300776.00  125321.15  41.67
730.3  301535.40  127543.15  42.30
731.6  302385.30  129673.07  42.88
732.9  303133.60  131630.10  43.42
734.2  303921.75  133482.38  43.92
735.5  304907.53  135306.84  44.38
736.8  305682.60  136925.06  44.79
738.1  306493.60  138474.32  45.18
739.5  307457.65  139973.25  45.53
740.8  308091.30  141262.71  45.85
742.1  308746.05  142482.20  46.15
743.4  309350.00  143614.29  46.42
744.7  310181.18  144789.82  46.68
746.0  311044.50  145888.04  46.90
747.3  311634.73  146788.20  47.10
748.6  312347.50  147697.10  47.29
749.9  312936.00  148519.43  47.46
751.2  313512.35  149269.18  47.61
752.5  314218.40  150051.19  47.75
753.8  314699.18  150666.32  47.88
755.1  315328.00  151302.67  47.98
756.4  315856.00  151867.17  48.08
757.7  316785.18  152605.80  48.17
759.0  318528.85  153661.01  48.24
760.3  319624.80  154399.77  48.31
761.6  321115.20  155298.40  48.36
762.9  321615.25  155700.28  48.41
764.2  321939.20  156025.13  48.46
765.5  322138.00  156279.14  48.51
766.8  322510.40  156581.33  48.55
768.1  322936.40  156928.93  48.59
769.3  323449.70  157289.00  48.63
770.6  324052.30  157685.92  48.66
771.9  324716.88  158085.90  48.68
773.2  325038.00  158315.13  48.71
774.5  325582.40  158642.84  48.73
775.8  326149.25  158990.98  48.75
777.1  326625.75  159289.48  48.77
778.4  326852.90  159469.49  48.79
779.6  327539.78  159855.39  48.80
780.9  327930.00  160100.00  48.82
782.2  328363.75  160350.93  48.83
783.5  328576.50  160502.62  48.85
784.8  328995.23  160750.90  48.86
786.0  329286.65  160938.70  48.87
787.3  329606.20  161128.02  48.89
788.6  329961.60  161328.50  48.89
789.9  330372.00  161545.87  48.90
791.2  330929.43  161857.42  48.91
792.4  331497.68  162167.91  48.92
793.7  331862.40  162381.26  48.93
795.0  332364.45  162678.92  48.95
796.2  332906.58  162979.45  48.96
797.5  333533.63  163283.56  48.96
798.8  334144.35  163591.61  48.96
800.0  334702.85  163894.35  48.97
801.3  335080.20  164096.85  48.97
802.6  335576.25  164373.86  48.98
803.8  336136.35  164671.09  48.99
805.1  336518.00  164872.75  48.99
806.4  336880.20  165081.86  49.00
807.7  337387.28  165328.91  49.00
808.9  337852.30  165585.73  49.01
810.2  338310.70  165816.20  49.01
811.4  338724.70  166033.10  49.02
812.7  339300.00  166326.49  49.02
814.0  340022.45  166704.53  49.03
815.2  340554.75  167015.90  49.04
816.5  340947.88  167211.72  49.04
817.7  341385.95  167429.23  49.04
819.0  341864.60  167659.06  49.04
820.2  342012.00  167740.57  49.05
821.5  342599.45  168079.61  49.06
822.7  342912.85  168272.08  49.07
824.0  343240.20  168435.52  49.07
825.2  343676.93  168668.04  49.08
826.5  343972.90  168812.27  49.08
827.7  344483.33  169084.59  49.08
829.0  344875.55  169266.01  49.08
830.2  345210.45  169443.96  49.08
831.5  345683.95  169688.50  49.09
832.7  345984.45  169842.15  49.09
834.0  346350.60  170022.54  49.09
835.2  346665.00  170201.01  49.10
836.4  346988.40  170354.17  49.10
837.7  347422.00  170580.30  49.10
838.9  347908.78  170826.91  49.10
840.1  348251.40  171025.65  49.11
841.4  348683.20  171236.48  49.11
842.6  349054.20  171434.80  49.11
843.8  349431.80  171636.61  49.12
845.1  349986.95  171905.86  49.12
846.3  350383.00  172137.85  49.13
847.5  350784.00  172358.60  49.14
848.8  351209.40  172580.91  49.14
850.0  351654.45  172788.70  49.14
851.2  352210.95  173055.35  49.13
852.5  352621.20  173260.94  49.14
853.7  353198.25  173533.93  49.13
854.9  353635.00  173767.46  49.14
856.1  354031.60  173993.49  49.15
857.4  354249.98  174090.63  49.14
858.6  354851.85  174377.54  49.14
859.8  355338.75  174587.14  49.13
861.0  355773.60  174838.11  49.14
862.2  356227.90  175061.11  49.14
863.5  356611.13  175232.48  49.14
864.7  357119.40  175484.57  49.14
865.9  357531.40  175684.65  49.14
867.1  357847.90  175855.55  49.14
868.3  358381.80  176082.84  49.13
869.5  358883.60  176329.34  49.13
870.8  359473.50  176583.86  49.12
872.0  360025.20  176831.23  49.12
873.2  360427.80  177028.35  49.12
874.4  360836.78  177257.51  49.12
875.6  361221.20  177427.19  49.12
876.8  361795.90  177675.79  49.11
878.0  362281.05  177895.91  49.10
879.2  362750.85  178138.30  49.11
880.4  363350.63  178384.07  49.09
881.6  363841.65  178606.29  49.09
882.8  364228.00  178765.41  49.08
884.0  364827.05  179028.86  49.07
885.2  365270.50  179217.04  49.06
886.5  365795.45  179485.46  49.07
887.7  366311.73  179707.05  49.06
888.8  366925.50  180002.99  49.06
890.0  367488.75  180224.67  49.04
891.2  368053.60  180457.28  49.03
892.4  368601.98  180692.30  49.02
893.6  369116.85  180945.30  49.02
894.8  369983.75  181321.59  49.01
896.0  370798.00  181684.21  49.00
897.2  371566.00  182060.05  49.00
898.4  372269.70  182366.80  48.99
899.6  372807.38  182572.68  48.97
900.8  373204.50  182696.50  48.95
902.0  373255.50  182762.27  48.96
903.2  373543.05  182880.13  48.96
904.3  373789.50  183007.17  48.96
905.5  374446.25  183215.19  48.93
906.7  375004.00  183459.24  48.92
907.9  375389.00  183636.83  48.92
909.1  375548.40  183714.88  48.92
910.2  375644.10  183750.49  48.92
911.4  375844.95  183805.05  48.90
912.6  375954.15  183829.90  48.90
913.8  376205.93  183851.70  48.87
915.0  376599.30  183985.90  48.85
916.2  376701.00  183992.71  48.84
917.3  376560.23  183939.49  48.85
918.5  376509.40  183973.79  48.86
919.7  376759.20  184007.13  48.84
920.8  376726.80  183967.24  48.83
922.0  376895.75  183914.50  48.80
923.2  377149.50  183937.00  48.77
924.4  377210.25  183920.14  48.76
925.5  377266.70  183980.07  48.77
926.7  377720.88  184151.90  48.75
927.9  378562.80  184413.20  48.71
929.0  379941.30  184988.57  48.69
930.2  382154.60  185938.16  48.66
931.4  384288.30  187007.46  48.66
932.5  386835.05  188143.28  48.64
933.7  388115.70  188671.15  48.61
934.9  388500.00  188823.33  48.60
936.0  388155.63  188462.39  48.55
937.2  385994.85  187336.67  48.53
938.3  384277.85  186412.05  48.51
939.5  382561.20  185491.54  48.49
940.7  382477.50  185406.43  48.48
941.8  383829.90  185950.50  48.45
943.0  385208.25  186454.14  48.40
944.2  385939.45  186685.70  48.37
945.3  385505.25  186290.93  48.32
946.5  384682.50  185755.63  48.29
947.6  384641.90  185596.50  48.25
948.8  384363.53  185247.68  48.20
949.9  384337.80  185086.00  48.16
951.1  383804.85  184654.88  48.11
952.2  383520.00  184299.43  48.05
953.4  383205.25  183880.10  47.98
954.5  383081.40  183562.97  47.92
955.7  382775.40  183253.20  47.87
956.8  382632.40  182828.48  47.78
958.0  382087.50  182368.33  47.73
959.1  381700.98  181977.34  47.68
960.3  381298.55  181526.93  47.61
961.4  381143.75  181273.64  47.56
962.6  381202.50  181159.67  47.52
963.7  380744.40  180909.66  47.51
964.9  380553.90  180690.19  47.48
966.0  380361.83  180438.88  47.44
967.2  380111.85  180250.93  47.42
968.3  379890.00  180073.03  47.40
969.5  379383.28  179886.54  47.42
970.6  379673.38  179916.92  47.39
971.8  379670.90  179854.62  47.37
972.9  379665.60  179782.13  47.35
974.0  379999.40  179834.72  47.33
975.2  379672.13  179691.66  47.33
976.3  379677.98  179569.81  47.30
977.5  379309.53  179579.10  47.34
978.6  379294.80  179549.64  47.34
979.7  379704.15  179598.00  47.30
980.9  379678.85  179382.26  47.25
982.0  379160.50  179364.17  47.31
983.2  379106.35  179261.69  47.29
984.3  378484.80  179091.47  47.32
985.4  378388.05  179082.74  47.33
986.6  378301.00  178856.59  47.28
987.7  378942.73  179206.58  47.29
988.9  378480.60  178915.71  47.27
990.0  378404.00  179152.81  47.34
993.1  386454.78  181591.64  46.99
996.9  384892.40  181316.79  47.11
1000.7  384718.89  181625.02  47.21
1004.5  384656.67  182020.00  47.32
1008.4  384283.83  182262.41  47.43
1012.2  384175.21  182560.15  47.52
1016.0  383775.60  182704.40  47.61
1019.8  382986.45  182639.51  47.69
1023.7  381579.34  182253.70  47.76
1027.5  379681.55  181597.58  47.83
1031.3  378467.45  181162.99  47.87
1035.1  377276.26  180753.80  47.91
1038.9  376735.33  180623.97  47.94
1042.7  376422.33  180611.77  47.98
1046.5  376317.83  180651.57  48.01
1050.3  376304.03  180719.30  48.02
1054.2  375946.67  180623.51  48.04
1058.0  375580.22  180484.05  48.05
1061.8  375585.64  180514.60  48.06
1065.6  374936.13  180175.21  48.05
1069.4  373951.07  179689.71  48.05
1073.2  372538.33  178956.97  48.04
1077.0  371889.65  178555.34  48.01
1080.8  372196.88  178609.41  47.99
1084.6  372480.85  178629.42  47.96
1088.4  372898.54  178744.57  47.93
1092.2  372469.50  178394.36  47.90
1096.0  371777.97  177887.37  47.85
1099.8  371083.70  177340.42  47.79
1103.6  370128.18  176660.65  47.73
1107.4  368963.77  175837.15  47.66
1111.2  368603.90  175408.71  47.59
1114.9  368123.58  174842.18  47.50
1118.7  367864.20  174318.22  47.39
1122.5  367616.60  173697.69  47.25
1126.3  366765.35  172720.19  47.09
1130.1  366369.12  171793.41  46.89
1133.9  364697.90  170028.57  46.62
1137.7  363115.30  168063.31  46.28
1141.4  361056.80  165627.80  45.87
1145.2  360113.31  163530.68  45.41
1149.0  358809.79  161357.55  44.97
1152.8  357006.10  159125.70  44.57
1156.6  355143.25  157193.93  44.26
1160.3  353344.33  155602.40  44.04
1164.1  351044.07  154050.15  43.88
1167.9  349480.21  153004.00  43.78
1171.7  348161.63  152197.50  43.71
1175.4  346649.30  151357.39  43.66
1179.2  345214.23  150519.01  43.60
1183.0  344918.00  150162.37  43.54
1186.7  345039.57  150025.03  43.48
1190.5  344858.53  149748.33  43.42
1194.3  343933.73  149183.24  43.38
1198.0  342397.83  148410.69  43.34
1201.8  340668.10  147649.94  43.34
1205.6  339667.67  147314.57  43.37
1209.3  339166.75  147307.92  43.43
1213.1  338758.58  147402.04  43.51
1216.8  338154.76  147488.45  43.62
1220.6  337013.60  147347.20  43.72
1224.3  335733.08  147125.08  43.82
1228.1  334184.40  146800.72  43.93
1231.9  332537.98  146354.49  44.01
1235.6  330774.08  145809.78  44.08
1239.4  329196.88  145350.39  44.15
1243.1  327813.07  144903.56  44.20
1246.9  326540.42  144475.04  44.24
1250.6  325525.87  144109.99  44.27
1254.3  324341.33  143647.91  44.29
1258.1  323072.05  143122.55  44.30
1261.8  321613.73  142497.51  44.31
1265.6  320555.08  141993.80  44.30
1269.3  319933.28  141646.94  44.27
1273.1  320308.32  141705.46  44.24
1276.8  319931.20  141372.17  44.19
1280.6  318609.90  140600.32  44.13
1284.3  316552.80  139450.76  44.05
1288.0  315380.68  138644.79  43.96
1291.8  315088.33  138155.74  43.85
1295.5  314470.93  137467.27  43.71
1299.2  313330.53  136492.24  43.56
1302.9  311651.59  135193.93  43.38
1306.7  309852.32  133751.20  43.17
1310.4  308089.63  132209.61  42.91
1314.1  306494.10  130638.22  42.62
1317.9  305048.75  129010.84  42.29
1321.6  303499.12  127213.09  41.92
1325.3  301835.63  125242.30  41.49
1329.0  300546.75  123357.12  41.04
1332.8  298667.60  121121.49  40.55
1336.5  297043.53  118967.80  40.05
1340.2  296948.17  117428.76  39.55
1343.9  296973.13  115923.95  39.04
1347.6  297273.45  114554.64  38.54
1351.4  299026.00  113762.62  38.04
