/*** Spectra Vista SIG Data ***/
name= 48_20221021_QUPH_15_avg.sig
comm= Averaged Ref/Tar of files: HR.102122.0059_moc.sig,HR.102122.0060_moc.sig
data=
337.3  6317.33  501.38  7.94
338.8  6445.40  481.00  7.46
340.3  6805.80  434.82  6.39
341.8  6985.83  453.63  6.49
343.2  7372.48  444.13  6.02
344.7  7814.63  463.73  5.93
346.2  8225.00  460.60  5.60
347.7  8548.20  459.07  5.37
349.2  8845.20  438.48  4.96
350.6  9277.35  438.30  4.72
352.1  9763.50  452.80  4.64
353.6  10320.00  481.60  4.67
355.1  10777.05  452.37  4.20
356.6  11453.20  468.54  4.09
358.0  11968.43  468.61  3.92
359.5  12438.90  487.80  3.92
361.0  13046.00  521.84  4.00
362.5  13726.65  530.61  3.87
364.0  14426.63  531.81  3.69
365.4  15103.73  542.19  3.59
366.9  15710.75  563.42  3.59
368.4  16355.70  598.64  3.66
369.9  17066.00  636.00  3.73
371.3  17911.03  693.33  3.87
372.8  18650.05  696.13  3.73
374.3  19514.60  704.84  3.61
375.8  20284.80  697.29  3.44
377.2  21060.00  716.04  3.40
378.7  21912.80  737.45  3.37
380.2  22671.75  748.70  3.30
381.7  23632.00  780.70  3.30
383.1  24517.13  790.88  3.23
384.6  25393.73  809.66  3.19
386.1  26362.50  833.06  3.16
387.6  27286.43  841.20  3.08
389.0  28204.65  870.26  3.09
390.5  29238.05  894.83  3.06
392.0  30273.75  931.50  3.08
393.4  31338.75  955.58  3.05
394.9  32321.50  977.28  3.02
396.4  33497.20  1001.88  2.99
397.9  34569.00  1022.04  2.96
399.3  35464.68  1045.69  2.95
400.8  36603.60  1080.59  2.95
402.2  37753.65  1110.12  2.94
403.7  38968.50  1154.97  2.96
405.2  40060.90  1189.38  2.97
406.6  41268.30  1223.10  2.96
408.1  42308.03  1241.51  2.93
409.6  43459.40  1266.14  2.91
411.0  44680.90  1312.19  2.94
412.5  45983.70  1354.37  2.95
414.0  47312.48  1398.32  2.96
415.4  48645.90  1439.64  2.96
416.9  49870.73  1463.48  2.93
418.4  51181.93  1518.39  2.97
419.8  52494.75  1562.47  2.98
421.3  53915.40  1614.69  2.99
422.7  55364.40  1662.96  3.00
424.2  56799.08  1691.19  2.98
425.7  58221.63  1752.03  3.01
427.1  59711.50  1792.88  3.00
428.6  61130.90  1855.55  3.04
430.0  62645.83  1906.74  3.04
431.5  64300.28  1955.33  3.04
432.9  65915.13  2003.28  3.04
434.4  67565.83  2051.65  3.04
435.9  69186.30  2102.96  3.04
437.3  70849.13  2167.28  3.06
438.8  72440.18  2233.38  3.08
440.2  74079.08  2278.96  3.08
441.7  75934.33  2343.62  3.09
443.1  77719.50  2400.84  3.09
444.6  79469.85  2461.59  3.10
446.0  81268.08  2542.61  3.13
447.5  83175.00  2625.00  3.16
448.9  84869.63  2696.89  3.18
450.4  86725.00  2780.00  3.21
451.8  88515.38  2849.18  3.22
453.3  90282.30  2931.90  3.25
454.7  92063.93  3000.15  3.26
456.2  93819.60  3076.22  3.28
457.6  95700.15  3160.08  3.30
459.1  97497.75  3231.06  3.31
460.5  99322.95  3290.11  3.31
462.0  101320.20  3361.68  3.32
463.4  103268.90  3440.54  3.33
464.8  105172.20  3512.88  3.34
466.3  107081.63  3600.98  3.36
467.7  109044.80  3672.00  3.37
469.2  110907.75  3752.13  3.38
470.6  112894.25  3813.78  3.38
472.0  114923.08  3891.46  3.39
473.5  116900.65  3971.24  3.40
474.9  119016.00  4071.89  3.42
476.4  121041.20  4164.44  3.44
477.8  123088.00  4267.20  3.47
479.2  125103.60  4343.88  3.47
480.7  127202.33  4425.65  3.48
482.1  129348.60  4523.85  3.50
483.6  131520.60  4620.24  3.51
485.0  133720.50  4733.37  3.54
486.4  135770.70  4840.13  3.56
487.9  137944.75  4960.70  3.60
489.3  140049.98  5082.39  3.63
490.7  142193.10  5229.11  3.68
492.2  144372.00  5379.90  3.73
493.6  146622.30  5552.46  3.79
495.0  148867.88  5751.14  3.86
496.5  150992.10  5964.84  3.95
497.9  153253.38  6191.43  4.04
499.3  155495.00  6463.83  4.16
500.7  157715.90  6780.68  4.30
502.2  160035.75  7146.57  4.47
503.6  162291.00  7551.96  4.65
505.0  164539.93  8015.98  4.87
506.5  166960.40  8553.58  5.12
507.9  169354.55  9170.27  5.41
509.3  171592.88  9846.95  5.74
510.7  174174.00  10625.75  6.10
512.2  176774.03  11497.73  6.50
513.6  179547.10  12465.16  6.94
515.0  182269.15  13539.68  7.43
516.4  185087.00  14697.36  7.94
517.8  187834.25  15946.70  8.49
519.3  190726.40  17272.00  9.06
520.7  193358.50  18650.22  9.65
522.1  195946.40  20074.80  10.25
523.5  198505.00  21529.75  10.85
524.9  201345.15  23010.11  11.43
526.3  203964.75  24420.42  11.97
527.8  206672.50  25865.55  12.52
529.2  209203.20  27308.16  13.05
530.6  211872.60  28725.84  13.56
532.0  214667.05  30093.31  14.02
533.4  217201.90  31411.38  14.46
534.8  219689.25  32664.39  14.87
536.3  222580.25  33912.96  15.24
537.7  225500.75  35099.45  15.57
539.1  228353.13  36247.06  15.87
540.5  231151.50  37395.30  16.18
541.9  234119.38  38542.97  16.46
543.3  236669.90  39640.48  16.75
544.7  239624.00  40783.60  17.02
546.1  242389.00  41907.04  17.29
547.5  245246.40  42992.64  17.53
549.0  248167.20  44045.12  17.75
550.4  251043.98  45036.81  17.94
551.8  254025.48  45979.65  18.10
553.2  256847.93  46781.79  18.21
554.6  259667.55  47458.35  18.28
556.0  262542.00  47999.70  18.28
557.4  265625.20  48468.44  18.25
558.8  268509.30  48816.25  18.18
560.2  271680.00  49128.00  18.08
561.6  274565.78  49292.16  17.95
563.0  277344.60  49331.23  17.79
564.4  280505.40  49393.96  17.61
565.8  283498.35  49349.94  17.41
567.2  286658.88  49243.72  17.18
568.6  289664.78  49006.35  16.92
570.0  292475.63  48604.40  16.62
571.4  295850.15  48175.11  16.28
572.8  298958.00  47674.92  15.95
574.2  301802.03  47122.53  15.61
575.6  304847.63  46645.13  15.30
577.0  307821.53  46187.35  15.00
578.4  311193.75  45836.88  14.73
579.8  314237.63  45496.58  14.48
581.2  317262.75  45198.65  14.25
582.5  320152.50  44932.50  14.03
583.9  323179.90  44728.08  13.84
585.3  326050.20  44554.24  13.66
586.7  329013.30  44421.30  13.50
588.1  331955.10  44344.56  13.36
589.5  335257.80  44368.20  13.23
590.9  338148.23  44385.98  13.13
592.3  341070.53  44466.53  13.04
593.7  344004.15  44602.32  12.97
595.0  346909.20  44767.08  12.90
596.4  350190.25  44993.90  12.85
597.8  352805.60  45134.82  12.79
599.2  355863.30  45295.38  12.73
600.6  358996.28  45416.09  12.65
602.0  361922.40  45433.80  12.55
603.3  364780.00  45338.80  12.43
604.7  367753.18  45169.94  12.28
606.1  370755.90  44875.13  12.10
607.5  374016.38  44529.20  11.91
608.9  377057.45  44052.47  11.68
610.2  380169.90  43527.33  11.45
611.6  383075.00  42938.50  11.21
613.0  385821.10  42330.53  10.97
614.4  388576.38  41719.95  10.74
615.8  391770.20  41205.84  10.52
617.1  394444.38  40689.16  10.32
618.5  397637.33  40295.28  10.13
619.9  400326.45  39949.56  9.98
621.3  403243.43  39719.81  9.85
622.6  406136.25  39575.25  9.74
624.0  408795.38  39501.98  9.66
625.4  411847.05  39560.66  9.61
626.8  414746.80  39678.34  9.57
628.1  417472.30  39834.62  9.54
629.5  420168.88  40056.21  9.53
630.9  422901.10  40277.52  9.52
632.2  425852.98  40490.73  9.51
633.6  428267.78  40571.70  9.47
635.0  431082.18  40552.66  9.41
636.3  434028.53  40380.61  9.30
637.7  436657.48  39996.67  9.16
639.1  439605.65  39454.80  8.98
640.4  442272.00  38719.13  8.75
641.8  445044.60  37859.40  8.51
643.2  447560.70  36885.58  8.24
644.5  450415.00  35875.00  7.96
645.9  452939.55  34812.68  7.69
647.2  455175.88  33780.67  7.42
648.6  457723.60  32902.40  7.19
650.0  460492.20  32134.68  6.98
651.3  463319.10  31501.84  6.80
652.7  467191.50  30966.15  6.63
654.0  469984.30  30335.43  6.45
655.4  472178.70  29622.29  6.27
656.8  473965.28  28803.08  6.08
658.1  476579.78  27905.43  5.86
659.5  479606.40  26922.24  5.61
660.8  482375.25  25864.44  5.36
662.2  485009.58  24776.31  5.11
663.5  487760.23  23732.55  4.87
664.9  489657.93  22779.32  4.65
666.2  491826.40  21968.70  4.47
667.6  494361.00  21332.25  4.32
668.9  496929.60  20856.96  4.20
670.3  499965.38  20502.83  4.10
671.6  502016.00  20284.16  4.04
673.0  504220.80  20190.88  4.00
674.3  506590.70  20192.48  3.99
675.7  509080.50  20295.54  3.99
677.0  511344.75  20496.02  4.01
678.4  513489.60  20753.96  4.04
679.7  515820.60  21180.06  4.11
681.1  518227.30  21771.98  4.20
682.4  520365.00  22611.30  4.35
683.8  522610.88  23789.33  4.55
685.1  524851.80  25478.49  4.85
686.4  527078.50  27827.02  5.28
687.8  529426.05  31093.01  5.87
689.1  531828.50  35398.30  6.66
690.5  533782.45  40887.47  7.66
691.8  536363.03  47734.28  8.90
693.1  538834.50  55871.40  10.37
694.5  541093.40  65043.08  12.02
695.8  543496.90  75006.68  13.80
697.1  545725.60  85450.98  15.66
698.5  547973.63  96228.03  17.56
699.8  550319.20  107116.48  19.46
701.1  552225.98  117791.94  21.33
702.5  554202.38  128233.85  23.14
703.8  556596.28  138354.06  24.86
705.1  558361.00  147875.05  26.48
706.5  560578.05  157034.22  28.01
707.8  562379.78  165637.65  29.45
709.1  564617.08  173915.66  30.80
710.5  566768.33  181780.63  32.07
711.8  568675.00  189225.80  33.27
713.1  570567.00  196372.40  34.42
714.4  572619.73  203275.92  35.50
715.8  574835.88  209947.55  36.52
717.1  577044.95  216388.62  37.50
718.4  579235.88  222537.36  38.42
719.7  581373.90  228441.56  39.29
721.0  583060.90  233903.35  40.12
722.4  584822.70  239167.08  40.90
723.7  586756.85  244174.34  41.61
725.0  588385.50  248872.12  42.30
726.3  590644.60  253531.20  42.92
727.6  592286.25  257738.55  43.52
729.0  594074.25  261730.49  44.06
730.3  596009.18  265566.07  44.56
731.6  597439.40  268959.98  45.02
732.9  599336.73  272323.94  45.44
734.2  600901.13  275362.73  45.82
735.5  602580.00  278273.27  46.18
736.8  604538.38  281129.91  46.50
738.1  606310.50  283721.75  46.79
739.5  608002.50  286141.47  47.06
740.8  609863.93  288437.71  47.30
742.1  611388.93  290495.25  47.51
743.4  613038.65  292493.53  47.71
744.7  614852.00  294460.60  47.89
746.0  616315.88  296127.57  48.05
747.3  617820.70  297732.82  48.19
748.6  619352.50  299255.08  48.32
749.9  621022.13  300786.53  48.43
751.2  622200.85  302037.07  48.54
752.5  623628.15  303331.84  48.64
753.8  624793.95  304449.12  48.73
755.1  626301.58  305689.14  48.81
756.4  627356.50  306644.56  48.88
757.7  629323.75  307987.08  48.94
759.0  632830.05  310018.15  48.99
760.3  635405.30  311578.51  49.04
761.6  638106.33  313170.06  49.08
762.9  639435.50  314053.85  49.11
764.2  640111.55  314616.85  49.15
765.5  640925.73  315196.21  49.18
766.8  641361.05  315594.07  49.21
768.1  642385.80  316234.17  49.23
769.3  643573.35  316970.82  49.25
770.6  644870.00  317746.03  49.27
771.9  645974.68  318421.62  49.29
773.2  647282.03  319167.23  49.31
774.5  648124.80  319687.11  49.32
775.8  649113.20  320245.73  49.34
777.1  650199.05  320891.08  49.35
778.4  651393.00  321582.08  49.37
779.6  652596.60  322276.68  49.38
780.9  653198.18  322670.39  49.40
782.2  654080.90  323202.67  49.41
783.5  654919.75  323701.60  49.43
784.8  655612.13  324117.15  49.44
786.0  656323.88  324567.57  49.45
787.3  657085.45  325002.58  49.46
788.6  657931.50  325472.75  49.47
789.9  658574.70  325861.02  49.48
791.2  659762.05  326567.21  49.50
792.4  660790.63  327157.60  49.51
793.7  662261.18  327926.42  49.52
795.0  663234.60  328459.04  49.52
796.2  664516.40  329155.87  49.53
797.5  665581.25  329752.25  49.54
798.8  666848.88  330486.63  49.56
800.0  667870.00  331072.00  49.57
801.3  668989.13  331666.65  49.58
802.6  669960.00  332222.40  49.59
803.8  671005.13  332795.19  49.60
805.1  671967.00  333324.00  49.60
806.4  672901.23  333839.22  49.61
807.7  673826.70  334404.26  49.63
808.9  674950.50  334995.84  49.63
810.2  675756.90  335430.90  49.64
811.4  676813.20  336018.96  49.65
812.7  678166.05  336711.48  49.65
814.0  679301.70  337387.05  49.67
815.2  680604.75  338128.05  49.68
816.5  681625.00  338701.13  49.69
817.7  682425.00  339106.25  49.69
819.0  683114.60  339499.16  49.70
820.2  683918.10  339933.78  49.70
821.5  685015.60  340523.52  49.71
822.7  685877.50  341068.18  49.73
824.0  686840.70  341541.07  49.73
825.2  687558.30  341927.82  49.73
826.5  688290.85  342330.95  49.74
827.7  689370.83  342861.08  49.74
829.0  690276.30  343315.58  49.74
830.2  691247.80  343822.00  49.74
831.5  692017.65  344290.14  49.75
832.7  693017.10  344802.60  49.75
834.0  693701.55  345199.59  49.76
835.2  694716.95  345691.32  49.76
836.4  695477.20  346108.00  49.77
837.7  696290.63  346510.13  49.77
838.9  697533.00  347136.75  49.77
840.1  698565.45  347679.75  49.77
841.4  699516.70  348197.38  49.78
842.6  700345.80  348758.06  49.80
843.8  701257.70  349252.02  49.80
845.1  702079.95  349692.75  49.81
846.3  703119.90  350136.15  49.80
847.5  704063.75  350649.00  49.80
848.8  704960.80  351259.90  49.83
850.0  706155.20  351889.12  49.83
851.2  707099.35  352408.99  49.84
852.5  708455.40  353032.96  49.83
853.7  709216.43  353486.57  49.84
854.9  710344.05  354061.50  49.84
856.1  711513.60  354645.06  49.84
857.4  712335.08  355214.90  49.87
858.6  713493.20  355687.36  49.85
859.8  714646.50  356348.42  49.86
861.0  715870.40  356851.39  49.85
862.2  716866.50  357406.14  49.86
863.5  717809.58  357951.88  49.87
864.7  718606.25  358455.00  49.88
865.9  719897.00  359047.18  49.87
867.1  720715.63  359432.50  49.87
868.3  722046.10  360103.44  49.87
869.5  723058.90  360719.72  49.89
870.8  724280.40  361290.96  49.88
872.0  725297.30  361790.31  49.88
873.2  726288.40  362276.62  49.88
874.4  727174.75  362757.66  49.89
875.6  728467.90  363379.54  49.88
876.8  729828.00  364113.75  49.89
878.0  731007.55  364644.91  49.88
879.2  732155.15  365175.30  49.88
880.4  733222.00  365731.20  49.88
881.6  734226.70  366189.90  49.87
882.8  735636.30  366865.87  49.87
884.0  736526.70  367334.96  49.87
885.2  737948.75  368016.00  49.87
886.5  739142.95  368653.29  49.88
887.7  740212.73  369193.85  49.88
888.8  741586.15  369831.39  49.87
890.0  742533.75  370293.00  49.87
891.2  743596.43  370773.98  49.86
892.4  745120.20  371426.55  49.85
893.6  746960.60  372329.95  49.85
894.8  748339.80  373158.63  49.86
896.0  749820.15  373843.98  49.86
897.2  751580.78  374687.78  49.85
898.4  753690.00  375622.80  49.84
899.6  755185.00  376226.96  49.82
900.8  755610.05  376608.31  49.84
902.0  756114.45  376842.84  49.84
903.2  756350.00  376878.40  49.83
904.3  757282.50  377325.00  49.83
905.5  758686.50  377873.10  49.81
906.7  759889.78  378474.43  49.81
907.9  760875.38  378991.68  49.81
909.1  761897.68  379528.00  49.81
910.2  762142.50  379701.00  49.82
911.4  762250.73  379714.23  49.81
912.6  762905.00  379852.00  49.79
913.8  763985.25  380245.67  49.77
915.0  764161.60  380434.76  49.78
916.2  764490.45  380575.59  49.78
917.3  765148.18  380854.37  49.78
918.5  765292.80  380982.72  49.78
919.7  765390.75  380987.50  49.78
920.8  765432.00  380908.73  49.76
922.0  765675.90  380899.53  49.75
923.2  766224.98  381121.23  49.74
924.4  766804.50  381299.90  49.73
925.5  767441.00  381559.88  49.72
926.7  768053.15  381806.11  49.71
927.9  769517.65  382388.41  49.69
929.0  772831.80  383826.06  49.66
930.2  777217.80  385696.96  49.63
931.4  782072.83  388185.27  49.64
932.5  786756.30  390248.65  49.60
933.7  789304.95  391467.23  49.60
934.9  790597.50  391996.50  49.58
936.0  789829.65  391303.80  49.54
937.2  786590.18  389483.13  49.52
938.3  782645.50  387439.65  49.50
939.5  780390.00  386055.54  49.47
940.7  780117.80  385855.09  49.46
941.8  782772.90  386955.66  49.43
943.0  785187.68  387675.20  49.37
944.2  786900.00  388326.00  49.35
945.3  786253.80  387667.32  49.31
946.5  784105.00  386709.75  49.32
947.6  785020.25  386730.60  49.26
948.8  783986.13  385728.96  49.20
949.9  784525.53  385569.94  49.15
951.1  784202.93  384891.79  49.08
952.2  783489.80  384205.04  49.04
953.4  783530.55  383642.55  48.96
954.5  781856.25  382306.58  48.90
955.7  781897.15  381792.77  48.83
956.8  781955.45  381433.14  48.78
958.0  781062.75  380428.74  48.71
959.1  780192.00  379572.48  48.65
960.3  779775.00  379065.00  48.61
961.4  780711.90  379162.44  48.57
962.6  780040.80  378394.56  48.51
963.7  780836.00  378260.68  48.44
964.9  780873.73  378139.24  48.43
966.0  780651.20  378179.83  48.44
967.2  780897.60  378073.92  48.42
968.3  781725.05  378502.15  48.42
969.5  782371.03  378325.40  48.36
970.6  782612.95  378370.24  48.35
971.8  782675.25  377989.68  48.29
972.9  783639.50  378326.20  48.28
974.0  783907.13  378524.61  48.29
975.2  782510.63  377763.75  48.28
976.3  783570.10  378094.42  48.25
977.5  783130.50  377745.30  48.24
978.6  784327.88  377777.82  48.17
979.7  783921.60  377386.24  48.14
980.9  783757.13  377303.43  48.14
982.0  782711.90  376911.89  48.15
983.2  783270.60  376760.44  48.10
984.3  781083.10  376159.00  48.16
985.4  781328.80  375602.64  48.07
986.6  783141.65  375307.50  47.92
987.7  781528.75  374868.88  47.97
988.9  781874.83  375356.07  48.01
990.0  781255.20  375831.10  48.11
993.1  865990.80  417642.20  48.23
996.9  865486.90  418326.44  48.33
1000.7  864838.05  419007.40  48.45
1004.5  863800.67  419456.11  48.56
1008.4  864681.10  420932.53  48.68
1012.2  865970.67  422366.68  48.77
1016.0  865943.15  423129.08  48.86
1019.8  864426.18  423157.54  48.95
1023.7  862882.79  423087.25  49.03
1027.5  860340.47  422474.42  49.11
1031.3  858583.15  422171.55  49.17
1035.1  857225.93  422041.13  49.23
1038.9  856544.12  422219.88  49.29
1042.7  856073.48  422557.07  49.36
1046.5  855377.25  422604.88  49.41
1050.3  853804.20  422144.55  49.44
1054.2  851806.73  421462.16  49.48
1058.0  850896.00  421252.80  49.51
1061.8  849652.25  420859.78  49.53
1065.6  847613.96  419928.13  49.54
1069.4  845311.35  418866.48  49.55
1073.2  843339.25  417805.38  49.54
1077.0  841916.53  417033.96  49.53
1080.8  841540.33  416677.56  49.51
1084.6  841336.83  416428.84  49.50
1088.4  840791.10  416039.47  49.48
1092.2  839581.17  415255.56  49.46
1096.0  838145.43  414247.60  49.42
1099.8  836477.88  413159.55  49.39
1103.6  834582.23  411826.07  49.35
1107.4  833062.42  410611.92  49.29
1111.2  831617.93  409452.37  49.24
1114.9  830803.50  408483.00  49.17
1118.7  830550.08  407609.09  49.08
1122.5  830603.04  406702.83  48.96
1126.3  828264.15  404306.70  48.81
1130.1  827716.10  402240.15  48.60
1133.9  824284.96  398166.78  48.30
1137.7  821511.40  393829.94  47.94
1141.4  817654.93  388398.88  47.50
1145.2  816643.53  384049.19  47.03
1149.0  814576.05  379359.65  46.57
1152.8  811067.15  374472.33  46.17
1156.6  807447.30  370217.79  45.85
1160.3  804060.30  366798.15  45.62
1164.1  799297.60  363345.36  45.46
1167.9  796187.29  361093.88  45.35
1171.7  793697.30  359307.35  45.27
1175.4  791226.04  357678.50  45.21
1179.2  789271.50  356224.75  45.13
1183.0  789592.00  355808.46  45.06
1186.7  789705.00  355434.33  45.01
1190.5  788443.67  354556.04  44.97
1194.3  785750.00  353081.13  44.94
1198.0  782561.68  351514.95  44.92
1201.8  780010.00  350367.11  44.92
1205.6  778388.54  349862.93  44.95
1209.3  777367.50  349773.50  44.99
1213.1  776199.08  349769.33  45.06
1216.8  774291.20  349634.09  45.16
1220.6  771953.83  349314.22  45.25
1224.3  769541.67  348944.45  45.34
1228.1  767243.86  348702.87  45.45
1231.9  764694.45  348167.74  45.53
1235.6  762081.93  347573.14  45.61
1239.4  759660.87  347001.36  45.68
1243.1  757423.80  346408.80  45.74
1246.9  755432.43  345787.78  45.77
1250.6  753326.78  345159.44  45.82
1254.3  751291.20  344474.40  45.85
1258.1  749120.67  343633.33  45.87
1261.8  746581.50  342551.53  45.88
1265.6  744361.42  341539.89  45.88
1269.3  742359.33  340538.27  45.87
1273.1  742993.93  340662.06  45.85
1276.8  742924.33  340337.87  45.81
1280.6  742025.18  339451.45  45.75
1284.3  739234.63  337612.03  45.67
1288.0  737413.73  336116.09  45.58
1291.8  736079.40  334668.60  45.47
1295.5  734528.33  332992.19  45.33
1299.2  732145.05  330782.40  45.18
1302.9  729216.22  328022.35  44.98
1306.7  726021.45  324950.33  44.76
1310.4  722962.55  321604.82  44.48
1314.1  720373.13  318202.50  44.17
1317.9  717787.53  314466.43  43.81
1321.6  714900.55  310308.23  43.41
1325.3  712029.83  305876.25  42.96
1329.0  709431.80  301312.98  42.47
1332.8  705715.00  296065.83  41.95
