/*** Spectra Vista SIG Data ***/
name= 5_20220926_BENI_47_avg.sig
comm= Averaged Ref/Tar of files: HR.092622.0012_moc.sig,HR.092622.0013_moc.sig,HR.092622.0014_moc.sig
data=
337.3  6016.50  481.32  8.00
338.8  6253.00  474.59  7.59
340.3  6616.75  491.53  7.43
341.8  6895.10  459.67  6.67
343.2  7283.65  438.20  6.02
344.7  7642.88  423.65  5.54
346.2  7978.25  405.77  5.09
347.7  8310.75  411.58  4.95
349.2  8542.80  433.44  5.07
350.6  9058.20  418.82  4.62
352.1  9551.25  415.07  4.35
353.6  10113.60  421.97  4.17
355.1  10644.00  408.02  3.83
356.6  11257.98  433.83  3.85
358.0  11778.45  439.05  3.73
359.5  12255.98  455.28  3.71
361.0  12868.10  442.77  3.44
362.5  13495.95  461.40  3.42
364.0  14200.33  482.77  3.40
365.4  14882.43  501.61  3.37
366.9  15548.23  512.86  3.30
368.4  16195.35  513.12  3.17
369.9  16960.00  537.07  3.17
371.3  17805.98  560.27  3.15
372.8  18598.10  609.55  3.28
374.3  19409.40  624.19  3.22
375.8  20231.98  626.86  3.10
377.2  21007.35  631.80  3.01
378.7  21860.13  632.10  2.89
380.2  22671.75  653.79  2.88
381.7  23579.25  668.17  2.83
383.1  24569.85  688.94  2.80
384.6  25551.45  693.99  2.72
386.1  26520.68  703.00  2.65
387.6  27444.15  722.03  2.63
389.0  28466.78  747.93  2.63
390.5  29498.18  763.03  2.59
392.0  30532.50  786.60  2.58
393.4  31647.00  808.30  2.55
394.9  32677.80  827.97  2.53
396.4  33902.00  870.32  2.57
397.9  34969.80  888.44  2.54
399.3  35908.60  907.58  2.53
400.8  37090.35  928.07  2.50
402.2  38327.85  950.62  2.48
403.7  39578.85  970.30  2.45
405.2  40752.40  1001.91  2.46
406.6  42038.40  1032.84  2.46
408.1  43100.48  1074.21  2.49
409.6  44314.90  1112.15  2.51
411.0  45552.93  1123.94  2.47
412.5  46956.90  1157.03  2.46
414.0  48345.33  1202.34  2.49
415.4  49690.80  1238.40  2.49
416.9  51034.00  1280.85  2.51
418.4  52344.33  1322.23  2.53
419.8  53732.00  1362.15  2.54
421.3  55232.10  1413.72  2.56
422.7  56682.60  1460.16  2.58
424.2  58208.40  1520.76  2.61
425.7  59676.38  1555.95  2.61
427.1  61215.80  1604.59  2.62
428.6  62722.23  1661.38  2.65
430.0  64264.20  1710.57  2.66
431.5  65949.00  1777.92  2.70
432.9  67646.00  1834.92  2.71
434.4  69367.95  1885.30  2.72
435.9  71029.10  1940.36  2.73
437.3  72739.50  2005.75  2.76
438.8  74410.80  2063.46  2.77
440.2  76112.93  2117.29  2.78
441.7  77982.40  2181.16  2.80
443.1  79848.45  2243.52  2.81
444.6  81647.80  2309.64  2.83
446.0  83474.68  2370.42  2.84
447.5  85475.00  2443.33  2.86
448.9  87262.43  2509.12  2.88
450.4  89200.00  2570.00  2.88
451.8  91027.88  2639.80  2.90
453.3  92835.08  2706.11  2.91
454.7  94682.70  2773.02  2.93
456.2  96527.90  2837.75  2.94
457.6  98470.35  2903.58  2.95
459.1  100353.23  2963.52  2.95
460.5  102215.35  3030.13  2.96
462.0  104295.60  3097.20  2.97
463.4  106281.35  3163.95  2.98
464.8  108278.10  3227.28  2.98
466.3  110249.40  3292.32  2.99
467.7  112308.80  3354.67  2.99
469.2  114220.05  3417.28  2.99
470.6  116284.88  3486.47  3.00
472.0  118374.30  3547.24  3.00
473.5  120391.85  3611.21  3.00
474.9  122597.50  3684.35  3.01
476.4  124710.80  3754.85  3.01
477.8  126840.00  3830.40  3.02
479.2  128943.03  3912.29  3.03
480.7  131146.80  3991.10  3.04
482.1  133397.73  4058.43  3.04
483.6  135649.80  4129.20  3.04
485.0  137916.75  4218.63  3.06
486.4  140066.18  4297.35  3.07
487.9  142380.00  4407.00  3.10
489.3  144569.55  4502.52  3.11
490.7  146830.45  4601.31  3.13
492.2  149110.63  4702.68  3.15
493.6  151433.30  4818.55  3.18
495.0  153731.18  4938.70  3.21
496.5  155953.35  5068.98  3.25
497.9  158304.13  5224.78  3.30
499.3  160630.88  5376.12  3.35
500.7  162979.70  5561.89  3.41
502.2  165398.50  5765.43  3.49
503.6  167733.60  5982.16  3.57
505.0  170063.30  6239.05  3.67
506.5  172584.75  6528.43  3.78
507.9  175089.55  6855.24  3.92
509.3  177393.60  7235.19  4.08
510.7  180111.75  7683.26  4.27
512.2  182788.65  8172.43  4.47
513.6  185674.33  8738.92  4.71
515.0  188478.50  9367.14  4.97
516.4  191361.60  10075.89  5.27
517.8  194238.00  10856.40  5.59
519.3  197200.00  11710.51  5.94
520.7  199889.60  12610.53  6.31
522.1  202609.23  13552.24  6.69
523.5  205211.25  14499.81  7.07
524.9  208157.18  15490.85  7.44
526.3  210855.83  16438.95  7.80
527.8  213714.25  17381.10  8.13
529.2  216288.00  18312.96  8.47
530.6  219042.90  19236.12  8.78
532.0  222085.18  20101.77  9.05
533.4  224602.35  20864.21  9.29
534.8  227106.00  21554.61  9.49
536.3  230182.38  22256.36  9.67
537.7  233260.75  22904.93  9.82
539.1  236206.10  23516.22  9.96
540.5  239126.25  24096.30  10.08
541.9  242100.98  24667.38  10.19
543.3  244675.60  25199.00  10.30
544.7  247676.00  25763.47  10.40
546.1  250461.40  26311.97  10.51
547.5  253432.80  26864.64  10.60
549.0  256647.20  27415.84  10.68
550.4  259561.58  27900.60  10.75
551.8  262459.88  28328.23  10.79
553.2  265381.95  28683.47  10.81
554.6  268269.00  28962.89  10.80
556.0  271240.20  29156.26  10.75
557.4  274401.10  29282.19  10.67
558.8  277296.23  29305.69  10.57
560.2  280500.00  29285.33  10.44
561.6  283459.00  29170.31  10.29
563.0  286291.20  28967.64  10.12
564.4  289498.30  28742.09  9.93
565.8  292537.25  28447.31  9.72
567.2  295735.20  28087.68  9.50
568.6  298809.00  27662.85  9.26
570.0  301728.38  27178.02  9.01
571.4  305168.60  26710.05  8.75
572.8  308352.60  26216.43  8.50
574.2  311273.03  25729.55  8.27
575.6  314362.63  25292.60  8.05
577.0  317423.98  24896.85  7.84
578.4  320884.38  24578.75  7.66
579.8  323994.78  24273.67  7.49
581.2  327097.25  24018.13  7.34
582.5  330030.00  23784.00  7.21
583.9  333122.50  23592.87  7.08
585.3  336057.50  23425.17  6.97
586.7  339061.80  23297.12  6.87
588.1  342113.90  23203.69  6.78
589.5  345478.50  23166.92  6.71
590.9  348488.28  23142.02  6.64
592.3  351470.93  23137.68  6.58
593.7  354439.58  23173.62  6.54
595.0  357438.00  23215.84  6.50
596.4  360811.88  23296.27  6.46
597.8  363498.20  23326.27  6.42
599.2  366662.40  23376.08  6.38
600.6  369891.23  23396.01  6.33
602.0  372913.20  23361.04  6.26
603.3  375856.00  23278.67  6.19
604.7  378925.03  23137.44  6.11
606.1  381981.30  22955.59  6.01
607.5  385347.78  22762.57  5.91
608.9  388457.30  22519.42  5.80
610.2  391686.08  22270.05  5.69
611.6  394652.50  21992.67  5.57
613.0  397521.05  21706.83  5.46
614.4  400332.80  21435.23  5.35
615.8  403656.50  21213.63  5.26
617.1  406411.78  20988.11  5.16
618.5  409717.95  20837.42  5.09
619.9  412502.70  20689.12  5.02
621.3  415478.70  20610.03  4.96
622.6  418479.75  20564.70  4.91
624.0  421237.88  20547.90  4.88
625.4  424388.33  20587.34  4.85
626.8  427394.50  20647.73  4.83
628.1  430274.95  20733.44  4.82
629.5  433092.28  20829.48  4.81
630.9  436018.30  20940.37  4.80
632.2  439111.00  21039.11  4.79
633.6  441627.55  21073.65  4.77
635.0  444634.90  21073.22  4.74
636.3  447696.63  21024.10  4.70
637.7  450454.03  20892.55  4.64
639.1  453528.90  20702.59  4.56
640.4  456330.13  20442.43  4.48
641.8  459169.20  20164.32  4.39
643.2  461795.30  19859.34  4.30
644.5  464730.00  19553.33  4.21
645.9  467468.40  19239.83  4.12
647.2  470354.50  18989.74  4.04
648.6  473360.00  18758.51  3.96
650.0  476141.40  18558.24  3.90
651.3  478535.05  18393.61  3.84
652.7  481926.75  18266.40  3.79
654.0  484893.30  18153.90  3.74
655.4  487342.80  18016.81  3.70
656.8  488955.08  17830.89  3.65
658.1  491613.15  17662.40  3.59
659.5  494942.40  17498.88  3.54
660.8  498174.60  17334.80  3.48
662.2  501020.60  17175.72  3.43
663.5  503881.73  17037.88  3.38
664.9  505910.73  16924.36  3.35
666.2  508047.48  16859.70  3.32
667.6  510691.50  16860.60  3.30
668.9  513475.20  16917.12  3.29
670.3  516472.25  16989.93  3.29
671.6  518848.80  17129.60  3.30
673.0  521096.00  17304.85  3.32
674.3  523573.05  17504.67  3.34
675.7  526169.70  17754.72  3.37
677.0  528572.55  18010.37  3.41
678.4  530876.00  18320.43  3.45
679.7  533301.75  18674.71  3.50
681.1  536003.80  19091.40  3.56
682.4  538247.25  19537.70  3.63
683.8  540662.63  20074.45  3.71
685.1  542935.50  20709.94  3.81
686.4  545172.88  21474.83  3.94
687.8  547776.30  22475.50  4.10
689.1  550189.50  23763.97  4.32
690.5  552165.10  25452.90  4.61
691.8  554928.28  27781.67  5.01
693.1  557409.00  30815.40  5.53
694.5  559797.00  34668.67  6.19
695.8  562331.60  39382.44  7.00
697.1  564647.70  44999.35  7.97
698.5  566994.13  51535.67  9.09
699.8  569459.60  58947.20  10.35
701.1  571398.98  67088.07  11.74
702.5  573591.00  75906.25  13.23
703.8  576092.53  85280.93  14.80
705.1  577994.25  94947.26  16.43
706.5  580306.40  104947.93  18.08
707.8  582214.30  115048.85  19.76
709.1  584580.68  125294.54  21.43
710.5  586817.98  135534.49  23.10
711.8  588842.00  145712.67  24.75
713.1  590820.00  155814.80  26.37
714.4  593013.58  165858.51  27.97
715.8  595382.65  175803.43  29.53
717.1  597670.65  185545.00  31.04
718.4  599964.60  195089.47  32.52
719.7  602261.33  204363.84  33.93
721.0  604039.95  213214.47  35.30
722.4  605949.30  221811.84  36.61
723.7  607980.25  230107.26  37.85
725.0  609757.35  237980.97  39.03
726.3  612170.00  245698.96  40.14
727.6  613968.75  252838.60  41.18
729.0  615854.75  259676.90  42.17
730.3  617944.60  266173.65  43.07
731.6  619485.30  272105.97  43.92
732.9  621562.83  277898.53  44.71
734.2  623271.00  283206.55  45.44
735.5  625131.10  288234.10  46.11
736.8  627182.68  293050.38  46.72
738.1  629105.18  297485.21  47.29
739.5  631008.00  301606.80  47.80
740.8  632985.38  305526.65  48.27
742.1  634609.28  309071.53  48.70
743.4  636439.30  312449.76  49.09
744.7  638421.00  315697.20  49.45
746.0  639991.88  318534.27  49.77
747.3  641627.00  321194.53  50.06
748.6  643274.05  323668.10  50.32
749.9  645143.43  326083.49  50.54
751.2  646515.93  328102.29  50.75
752.5  648198.10  330134.49  50.93
753.8  649608.75  331942.02  51.10
755.1  651258.28  333729.92  51.24
756.4  652440.63  335191.48  51.38
757.7  654557.75  336996.00  51.48
759.0  658366.38  339542.71  51.57
760.3  661231.85  341556.55  51.65
761.6  664172.68  343556.57  51.73
762.9  665665.00  344745.50  51.79
764.2  666491.65  345533.77  51.84
765.5  667443.88  346348.87  51.89
766.8  668095.50  346956.11  51.93
768.1  669321.45  347789.40  51.96
769.3  670652.40  348658.53  51.99
770.6  672195.00  349599.69  52.01
771.9  673457.10  350423.87  52.03
773.2  674958.38  351345.15  52.05
774.5  675931.95  351985.18  52.07
775.8  677156.43  352701.39  52.09
777.1  678483.45  353463.76  52.10
778.4  679917.38  354278.50  52.11
779.6  681289.20  355074.32  52.12
780.9  682090.88  355560.30  52.13
782.2  683160.38  356187.05  52.14
783.5  684137.50  356787.17  52.15
784.8  685075.13  357323.40  52.16
786.0  686043.05  357866.87  52.16
787.3  686997.83  358405.76  52.17
788.6  688058.63  358972.28  52.17
789.9  688799.60  359434.43  52.18
791.2  690218.50  360258.73  52.19
792.4  691422.88  360960.78  52.21
793.7  693123.45  361872.73  52.21
795.0  694352.75  362518.71  52.21
796.2  695808.30  363317.31  52.22
797.5  697123.13  364032.75  52.22
798.8  698646.38  364869.40  52.23
800.0  699860.00  365549.33  52.23
801.3  701166.38  366319.80  52.24
802.6  702360.00  366960.00  52.25
803.8  703479.00  367609.13  52.26
805.1  704693.63  368212.70  52.25
806.4  705749.40  368807.44  52.26
807.7  707004.13  369501.29  52.26
808.9  708238.88  370207.54  52.27
810.2  709167.90  370742.96  52.28
811.4  710303.20  371358.13  52.28
812.7  711782.90  372154.23  52.28
814.0  713097.00  372901.76  52.29
815.2  714655.50  373699.46  52.29
816.5  715789.38  374372.83  52.30
817.7  716630.50  374856.33  52.31
819.0  717360.00  375281.76  52.31
820.2  718278.45  375800.10  52.32
821.5  719345.40  376404.45  52.33
822.7  720527.68  377036.66  52.33
824.0  721535.10  377578.67  52.33
825.2  722202.00  378001.26  52.34
826.5  722905.45  378428.15  52.35
827.7  723966.98  379020.04  52.35
829.0  724905.23  379581.62  52.36
830.2  725922.20  380106.75  52.36
831.5  726885.23  380599.83  52.36
832.7  727838.55  381089.16  52.36
834.0  728457.98  381444.12  52.36
835.2  729406.20  382030.47  52.38
836.4  730088.00  382479.15  52.39
837.7  730811.25  382940.25  52.40
838.9  732083.70  383606.93  52.40
840.1  732835.95  384065.44  52.41
841.4  733768.20  384605.04  52.42
842.6  734575.80  385110.32  52.43
843.8  735389.20  385604.96  52.44
845.1  736170.60  386110.78  52.45
846.3  737172.45  386624.98  52.45
847.5  738094.50  387092.77  52.44
848.8  738890.70  387630.80  52.46
850.0  739952.60  388236.80  52.47
851.2  740693.15  388735.42  52.48
852.5  741755.60  389383.56  52.49
853.7  742479.08  389783.25  52.50
854.9  743659.80  390364.78  52.49
856.1  744468.75  390926.61  52.51
857.4  745342.13  391415.31  52.51
858.6  746221.00  391936.91  52.52
859.8  747323.90  392513.24  52.52
861.0  748106.80  393024.71  52.54
862.2  749086.80  393528.52  52.53
863.5  750094.65  394039.10  52.53
864.7  751093.75  394565.00  52.53
865.9  751879.50  395032.33  52.54
867.1  752440.63  395348.33  52.54
868.3  753491.00  395928.87  52.55
869.5  754548.40  396547.77  52.55
870.8  755671.95  397161.24  52.56
872.0  756565.40  397636.22  52.56
873.2  757273.40  398095.28  52.57
874.4  758171.65  398451.06  52.55
875.6  759321.78  399001.26  52.55
876.8  760557.60  399698.20  52.55
878.0  761635.00  400263.50  52.55
879.2  762504.40  400785.09  52.56
880.4  763434.00  401321.60  52.57
881.6  764448.70  401751.12  52.55
882.8  765735.15  402383.65  52.55
884.0  766441.65  402808.81  52.56
885.2  767919.75  403493.30  52.54
886.5  769160.70  404097.77  52.54
887.7  769914.28  404561.35  52.55
888.8  771343.95  405286.72  52.54
890.0  772301.25  405671.00  52.53
891.2  773206.20  406169.14  52.53
892.4  774592.50  406919.26  52.53
893.6  776294.53  407760.73  52.53
894.8  777900.00  408579.01  52.52
896.0  779236.48  409248.86  52.52
897.2  781251.08  410145.12  52.50
898.4  783226.50  411120.92  52.49
899.6  784357.90  411703.41  52.49
900.8  784793.10  411977.89  52.50
902.0  785302.30  412294.36  52.50
903.2  785523.50  412289.99  52.49
904.3  786678.75  412834.50  52.48
905.5  787866.75  413305.20  52.46
906.7  789299.03  413961.59  52.45
907.9  790025.05  414399.74  52.45
909.1  791246.23  414917.07  52.44
910.2  791437.50  415075.50  52.45
911.4  791669.25  415080.24  52.43
912.6  792247.50  415289.33  52.42
913.8  793265.20  415791.69  52.42
915.0  793840.20  415999.20  52.40
916.2  793835.55  415992.09  52.40
917.3  794409.13  416292.63  52.40
918.5  794927.10  416439.90  52.39
919.7  795081.50  416336.13  52.36
920.8  795464.58  416416.27  52.35
922.0  795559.88  416401.33  52.34
923.2  795957.45  416545.61  52.33
924.4  796403.38  416744.78  52.33
925.5  797465.20  417009.01  52.29
926.7  798228.70  417333.55  52.28
927.9  799581.45  418002.45  52.28
929.0  802850.40  419554.08  52.26
930.2  807237.80  421640.91  52.23
931.4  812423.75  424095.42  52.20
932.5  817112.45  426237.90  52.16
933.7  819564.83  427460.55  52.16
934.9  821030.00  428127.00  52.15
936.0  820030.95  427457.82  52.13
937.2  817417.35  425702.29  52.08
938.3  813442.50  423391.80  52.05
939.5  811266.30  422089.20  52.03
940.7  811129.55  421805.74  52.00
941.8  814069.75  423058.39  51.97
943.0  816063.83  423888.85  51.94
944.2  818010.00  424560.00  51.90
945.3  817822.80  423990.24  51.84
946.5  816086.25  422804.67  51.81
947.6  817171.25  422913.23  51.75
948.8  815890.28  421964.81  51.72
949.9  816207.53  421793.03  51.68
951.1  816424.93  421410.06  51.62
952.2  816271.80  420702.33  51.54
953.4  816021.45  419993.48  51.47
954.5  814821.00  418680.50  51.38
955.7  814565.75  417928.83  51.31
956.8  814792.33  417685.05  51.26
958.0  813996.45  416626.14  51.18
959.1  813304.80  415981.44  51.15
960.3  813537.50  415510.00  51.07
961.4  814245.20  415498.05  51.03
962.6  813808.80  415056.96  51.00
963.7  813947.40  415062.11  50.99
964.9  814274.68  414779.07  50.94
966.0  814908.50  414755.55  50.90
967.2  815035.20  414914.08  50.91
968.3  816334.10  415528.34  50.90
969.5  816362.53  415527.20  50.90
970.6  817148.60  415676.55  50.87
971.8  817258.58  415323.49  50.82
972.9  817215.00  415491.53  50.84
974.0  818967.95  415790.51  50.77
975.2  817104.38  415217.25  50.82
976.3  817796.68  415767.93  50.84
977.5  816144.83  415519.83  50.91
978.6  817651.65  415707.32  50.84
979.7  817555.20  415331.84  50.80
980.9  817674.10  415681.56  50.84
982.0  816870.15  415234.19  50.83
983.2  816557.00  415247.84  50.85
984.3  814273.60  414512.47  50.91
985.4  814276.40  414041.51  50.85
986.6  815668.30  414673.09  50.84
987.7  814644.38  414695.93  50.91
988.9  815564.23  415315.44  50.92
990.0  813807.50  415091.15  51.01
993.1  852630.00  430514.67  50.49
996.9  852752.30  431837.53  50.64
1000.7  852555.83  432905.29  50.78
1004.5  851442.27  433373.62  50.90
1008.4  852225.41  434720.45  51.01
1012.2  853292.21  436252.61  51.13
1016.0  853246.33  437094.49  51.23
1019.8  852160.31  437351.64  51.32
1023.7  851184.13  437584.85  51.41
1027.5  849261.73  437290.99  51.49
1031.3  848135.28  437194.12  51.55
1035.1  847425.15  437193.92  51.59
1038.9  847132.36  437354.45  51.63
1042.7  846773.90  437462.42  51.66
1046.5  846081.25  437331.61  51.69
1050.3  844431.10  436717.03  51.72
1054.2  842344.53  435833.26  51.74
1058.0  841388.40  435449.60  51.75
1061.8  840281.33  434882.44  51.75
1065.6  838439.63  433966.95  51.76
1069.4  836561.95  432977.46  51.76
1073.2  834944.50  432085.33  51.75
1077.0  833550.67  431186.96  51.73
1080.8  832722.00  430545.70  51.70
1084.6  831772.33  429807.07  51.67
1088.4  830671.58  428906.67  51.63
1092.2  829287.20  427858.92  51.59
1096.0  827912.30  426797.94  51.55
1099.8  826552.38  425665.39  51.50
1103.6  824782.83  424305.65  51.44
1107.4  823342.32  423045.89  51.38
1111.2  821865.62  421716.95  51.31
1114.9  820656.00  420455.00  51.23
1118.7  819860.50  419221.71  51.13
1122.5  819620.86  418073.89  51.01
1126.3  817072.20  415438.80  50.84
1130.1  816572.40  413212.61  50.60
1133.9  813228.54  409022.76  50.30
1137.7  810587.20  404651.38  49.92
1141.4  807085.48  399302.96  49.47
1145.2  806305.56  395014.84  48.99
1149.0  804337.20  390381.80  48.53
1152.8  801141.60  385648.59  48.14
1156.6  797748.23  381643.58  47.84
1160.3  794646.75  378499.33  47.63
1164.1  790025.13  375214.84  47.49
1167.9  786957.71  373128.53  47.41
1171.7  784483.83  371550.30  47.36
1175.4  782130.27  370143.08  47.32
1179.2  780272.25  368880.50  47.28
1183.0  780433.25  368493.03  47.22
1186.7  780313.33  367998.30  47.16
1190.5  778699.33  366860.03  47.11
1194.3  775849.55  365298.08  47.08
1198.0  772903.63  363798.09  47.07
1201.8  770462.00  362721.34  47.08
1205.6  768808.38  362189.19  47.11
1209.3  767518.50  362001.00  47.17
1213.1  766060.13  361848.16  47.23
1216.8  764095.60  361637.98  47.33
1220.6  761884.67  361376.41  47.43
1224.3  759641.67  361064.82  47.53
1228.1  757577.38  360901.75  47.64
1231.9  755287.65  360535.93  47.73
1235.6  752885.65  359983.55  47.81
1239.4  750633.58  359418.03  47.88
1243.1  748498.50  358798.00  47.94
1246.9  746551.39  358173.75  47.98
1250.6  744485.02  357407.53  48.01
1254.3  742600.80  356673.60  48.03
1258.1  740621.33  355815.26  48.04
1261.8  738185.23  354670.51  48.05
1265.6  735737.48  353418.23  48.04
1269.3  733202.13  351991.29  48.01
1273.1  733626.36  351923.61  47.97
1276.8  733972.07  351760.02  47.93
1280.6  733640.07  351171.21  47.87
1284.3  731192.02  349462.07  47.79
1288.0  729171.52  347777.85  47.69
1291.8  727309.80  346029.60  47.58
1295.5  725401.65  344092.76  47.43
1299.2  723067.80  341815.07  47.27
1302.9  720263.87  339129.90  47.08
1306.7  717255.00  336079.45  46.86
1310.4  714318.55  332777.99  46.59
1314.1  711965.63  329499.58  46.28
1317.9  709483.02  325851.96  45.93
1321.6  706738.61  321796.73  45.53
1325.3  703873.13  317387.85  45.09
1329.0  701167.13  312811.64  44.61
1332.8  697341.25  307464.44  44.09
1336.5  693744.13  302129.91  43.55
