/*** Spectra Vista SIG Data ***/
name= 20220926_LIST_50_avg.sig
comm= Averaged Ref/Tar of files: HR.092622.0000_moc.sig,HR.092622.0001_moc.sig,HR.092622.0002_moc.sig
data=
337.3  6484.45  429.75  6.63
338.8  6669.87  439.77  6.59
340.3  7057.87  432.11  6.12
341.8  7197.52  432.02  6.00
343.2  7698.17  431.43  5.60
344.7  8129.50  408.93  5.03
346.2  8444.33  399.50  4.73
347.7  8812.03  399.52  4.53
349.2  9122.40  396.00  4.34
350.6  9545.20  403.51  4.23
352.1  10046.50  404.28  4.02
353.6  10641.07  406.25  3.82
355.1  11131.85  392.81  3.53
356.6  11800.27  415.24  3.52
358.0  12327.27  428.20  3.47
359.5  12804.75  441.34  3.45
361.0  13520.40  451.81  3.34
362.5  14149.60  444.92  3.14
364.0  14898.08  474.15  3.18
365.4  15564.77  484.75  3.11
366.9  16252.50  500.48  3.08
368.4  16961.47  519.23  3.06
369.9  17702.00  519.91  2.94
371.3  18628.87  555.26  2.98
372.8  19394.67  578.87  2.98
374.3  20233.47  586.12  2.90
375.8  21059.57  603.72  2.87
377.2  21902.40  611.74  2.79
378.7  22790.72  612.03  2.69
380.2  23655.95  622.66  2.63
381.7  24616.67  627.98  2.55
383.1  25589.20  642.74  2.51
384.6  26567.90  665.95  2.51
386.1  27522.45  687.94  2.50
387.6  28495.65  706.01  2.48
389.0  29567.70  718.97  2.43
390.5  30625.38  733.30  2.39
392.0  31740.00  754.07  2.38
393.4  32880.00  763.29  2.32
394.9  33899.40  790.16  2.33
396.4  35116.40  814.42  2.32
397.9  36272.40  825.45  2.28
399.3  37256.82  845.57  2.27
400.8  38485.70  866.88  2.25
402.2  39715.50  884.08  2.23
403.7  40971.70  925.58  2.26
405.2  42166.13  952.73  2.26
406.6  43457.80  987.97  2.27
408.1  44553.30  1006.29  2.26
409.6  45769.25  1022.53  2.23
411.0  47089.35  1051.96  2.23
412.5  48497.80  1081.33  2.23
414.0  49894.60  1116.08  2.24
415.4  51238.80  1161.00  2.27
416.9  52585.03  1197.23  2.28
418.4  53954.73  1228.13  2.28
419.8  55334.53  1265.87  2.29
421.3  56849.10  1310.10  2.30
422.7  58361.33  1348.78  2.31
424.2  59912.70  1398.40  2.33
425.7  61415.75  1445.71  2.35
427.1  62955.47  1488.22  2.36
428.6  64493.70  1529.84  2.37
430.0  66049.32  1574.94  2.38
431.5  67761.63  1619.80  2.39
432.9  69462.00  1672.77  2.41
434.4  71216.28  1732.15  2.43
435.9  72917.07  1791.18  2.46
437.3  74674.25  1843.46  2.47
438.8  76372.67  1886.80  2.47
440.2  78103.32  1934.52  2.48
441.7  80004.55  1987.58  2.48
443.1  81857.70  2049.56  2.50
444.6  83707.57  2112.83  2.52
446.0  85589.33  2173.17  2.54
447.5  87616.67  2238.10  2.55
448.9  89397.67  2297.85  2.57
450.4  91350.00  2364.29  2.59
451.8  93213.75  2423.97  2.60
453.3  95101.40  2488.99  2.62
454.7  96970.95  2552.19  2.63
456.2  98810.37  2610.97  2.64
457.6  100787.40  2672.48  2.65
459.1  102677.05  2726.85  2.66
460.5  104556.82  2779.26  2.66
462.0  106627.20  2843.66  2.67
463.4  108677.22  2899.20  2.67
464.8  110705.70  2952.90  2.67
466.3  112704.20  3009.19  2.67
467.7  114784.00  3072.31  2.68
469.2  116690.70  3126.13  2.68
470.6  118771.33  3185.25  2.68
472.0  120874.40  3242.88  2.68
473.5  122937.52  3306.77  2.69
474.9  125168.83  3371.59  2.69
476.4  127286.93  3436.61  2.70
477.8  129453.33  3496.00  2.70
479.2  131568.03  3563.18  2.71
480.7  133757.80  3631.42  2.71
482.1  136013.37  3704.72  2.72
483.6  138291.00  3778.46  2.73
485.0  140602.35  3855.22  2.74
486.4  142752.02  3935.85  2.76
487.9  145092.00  4027.64  2.78
489.3  147279.40  4109.44  2.79
490.7  149514.23  4205.18  2.81
492.2  151806.25  4310.30  2.84
493.6  154140.67  4428.28  2.87
495.0  156492.70  4556.31  2.91
496.5  158722.20  4692.60  2.96
497.9  161075.42  4842.67  3.01
499.3  163383.25  5015.62  3.07
500.7  165743.67  5204.50  3.14
502.2  168183.37  5416.51  3.22
503.6  170553.60  5658.80  3.32
505.0  172876.92  5934.76  3.43
506.5  175373.13  6245.65  3.56
507.9  177880.58  6611.64  3.72
509.3  180213.00  7004.96  3.89
510.7  182882.70  7472.68  4.09
512.2  185604.80  7987.53  4.30
513.6  188493.03  8576.27  4.55
515.0  191280.95  9223.75  4.82
516.4  194192.93  9937.07  5.12
517.8  197053.83  10710.55  5.44
519.3  200046.93  11545.75  5.77
520.7  202762.20  12419.54  6.13
522.1  205477.57  13323.08  6.48
523.5  208090.47  14235.13  6.84
524.9  211038.15  15167.75  7.19
526.3  213743.25  16062.04  7.51
527.8  216595.83  16951.45  7.83
529.2  219168.00  17814.86  8.13
530.6  221953.80  18661.11  8.41
532.0  224953.52  19465.67  8.65
533.4  227470.13  20165.39  8.87
534.8  230021.55  20808.31  9.05
536.3  233165.07  21463.99  9.21
537.7  236243.50  22067.50  9.34
539.1  239258.72  22647.21  9.47
540.5  242249.50  23194.64  9.57
541.9  245252.80  23733.17  9.68
543.3  247871.93  24219.93  9.77
544.7  250902.67  24746.86  9.86
546.1  253745.33  25254.67  9.95
547.5  256780.80  25778.06  10.04
549.0  260053.33  26304.15  10.11
550.4  262967.25  26779.35  10.18
551.8  265913.38  27205.19  10.23
553.2  268852.05  27566.74  10.25
554.6  271757.70  27850.40  10.25
556.0  274724.80  28057.30  10.21
557.4  277883.60  28193.56  10.15
558.8  280796.38  28236.57  10.06
560.2  284040.00  28259.05  9.95
561.6  287005.58  28191.04  9.82
563.0  289810.73  28062.23  9.68
564.4  293023.73  27917.33  9.53
565.8  296047.83  27708.78  9.36
567.2  299249.95  27446.55  9.17
568.6  302310.45  27112.82  8.97
570.0  305228.08  26708.03  8.75
571.4  308686.07  26310.08  8.52
572.8  311869.33  25881.77  8.30
574.2  314767.25  25452.80  8.09
575.6  317844.25  25062.35  7.89
577.0  320892.73  24712.71  7.70
578.4  324362.50  24435.42  7.53
579.8  327445.83  24166.87  7.38
581.2  330546.00  23938.88  7.24
582.5  333465.00  23725.71  7.11
583.9  336550.20  23556.11  7.00
585.3  339469.60  23401.62  6.89
586.7  342480.60  23284.80  6.80
588.1  345476.87  23200.14  6.72
589.5  348838.30  23173.20  6.64
590.9  351815.83  23151.09  6.58
592.3  354769.20  23162.44  6.53
593.7  357772.10  23199.10  6.48
595.0  360750.80  23257.54  6.45
596.4  364087.08  23351.70  6.41
597.8  366744.47  23400.37  6.38
599.2  369907.20  23471.68  6.35
600.6  373088.10  23526.57  6.31
602.0  376095.20  23522.23  6.25
603.3  378993.33  23469.33  6.19
604.7  382028.32  23377.72  6.12
606.1  385052.40  23232.44  6.03
607.5  388403.33  23067.49  5.94
608.9  391475.70  22845.90  5.84
610.2  394689.90  22604.53  5.73
611.6  397613.33  22332.62  5.62
613.0  400441.42  22042.70  5.50
614.4  403218.38  21752.24  5.39
615.8  406475.87  21513.90  5.29
617.1  409187.23  21276.28  5.20
618.5  412446.75  21107.59  5.12
619.9  415176.70  20955.43  5.05
621.3  418139.80  20848.04  4.99
622.6  421083.00  20789.78  4.94
624.0  423795.50  20760.07  4.90
625.4  426904.60  20794.71  4.87
626.8  429838.50  20864.20  4.85
628.1  432673.50  20953.57  4.84
629.5  435425.67  21050.30  4.83
630.9  438290.23  21148.58  4.83
632.2  441347.82  21226.49  4.81
633.6  443815.88  21220.58  4.78
635.0  446723.32  21179.37  4.74
636.3  449742.42  21064.55  4.68
637.7  452464.63  20848.76  4.61
639.1  455474.80  20577.33  4.52
640.4  458193.25  20224.99  4.41
641.8  461038.80  19849.03  4.31
643.2  463591.90  19430.26  4.19
644.5  466503.33  19030.00  4.08
645.9  469000.23  18637.87  3.97
647.2  471524.90  18287.50  3.88
648.6  474161.87  18006.89  3.80
650.0  476845.20  17786.23  3.73
651.3  479514.37  17615.17  3.67
652.7  483151.00  17485.07  3.62
654.0  486004.17  17331.19  3.57
655.4  488272.40  17139.50  3.51
656.8  489812.05  16919.55  3.45
658.1  492600.85  16703.75  3.39
659.5  495907.20  16465.37  3.32
660.8  499064.30  16203.20  3.25
662.2  501907.72  15943.57  3.18
663.5  504631.23  15689.17  3.11
664.9  506489.17  15454.67  3.05
666.2  508600.95  15290.51  3.01
667.6  511119.00  15178.28  2.97
668.9  513878.40  15152.91  2.95
670.3  516958.17  15165.50  2.93
671.6  519089.07  15223.62  2.93
673.0  521406.93  15332.65  2.94
674.3  523841.27  15492.03  2.96
675.7  526324.80  15695.31  2.98
677.0  528628.85  15940.94  3.02
678.4  530847.87  16236.95  3.06
679.7  533273.60  16596.44  3.11
681.1  535834.50  17022.71  3.18
682.4  538049.50  17523.07  3.26
683.8  540366.00  18140.53  3.36
685.1  542567.60  18904.40  3.48
686.4  544761.32  19868.33  3.65
687.8  547264.20  21134.28  3.86
689.1  549605.93  22801.80  4.15
690.5  551536.63  24999.92  4.53
691.8  554194.30  27940.39  5.04
693.1  556539.00  31713.57  5.70
694.5  558923.00  36366.72  6.51
695.8  561311.93  41872.92  7.46
697.1  563584.33  48161.56  8.55
698.5  565845.33  55162.78  9.75
699.8  568224.27  62767.39  11.05
701.1  570135.30  70774.10  12.41
702.5  572145.17  79058.17  13.82
703.8  574576.15  87553.63  15.24
705.1  576397.70  95949.16  16.65
706.5  578669.55  104376.88  18.04
707.8  580464.62  112631.25  19.40
709.1  582730.60  120846.98  20.74
710.5  584910.53  128939.78  22.04
711.8  586835.33  136862.86  23.32
713.1  588727.33  144672.48  24.57
714.4  590790.62  152406.84  25.80
715.8  592999.17  160087.21  27.00
717.1  595211.10  167615.15  28.16
718.4  597454.65  174999.98  29.29
719.7  599612.40  182215.44  30.39
721.0  601370.42  189105.76  31.45
722.4  603155.70  195822.22  32.47
723.7  605130.00  202361.49  33.44
725.0  606796.37  208550.39  34.37
726.3  609105.47  214677.30  35.24
727.6  610768.00  220331.29  36.07
729.0  612609.90  225729.80  36.85
730.3  614519.52  230901.67  37.57
731.6  616028.00  235618.09  38.25
732.9  617963.88  240240.65  38.88
734.2  619550.25  244463.21  39.46
735.5  621296.50  248483.82  39.99
736.8  623270.55  252326.58  40.48
738.1  625066.20  255863.65  40.93
739.5  626751.20  259141.64  41.35
740.8  628687.77  262269.65  41.72
742.1  630257.47  265072.62  42.06
743.4  631931.07  267760.33  42.37
744.7  633766.00  270335.33  42.66
746.0  635174.47  272555.86  42.91
747.3  636723.27  274642.20  43.13
748.6  638242.33  276565.31  43.33
749.9  639957.68  278466.36  43.51
751.2  641265.50  280046.94  43.67
752.5  642760.77  281624.74  43.81
753.8  644032.20  283026.26  43.95
755.1  645560.17  284451.31  44.06
756.4  646646.78  285580.17  44.16
757.7  648622.33  287060.98  44.26
759.0  652174.20  289153.37  44.34
760.3  654856.83  290796.00  44.41
761.6  657682.05  292436.65  44.46
762.9  659046.67  293401.17  44.52
764.2  659712.70  294044.78  44.57
765.5  660523.80  294688.04  44.61
766.8  661044.27  295164.73  44.65
768.1  662056.50  295840.80  44.69
769.3  663229.53  296569.78  44.72
770.6  664580.43  297363.66  44.74
771.9  665673.17  298023.94  44.77
773.2  667085.25  298797.67  44.79
774.5  667931.10  299337.83  44.82
775.8  668937.18  299933.80  44.84
777.1  670043.75  300581.49  44.86
778.4  671254.42  301263.50  44.88
779.6  672520.40  301936.06  44.90
780.9  673145.10  302355.45  44.92
782.2  674019.98  302882.29  44.94
783.5  674816.50  303382.05  44.96
784.8  675515.75  303824.25  44.98
786.0  676319.73  304270.65  44.99
787.3  677109.27  304727.36  45.00
788.6  677891.50  305209.78  45.02
789.9  678493.27  305596.30  45.04
791.2  679789.67  306291.49  45.06
792.4  680845.92  306864.12  45.07
793.7  682333.67  307636.75  45.09
795.0  683272.30  308179.95  45.10
796.2  684571.87  308858.02  45.12
797.5  685700.83  309436.73  45.13
798.8  687056.42  310121.08  45.14
800.0  688146.67  310680.00  45.15
801.3  689330.25  311310.00  45.16
802.6  690288.00  311835.43  45.17
803.8  691316.50  312388.60  45.19
805.1  692307.25  312906.35  45.20
806.4  693278.57  313416.98  45.21
807.7  694332.72  313952.95  45.22
808.9  695459.20  314561.48  45.23
810.2  696295.60  315010.60  45.24
811.4  697327.47  315575.24  45.25
812.7  698687.50  316213.61  45.26
814.0  699945.40  316855.00  45.27
815.2  701363.40  317533.50  45.27
816.5  702461.67  318107.50  45.28
817.7  703262.83  318545.24  45.30
819.0  703923.73  318948.67  45.31
820.2  704747.80  319394.23  45.32
821.5  705853.47  319951.56  45.33
822.7  706839.82  320466.40  45.34
824.0  707801.90  320940.41  45.34
825.2  708576.70  321316.17  45.35
826.5  709289.13  321678.28  45.35
827.7  710323.87  322213.22  45.36
829.0  711315.85  322709.97  45.37
830.2  712253.73  323182.47  45.37
831.5  713287.20  323652.75  45.37
832.7  714224.40  324130.50  45.38
834.0  714969.90  324461.25  45.38
835.2  715944.70  324999.07  45.39
836.4  716692.53  325408.65  45.40
837.7  717487.50  325856.79  45.42
838.9  718828.40  326446.69  45.41
840.1  719680.50  326943.73  45.43
841.4  720741.40  327477.50  45.44
842.6  721644.47  327966.87  45.45
843.8  722507.93  328433.74  45.46
845.1  723362.20  328923.73  45.47
846.3  724318.70  329395.00  45.48
847.5  725348.00  329897.29  45.48
848.8  726360.23  330395.16  45.49
850.0  727613.87  331041.20  45.50
851.2  728534.20  331556.72  45.51
852.5  729723.47  332178.88  45.52
853.7  730575.00  332552.83  45.52
854.9  731814.20  333145.06  45.52
856.1  732954.30  333685.86  45.53
857.4  733847.80  334185.20  45.54
858.6  734859.07  334701.73  45.55
859.8  736019.53  335299.68  45.56
861.0  737083.43  335835.53  45.56
862.2  738206.00  336380.20  45.57
863.5  739380.37  336883.62  45.56
864.7  740408.33  337374.40  45.57
865.9  741412.50  337906.88  45.58
867.1  742110.42  338274.11  45.58
868.3  743306.02  338873.18  45.59
869.5  744551.73  339443.96  45.59
870.8  745915.80  340057.07  45.59
872.0  747062.35  340562.45  45.59
873.2  747977.90  341026.81  45.59
874.4  748830.83  341443.00  45.60
875.6  749986.50  342052.31  45.61
876.8  751488.10  342705.16  45.60
878.0  752560.20  343221.90  45.61
879.2  753864.43  343770.68  45.60
880.4  754857.33  344284.00  45.61
881.6  755885.80  344786.65  45.61
882.8  757289.33  345379.65  45.61
884.0  758189.25  345831.23  45.61
885.2  759730.00  346458.79  45.60
886.5  761155.97  347062.37  45.60
887.7  762220.50  347557.55  45.60
888.8  763662.57  348228.47  45.60
890.0  764645.00  348670.00  45.60
891.2  765881.35  349180.74  45.59
892.4  767287.40  349781.14  45.59
893.6  769072.88  350564.60  45.58
894.8  770769.25  351295.94  45.58
896.0  772326.60  351980.57  45.57
897.2  774100.80  352893.28  45.59
898.4  776097.00  353778.40  45.58
899.6  777530.20  354350.73  45.57
900.8  778214.67  354555.56  45.56
902.0  778768.77  354839.85  45.56
903.2  779112.53  354918.52  45.55
904.3  780243.75  355450.18  45.56
905.5  781407.00  355975.71  45.56
906.7  782587.68  356509.05  45.56
907.9  783751.37  356944.16  45.54
909.1  784957.25  357395.68  45.53
910.2  785295.00  357592.50  45.54
911.4  785610.15  357623.57  45.52
912.6  786023.33  357837.62  45.53
913.8  787195.97  358225.37  45.51
915.0  787605.20  358399.68  45.50
916.2  787932.80  358501.71  45.50
917.3  788676.72  358709.42  45.48
918.5  789034.90  358830.03  45.48
919.7  789125.83  358816.41  45.47
920.8  789351.75  358846.87  45.46
922.0  789547.18  358864.10  45.45
923.2  790138.25  359049.83  45.44
924.4  790778.67  359190.98  45.42
925.5  791666.13  359381.79  45.40
926.7  792535.20  359585.19  45.37
927.9  793799.95  360077.33  45.36
929.0  796964.40  361316.31  45.34
930.2  801333.87  363213.41  45.33
931.4  806496.63  365291.41  45.29
932.5  811166.40  367164.86  45.26
933.7  813937.55  368214.90  45.24
934.9  815202.50  368581.67  45.21
936.0  814340.85  367886.85  45.18
937.2  811229.82  366264.09  45.15
938.3  807640.17  364208.00  45.10
939.5  805498.20  363051.00  45.07
940.7  805616.35  362722.62  45.02
941.8  808326.13  363807.04  45.01
943.0  810199.75  364393.28  44.98
944.2  812276.00  364849.71  44.92
945.3  811632.80  364184.23  44.87
946.5  810442.50  363063.33  44.80
947.6  811174.83  363065.72  44.76
948.8  810054.15  362247.35  44.72
949.9  810531.17  361966.85  44.66
951.1  810651.82  361385.07  44.58
952.2  809988.58  360484.92  44.50
953.4  809773.20  359700.84  44.42
954.5  808340.75  358386.00  44.34
955.7  808118.00  357594.26  44.25
956.8  808808.72  357265.20  44.17
958.0  807617.40  356294.31  44.12
959.1  807105.60  355492.80  44.05
960.3  806908.33  355023.81  44.00
961.4  807318.13  354809.75  43.95
962.6  807216.00  354219.43  43.88
963.7  807522.80  354129.60  43.85
964.9  808033.08  354107.90  43.82
966.0  808333.87  354090.97  43.81
967.2  808278.80  353974.40  43.79
968.3  809741.90  354409.23  43.77
969.5  810130.75  354536.74  43.76
970.6  810514.63  354499.11  43.74
971.8  810584.60  354327.40  43.71
972.9  811302.33  354579.00  43.70
974.0  811470.67  354640.40  43.70
975.2  810416.25  353976.43  43.68
976.3  811728.13  354541.54  43.68
977.5  810770.40  354127.08  43.68
978.6  811149.45  354215.09  43.67
979.7  811230.93  353994.67  43.64
980.9  811562.93  354185.76  43.64
982.0  811339.77  353758.64  43.60
983.2  811356.00  353965.20  43.63
984.3  809110.63  353505.17  43.69
985.4  808785.13  353122.07  43.66
986.6  809830.18  353623.06  43.67
987.7  808904.33  353107.18  43.65
988.9  810417.23  353337.64  43.60
990.0  809861.77  353424.97  43.64
993.1  857025.00  371691.43  43.37
996.9  856945.40  372919.67  43.52
1000.7  856649.90  373891.91  43.65
1004.5  855690.47  374503.66  43.77
1008.4  856299.70  375915.77  43.90
1012.2  857447.33  377431.47  44.02
1016.0  857183.33  378359.76  44.14
1019.8  855976.36  378749.45  44.25
1023.7  854855.98  378992.62  44.33
1027.5  852739.00  378802.57  44.42
1031.3  851385.73  378865.38  44.50
1035.1  850464.15  379017.57  44.57
1038.9  849948.48  379297.04  44.63
1042.7  849483.23  379556.56  44.68
1046.5  848695.75  379548.63  44.72
1050.3  846987.40  379083.06  44.76
1054.2  844779.65  378418.43  44.79
1058.0  843782.40  378124.97  44.81
1061.8  842438.67  377774.10  44.84
1065.6  840530.83  376928.26  44.84
1069.4  838484.17  376025.35  44.85
1073.2  836743.38  375174.89  44.84
1077.0  835169.87  374324.34  44.82
1080.8  834350.00  373722.90  44.79
1084.6  833468.17  373073.64  44.76
1088.4  832347.00  372363.75  44.74
1092.2  830795.23  371369.60  44.70
1096.0  829337.17  370345.05  44.66
1099.8  827824.88  369224.96  44.60
1103.6  825976.35  367935.17  44.55
1107.4  824463.87  366693.44  44.48
1111.2  822859.48  365414.60  44.41
1114.9  821701.50  364159.07  44.32
1118.7  820776.75  362904.81  44.21
1122.5  820586.33  361644.85  44.07
1126.3  817969.95  359074.35  43.90
1130.1  817283.70  356750.82  43.65
1133.9  813868.65  352525.12  43.31
1137.7  811280.80  347972.51  42.89
1141.4  807596.90  342411.21  42.40
1145.2  806588.02  337674.90  41.86
1149.0  804561.00  332766.62  41.36
1152.8  801197.05  327923.38  40.93
1156.6  797748.23  323895.29  40.60
1160.3  794536.65  320878.59  40.39
1164.1  789805.67  317968.01  40.26
1167.9  786686.25  316101.60  40.18
1171.7  784108.87  314688.86  40.13
1175.4  781704.73  313511.69  40.11
1179.2  779793.00  312432.96  40.07
1183.0  779948.38  312136.36  40.02
1186.7  779776.67  311742.00  39.98
1190.5  778169.75  310842.72  39.95
1194.3  775220.95  309525.63  39.93
1198.0  772228.60  308360.32  39.93
1201.8  769692.00  307486.67  39.95
1205.6  767993.04  307096.76  39.99
1209.3  766714.50  307063.39  40.05
1213.1  765219.33  307002.01  40.12
1216.8  763186.13  306859.52  40.21
1220.6  760854.33  306571.00  40.29
1224.3  758495.83  306219.05  40.37
1228.1  756380.15  306008.18  40.46
1231.9  754068.25  305627.68  40.53
1235.6  751590.40  305093.05  40.59
1239.4  749264.52  304635.67  40.66
1243.1  747102.60  304118.87  40.71
1246.9  745001.40  303564.97  40.75
1250.6  742914.98  302916.09  40.77
1254.3  740928.00  302287.20  40.80
1258.1  738872.67  301537.52  40.81
1261.8  736368.73  300552.90  40.82
1265.6  733949.10  299470.49  40.80
1269.3  731480.27  298268.68  40.78
1273.1  731860.34  298122.26  40.73
1276.8  732075.40  297803.76  40.68
1280.6  731515.33  297077.83  40.61
1284.3  728981.25  295382.38  40.52
1288.0  726940.83  293754.55  40.41
1291.8  725155.20  291983.40  40.26
1295.5  723298.38  290089.84  40.11
1299.2  720918.90  287777.94  39.92
1302.9  718043.98  285035.13  39.70
1306.7  714972.83  281965.05  39.44
1310.4  711905.43  278583.77  39.13
1314.1  709471.88  275187.86  38.79
1317.9  706988.10  271426.57  38.39
1321.6  704208.05  267236.13  37.95
1325.3  701297.33  262695.83  37.46
1329.0  698579.93  258047.53  36.94
1332.8  694767.50  252760.89  36.38
1336.5  691155.13  247526.89  35.81
