/*** Spectra Vista SIG Data ***/
name= 34_20220825_QUPA_14_avg.sig
comm= Averaged Ref/Tar of files: HR.082522.0022_moc.sig,HR.082522.0023_moc.sig,HR.082522.0024_moc.sig
data=
337.3  3424.13  253.32  7.40
338.8  3607.50  239.13  6.63
340.3  3748.00  239.16  6.38
341.8  3978.08  239.51  6.02
343.2  4173.60  238.49  5.71
344.7  4307.65  229.09  5.32
346.2  4493.50  219.42  4.88
347.7  4719.00  223.97  4.75
349.2  4914.00  218.88  4.45
350.6  5178.23  217.55  4.20
352.1  5465.93  206.86  3.78
353.6  5725.50  213.49  3.73
355.1  6027.83  214.88  3.56
356.6  6325.58  216.63  3.42
358.0  6667.10  222.39  3.34
359.5  6952.50  226.60  3.26
361.0  7271.78  231.99  3.19
362.5  7640.78  229.74  3.01
364.0  8029.00  241.96  3.01
365.4  8373.80  239.79  2.86
366.9  8757.13  249.41  2.85
368.4  9137.13  256.13  2.80
369.9  9539.83  266.13  2.79
371.3  9959.10  283.78  2.85
372.8  10381.05  295.34  2.84
374.3  10830.63  292.81  2.70
375.8  11265.10  296.19  2.63
377.2  11701.50  304.35  2.60
378.7  12131.90  304.35  2.51
380.2  12562.30  300.77  2.39
381.7  13080.10  311.95  2.38
383.1  13609.75  320.83  2.36
384.6  14134.90  327.30  2.32
386.1  14620.53  334.08  2.29
387.6  15118.95  341.88  2.26
389.0  15624.40  346.10  2.22
390.5  16115.85  355.01  2.20
392.0  16716.40  360.73  2.16
393.4  17288.95  370.35  2.14
394.9  17878.50  379.82  2.12
396.4  18448.88  383.94  2.08
397.9  19039.38  395.36  2.08
399.3  19601.55  408.09  2.08
400.8  20164.33  422.06  2.09
402.2  20842.95  433.48  2.08
403.7  21474.90  441.60  2.06
405.2  22136.13  449.60  2.03
406.6  22736.00  464.88  2.04
408.1  23345.80  470.51  2.02
409.6  23969.40  484.99  2.02
411.0  24659.25  501.01  2.03
412.5  25344.03  510.51  2.01
414.0  26018.88  527.42  2.03
415.4  26771.63  545.14  2.04
416.9  27466.88  559.53  2.04
418.4  28199.25  573.77  2.03
419.8  28919.80  588.29  2.03
421.3  29660.80  604.69  2.04
422.7  30484.80  630.71  2.07
424.2  31303.13  650.89  2.08
425.7  32111.00  670.32  2.09
427.1  32900.18  685.45  2.08
428.6  33712.50  704.73  2.09
430.0  34477.60  719.15  2.09
431.5  35387.18  743.41  2.10
432.9  36302.70  765.15  2.11
434.4  37245.00  789.92  2.12
435.9  38108.00  809.07  2.12
437.3  38981.25  828.40  2.13
438.8  39842.63  852.51  2.14
440.2  40734.93  872.15  2.14
441.7  41754.40  894.35  2.14
443.1  42691.50  921.19  2.16
444.6  43701.60  948.44  2.17
446.0  44672.93  975.47  2.18
447.5  45676.95  1002.98  2.20
448.9  46646.40  1033.97  2.22
450.4  47681.90  1058.69  2.22
451.8  48594.00  1086.55  2.24
453.3  49554.25  1110.75  2.24
454.7  50618.35  1137.32  2.25
456.2  51524.60  1165.06  2.26
457.6  52542.45  1194.24  2.27
459.1  53539.85  1221.33  2.28
460.5  54516.50  1247.82  2.29
462.0  55628.33  1274.96  2.29
463.4  56704.30  1300.85  2.29
464.8  57733.88  1325.66  2.30
466.3  58778.78  1352.81  2.30
467.7  59804.68  1384.44  2.31
469.2  60916.60  1410.18  2.31
470.6  61918.35  1437.38  2.32
472.0  62999.70  1467.55  2.33
473.5  64056.88  1494.02  2.33
474.9  65136.75  1524.07  2.34
476.4  66340.80  1555.20  2.34
477.8  67454.00  1582.02  2.35
479.2  68527.00  1617.10  2.36
480.7  69668.18  1647.94  2.37
482.1  70862.80  1683.36  2.38
483.6  72105.50  1718.31  2.38
485.0  73243.50  1754.37  2.40
486.4  74496.00  1795.89  2.41
487.9  75611.25  1839.96  2.43
489.3  76835.05  1885.36  2.45
490.7  77954.15  1933.04  2.48
492.2  79247.70  1991.36  2.51
493.6  80399.20  2044.86  2.54
495.0  81563.63  2111.29  2.59
496.5  82796.35  2183.36  2.64
497.9  83955.68  2259.67  2.69
499.3  85159.03  2346.60  2.76
500.7  86464.30  2451.43  2.84
502.2  87673.00  2567.38  2.93
503.6  88972.40  2706.42  3.04
505.0  90082.85  2860.52  3.18
506.5  91442.48  3048.43  3.33
507.9  92715.55  3257.83  3.51
509.3  94142.80  3510.28  3.73
510.7  95457.38  3787.74  3.97
512.2  96924.60  4108.69  4.24
513.6  98441.00  4482.67  4.55
515.0  99916.40  4903.70  4.91
516.4  101351.25  5366.79  5.30
517.8  103013.63  5888.91  5.72
519.3  104394.28  6432.68  6.16
520.7  106007.25  7021.25  6.62
522.1  107355.95  7621.03  7.10
523.5  108781.40  8237.27  7.57
524.9  110232.90  8855.46  8.03
526.3  111643.00  9454.05  8.47
527.8  113231.25  10054.44  8.88
529.2  114536.30  10617.88  9.27
530.6  116134.65  11183.20  9.63
532.0  117908.00  11722.67  9.94
533.4  119269.95  12184.92  10.22
534.8  120215.25  12563.25  10.45
536.3  121943.70  12992.39  10.65
537.7  123996.60  13432.08  10.83
539.1  125505.48  13786.63  10.98
540.5  126753.95  14095.52  11.12
541.9  128606.55  14462.39  11.25
543.3  129929.38  14767.27  11.37
544.7  131328.00  15090.78  11.49
546.1  133169.03  15462.64  11.61
547.5  134433.60  15758.93  11.72
549.0  136268.00  16103.37  11.82
550.4  137816.88  16395.49  11.90
551.8  139414.15  16657.57  11.95
553.2  141014.45  16879.51  11.97
554.6  142407.20  17021.14  11.95
556.0  143999.55  17123.43  11.89
557.4  145654.78  17178.44  11.79
558.8  147352.95  17193.81  11.67
560.2  148860.50  17140.69  11.51
561.6  150578.70  17072.77  11.34
563.0  152233.18  16959.72  11.14
564.4  153882.30  16816.70  10.93
565.8  155443.75  16627.42  10.70
567.2  157261.75  16422.52  10.44
568.6  158818.50  16151.34  10.17
570.0  160311.83  15831.39  9.88
571.4  162114.55  15518.20  9.57
572.8  163926.88  15201.20  9.27
574.2  165614.40  14882.99  8.99
575.6  167208.75  14583.64  8.72
577.0  168776.80  14305.15  8.48
578.4  170579.50  14075.53  8.25
579.8  172147.95  13851.96  8.05
581.2  173925.95  13673.49  7.86
582.5  175394.70  13497.34  7.70
583.9  176964.60  13353.10  7.55
585.3  178827.30  13249.70  7.41
586.7  180350.95  13144.36  7.29
588.1  181911.38  13061.97  7.18
589.5  183615.25  13014.63  7.09
590.9  185293.20  12992.13  7.01
592.3  187170.70  13003.95  6.95
593.7  188654.70  13015.90  6.90
595.0  190335.83  13052.92  6.86
596.4  191841.30  13081.97  6.82
597.8  193379.25  13108.62  6.78
599.2  194977.20  13130.35  6.73
600.6  196783.60  13141.50  6.68
602.0  198126.15  13091.80  6.61
603.3  199984.45  13044.65  6.52
604.7  201719.93  12948.53  6.42
606.1  203260.20  12801.93  6.30
607.5  204948.15  12631.43  6.16
608.9  206703.60  12439.20  6.02
610.2  208117.35  12214.80  5.87
611.6  209789.63  11996.98  5.72
613.0  211389.05  11777.99  5.57
614.4  212822.85  11554.09  5.43
615.8  214329.38  11350.67  5.30
617.1  215898.90  11176.20  5.18
618.5  217589.60  11037.98  5.07
619.9  219158.70  10923.96  4.98
621.3  220833.68  10846.25  4.91
622.6  222482.25  10794.39  4.85
624.0  223978.65  10761.44  4.80
625.4  225484.88  10756.04  4.77
626.8  227122.35  10775.31  4.74
628.1  228480.45  10801.52  4.73
629.5  230408.08  10866.21  4.72
630.9  232065.35  10923.56  4.71
632.2  233491.13  10962.62  4.70
633.6  235177.63  10989.68  4.67
635.0  236758.00  10985.72  4.64
636.3  238359.40  10936.57  4.59
637.7  239775.00  10839.68  4.52
639.1  241465.00  10710.00  4.44
640.4  242978.23  10546.08  4.34
641.8  244238.15  10337.14  4.23
643.2  245879.03  10128.33  4.12
644.5  247305.75  9896.02  4.00
645.9  249056.55  9681.86  3.89
647.2  250855.33  9488.81  3.78
648.6  252740.25  9328.11  3.69
650.0  254318.40  9175.68  3.61
651.3  254909.60  9005.22  3.53
652.7  256154.65  8861.74  3.46
654.0  258289.10  8748.67  3.39
655.4  259817.20  8612.42  3.31
656.8  260142.00  8418.02  3.24
658.1  261322.40  8244.64  3.15
659.5  263743.73  8090.02  3.07
660.8  265545.00  7918.29  2.98
662.2  266470.40  7723.52  2.90
663.5  268214.35  7578.68  2.83
664.9  269575.80  7460.54  2.77
666.2  270396.00  7357.29  2.72
667.6  272253.38  7311.97  2.69
668.9  273408.45  7287.80  2.67
670.3  274586.00  7281.04  2.65
671.6  276230.63  7334.54  2.66
673.0  277469.63  7396.91  2.67
674.3  278747.30  7476.96  2.68
675.7  280109.68  7582.03  2.71
677.0  281281.28  7706.23  2.74
678.4  282712.90  7861.46  2.78
679.7  283858.20  8031.78  2.83
681.1  285231.08  8251.85  2.89
682.4  286438.10  8498.61  2.97
683.8  287719.90  8804.64  3.06
685.1  288753.38  9185.46  3.18
686.4  290131.80  9684.70  3.34
687.8  291452.75  10346.46  3.55
689.1  292565.25  11227.56  3.84
690.5  294014.25  12442.78  4.23
691.8  294894.48  14041.52  4.76
693.1  296307.30  16164.77  5.46
694.5  297524.50  18800.60  6.32
695.8  298798.50  21945.30  7.34
697.1  300049.75  25550.63  8.52
698.5  301183.60  29565.78  9.82
699.8  302325.78  33903.23  11.21
701.1  303527.55  38492.65  12.68
702.5  304334.80  43181.32  14.19
703.8  305370.00  47935.71  15.70
705.1  306572.18  52713.27  17.19
706.5  307723.38  57430.87  18.66
707.8  308765.25  62054.67  20.10
709.1  309692.40  66554.01  21.49
710.5  310897.95  71004.98  22.84
711.8  311798.60  75269.08  24.14
713.1  312869.00  79479.32  25.40
714.4  313850.20  83551.94  26.62
715.8  314742.20  87482.69  27.80
717.1  316140.75  91446.83  28.93
718.4  317161.60  95161.17  30.00
719.7  318335.90  98800.10  31.04
721.0  318870.00  102127.71  32.03
722.4  319691.35  105380.66  32.96
723.7  320724.00  108562.10  33.85
725.0  321831.45  111627.36  34.69
726.3  322836.80  114502.37  35.47
727.6  323453.08  117081.38  36.20
729.0  324411.68  119640.99  36.88
730.3  325228.13  122011.45  37.52
731.6  326206.65  124285.07  38.10
732.9  327060.30  126377.49  38.64
734.2  327951.25  128363.92  39.14
735.5  329020.65  130300.72  39.60
736.8  329880.30  132018.93  40.02
738.1  330752.10  133645.16  40.41
739.5  331753.53  135215.61  40.76
740.8  332492.88  136572.83  41.08
742.1  333298.08  137873.11  41.37
743.4  334075.00  139092.38  41.64
744.7  335154.78  140331.68  41.87
746.0  336115.65  141434.17  42.08
747.3  336700.28  142316.22  42.27
748.6  337505.25  143224.93  42.44
749.9  338286.00  144074.17  42.59
751.2  339087.05  144871.50  42.72
752.5  340054.60  145698.34  42.85
753.8  340748.10  146353.76  42.95
755.1  341510.00  146997.07  43.04
756.4  342116.73  147551.85  43.13
757.7  343147.00  148255.00  43.20
759.0  345042.33  149287.69  43.27
760.3  346315.20  150027.43  43.32
761.6  348007.80  150919.79  43.37
762.9  348606.00  151317.36  43.41
764.2  349027.50  151623.26  43.44
765.5  349352.18  151874.84  43.47
766.8  349846.40  152183.74  43.50
768.1  350418.60  152511.01  43.52
769.3  351072.05  152878.69  43.55
770.6  351806.65  153252.25  43.56
771.9  352581.95  153654.11  43.58
773.2  353040.40  153886.35  43.59
774.5  353724.80  154227.00  43.60
775.8  354451.10  154598.63  43.62
777.1  355105.30  154917.54  43.63
778.4  355483.43  155125.24  43.64
779.6  356343.30  155530.26  43.65
780.9  356880.00  155789.14  43.65
782.2  357373.50  156052.55  43.67
783.5  357734.50  156252.95  43.68
784.8  358340.63  156536.98  43.68
786.0  358816.85  156767.57  43.69
787.3  359255.65  156991.90  43.70
788.6  359749.80  157236.72  43.71
789.9  360253.60  157490.51  43.72
791.2  360963.58  157832.39  43.73
792.4  361735.75  158185.16  43.73
793.7  362256.40  158443.87  43.74
795.0  362976.08  158769.40  43.74
796.2  363709.08  159109.09  43.75
797.5  364508.33  159473.74  43.75
798.8  365248.03  159826.22  43.76
800.0  365989.83  160177.35  43.77
801.3  366523.30  160443.53  43.77
802.6  367226.78  160752.46  43.77
803.8  367920.98  161084.59  43.78
805.1  368461.63  161331.70  43.79
806.4  368960.40  161583.19  43.79
807.7  369552.38  161863.96  43.80
808.9  370219.75  162159.61  43.80
810.2  370820.80  162443.53  43.81
811.4  371406.20  162702.12  43.81
812.7  372084.38  163037.80  43.82
814.0  372942.45  163456.42  43.83
815.2  373620.75  163765.77  43.83
816.5  374091.48  163998.01  43.84
817.7  374637.55  164240.38  43.84
819.0  375234.20  164512.46  43.84
820.2  375452.00  164617.83  43.85
821.5  376220.90  164980.47  43.85
822.7  376597.45  165178.72  43.86
824.0  376976.70  165350.16  43.86
825.2  377536.95  165602.07  43.86
826.5  377869.08  165768.66  43.87
827.7  378485.03  166053.07  43.87
829.0  378934.33  166263.62  43.88
830.2  379232.05  166431.75  43.89
831.5  379735.80  166672.81  43.89
832.7  380104.20  166843.88  43.89
834.0  380489.10  167025.44  43.90
835.2  380911.30  167210.59  43.90
836.4  381239.10  167354.38  43.90
837.7  381676.40  167575.04  43.91
838.9  382165.43  167827.69  43.91
840.1  382538.70  168023.78  43.92
841.4  382993.90  168274.43  43.94
842.6  383387.40  168462.23  43.94
843.8  383830.00  168655.26  43.94
845.1  384409.95  168888.62  43.93
846.3  384760.20  169124.83  43.96
847.5  385253.40  169344.92  43.96
848.8  385693.80  169578.02  43.97
850.0  386111.95  169775.53  43.97
851.2  386664.30  170037.54  43.98
852.5  387086.00  170223.53  43.98
853.7  387585.00  170476.50  43.98
854.9  388073.10  170705.45  43.99
856.1  388577.80  170959.69  44.00
857.4  388840.73  171076.61  44.00
858.6  389382.80  171326.86  44.00
859.8  389818.13  171537.29  44.00
861.0  390241.80  171781.41  44.02
862.2  390770.35  172006.92  44.02
863.5  391158.95  172196.68  44.02
864.7  391749.60  172468.56  44.03
865.9  392249.60  172681.54  44.02
867.1  392624.25  172858.48  44.03
868.3  393037.35  173071.73  44.03
869.5  393531.30  173306.22  44.04
870.8  394128.00  173570.49  44.04
872.0  394744.13  173829.55  44.04
873.2  395204.55  174033.35  44.04
874.4  395664.75  174251.94  44.04
875.6  396162.65  174494.52  44.05
876.8  396717.35  174723.23  44.04
878.0  397227.25  174978.28  44.05
879.2  397711.80  175202.26  44.05
880.4  398389.50  175448.44  44.04
881.6  398940.28  175677.58  44.04
882.8  399409.60  175877.84  44.03
884.0  400063.08  176197.44  44.04
885.2  400613.60  176474.12  44.05
886.5  401335.45  176745.50  44.04
887.7  401871.60  176984.01  44.04
888.8  402614.03  177271.70  44.03
890.0  403174.45  177525.13  44.03
891.2  403847.00  177839.03  44.04
892.4  404521.43  178094.95  44.03
893.6  405248.10  178420.01  44.03
894.8  406249.00  178858.30  44.03
896.0  407123.50  179239.83  44.03
897.2  408037.50  179609.42  44.02
898.4  408893.10  179987.59  44.02
899.6  409475.25  180275.56  44.03
900.8  409997.83  180469.53  44.02
902.0  410260.20  180576.42  44.02
903.2  410658.60  180715.83  44.01
904.3  411003.30  180901.64  44.01
905.5  411779.10  181220.28  44.01
906.7  412459.00  181541.63  44.01
907.9  413158.20  181779.08  44.00
909.1  413500.28  181908.76  43.99
910.2  413776.95  181977.49  43.98
911.4  413981.10  182123.82  43.99
912.6  414363.95  182227.76  43.98
913.8  414652.13  182419.94  43.99
915.0  415208.85  182588.84  43.98
916.2  415486.50  182725.21  43.98
917.3  415488.15  182701.24  43.97
918.5  415799.60  182819.00  43.97
919.7  416224.20  182919.65  43.95
920.8  416368.25  182968.92  43.94
922.0  416512.25  183044.40  43.95
923.2  416871.00  183201.20  43.95
924.4  417200.63  183284.94  43.93
925.5  417532.80  183386.80  43.92
926.7  418155.38  183633.92  43.92
927.9  419050.80  183972.51  43.90
929.0  420701.85  184596.17  43.88
930.2  422981.80  185629.38  43.89
931.4  425659.05  186750.63  43.87
932.5  428633.90  187964.37  43.85
933.7  430177.50  188531.55  43.83
934.9  430911.25  188804.83  43.82
936.0  430499.88  188593.69  43.81
937.2  428515.50  187642.36  43.79
938.3  426901.10  186835.49  43.77
939.5  425199.60  186052.32  43.76
940.7  425452.50  186123.50  43.75
941.8  427159.88  186719.03  43.71
943.0  428586.75  187335.03  43.71
944.2  429592.80  187649.39  43.68
945.3  429409.50  187391.84  43.64
946.5  428967.90  186963.74  43.58
947.6  429075.00  186962.28  43.57
948.8  428795.25  186818.36  43.57
949.9  429147.60  186721.60  43.51
951.1  428722.45  186476.79  43.50
952.2  428808.00  186222.86  43.43
953.4  428593.00  185968.39  43.39
954.5  428571.00  185797.34  43.35
955.7  428614.20  185558.40  43.29
956.8  428609.30  185306.31  43.23
958.0  428159.50  185005.24  43.21
959.1  427974.60  184737.64  43.17
960.3  427753.50  184496.90  43.13
961.4  427819.20  184392.04  43.10
962.6  427953.75  184338.07  43.07
963.7  427846.80  184166.65  43.04
964.9  427746.60  184180.63  43.06
966.0  427939.20  184029.53  43.00
967.2  427923.00  183989.28  43.00
968.3  427647.60  183897.77  43.00
969.5  427470.18  183789.94  42.99
970.6  427601.73  183783.09  42.98
971.8  427878.33  183886.87  42.98
972.9  427748.25  183760.77  42.96
974.0  427906.70  183795.18  42.95
975.2  428111.88  183713.68  42.91
976.3  428078.85  183633.09  42.90
977.5  428472.28  183641.78  42.86
978.6  428107.00  183596.36  42.89
979.7  428547.53  183683.45  42.86
980.9  428829.68  183642.43  42.82
982.0  428595.35  183505.45  42.82
983.2  428666.08  183436.67  42.79
984.3  428514.40  183327.93  42.78
985.4  428145.50  183270.52  42.81
986.6  428045.13  183114.53  42.78
987.7  429164.05  183505.06  42.76
988.9  429496.20  183564.24  42.74
990.0  430798.40  183907.12  42.69
993.1  374021.49  159384.35  42.61
996.9  374770.95  160002.10  42.69
1000.7  375953.78  160789.75  42.77
1004.5  376595.00  161348.50  42.84
1008.4  376490.08  161597.84  42.92
1012.2  376581.88  161907.50  42.99
1016.0  376767.60  162222.68  43.06
1019.8  377043.98  162554.70  43.11
1023.7  377140.17  162742.65  43.15
1027.5  376918.53  162838.57  43.20
1031.3  377231.75  163112.40  43.24
1035.1  377074.31  163214.07  43.28
1038.9  377129.13  163351.99  43.31
1042.7  377005.83  163426.31  43.35
1046.5  376896.83  163471.00  43.37
1050.3  376965.70  163573.26  43.39
1054.2  376688.67  163544.75  43.42
1058.0  376218.44  163363.89  43.42
1061.8  376095.50  163381.75  43.44
1065.6  375837.13  163269.78  43.44
1069.4  375900.27  163298.24  43.44
1073.2  375563.48  163108.12  43.43
1077.0  375102.33  162868.47  43.42
1080.8  374643.75  162581.25  43.40
1084.6  373598.87  162056.30  43.38
1088.4  372898.54  161735.27  43.37
1092.2  372060.00  161288.68  43.35
1096.0  371431.27  160938.97  43.33
1099.8  370941.78  160609.12  43.30
1103.6  370268.27  160187.29  43.26
1107.4  369352.38  159634.21  43.22
1111.2  369130.20  159385.80  43.18
1114.9  368480.00  158918.75  43.13
1118.7  367864.20  158422.27  43.07
1122.5  367186.73  157822.48  42.98
1126.3  366045.58  156979.50  42.89
1130.1  365524.58  156231.12  42.74
1133.9  363920.90  154800.60  42.54
1137.7  362498.50  153285.82  42.29
1141.4  360703.42  151446.39  41.99
1145.2  359988.02  149909.69  41.64
1149.0  358884.17  148293.13  41.32
1152.8  357251.60  146581.03  41.03
1156.6  355582.15  145091.28  40.80
1160.3  353806.67  143816.95  40.65
1164.1  351383.33  142450.46  40.54
1167.9  349576.04  141470.54  40.47
1171.7  348279.75  140771.25  40.42
1175.4  347071.10  140168.16  40.39
1179.2  346034.10  139592.92  40.34
1183.0  345746.33  139315.52  40.29
1186.7  345251.67  138962.53  40.25
1190.5  344207.07  138430.02  40.22
1194.3  342966.33  137884.11  40.20
1198.0  341735.90  137377.16  40.20
1201.8  340262.65  136787.89  40.20
1205.6  339020.00  136360.95  40.22
1209.3  338043.90  136116.47  40.27
1213.1  337046.25  135880.57  40.32
1216.8  336034.60  135717.12  40.39
1220.6  334898.67  135499.47  40.46
1224.3  333624.33  135215.35  40.53
1228.1  332341.40  134957.48  40.61
1231.9  331092.08  134656.23  40.67
1235.6  329606.93  134230.32  40.72
1239.4  328247.00  133863.20  40.78
1243.1  327003.83  133476.21  40.82
1246.9  325776.37  133079.84  40.85
1250.6  324808.53  132745.10  40.87
1254.3  323739.81  132364.00  40.89
1258.1  322737.33  131981.55  40.89
1261.8  321439.07  131474.10  40.90
1265.6  320022.40  130868.26  40.89
1269.3  318579.28  130228.20  40.88
1273.1  318531.23  130133.41  40.85
1276.8  318783.20  130129.31  40.82
1280.6  318626.27  129930.29  40.78
1284.3  317274.40  129203.89  40.72
1288.0  315802.97  128399.66  40.66
1291.8  314487.39  127603.82  40.58
1295.5  313067.33  126743.47  40.48
1299.2  311755.61  125887.19  40.38
1302.9  310293.67  124882.27  40.25
1306.7  308719.60  123776.45  40.09
1310.4  307211.35  122582.10  39.90
1314.1  305824.57  121368.13  39.69
1317.9  304577.29  120108.90  39.43
1321.6  303149.71  118685.98  39.15
1325.3  301485.45  117065.03  38.83
1329.0  300118.82  115504.88  38.49
1332.8  298020.80  113559.60  38.10
1336.5  296188.60  111712.74  37.72
1340.2  295810.67  110393.83  37.32
1343.9  295330.63  109037.23  36.92
1347.6  294646.95  107611.46  36.52
1351.4  294825.50  106551.43  36.14
