/*** Spectra Vista SIG Data ***/
name= 39_20220825_BENI_59_avg.sig
comm= Averaged Ref/Tar of files: HR.082522.0035_moc.sig,HR.082522.0036_moc.sig,HR.082522.0037_moc.sig
data=
337.3  3275.25  295.86  9.03
338.8  3415.10  269.36  7.89
340.3  3607.45  262.36  7.27
341.8  3795.18  268.25  7.07
343.2  3996.00  278.24  6.96
344.7  4179.70  265.65  6.36
346.2  4330.10  267.66  6.18
347.7  4522.38  257.67  5.70
349.2  4725.00  252.72  5.35
350.6  4994.60  258.82  5.18
352.1  5323.03  264.71  4.97
353.6  5552.00  260.42  4.69
355.1  5859.45  257.21  4.39
356.6  6161.70  269.69  4.38
358.0  6443.80  267.96  4.16
359.5  6736.20  269.57  4.00
361.0  7062.30  278.73  3.95
362.5  7435.85  280.48  3.77
364.0  7799.60  284.02  3.64
365.4  8177.10  297.59  3.64
366.9  8563.75  316.24  3.69
368.4  8918.93  322.10  3.61
369.9  9323.63  332.54  3.57
371.3  9718.80  343.29  3.53
372.8  10142.10  354.51  3.50
374.3  10588.75  363.96  3.44
375.8  11022.55  368.57  3.34
377.2  11459.40  377.62  3.30
378.7  11889.80  390.95  3.29
380.2  12293.30  391.97  3.19
381.7  12836.88  401.00  3.12
383.1  13340.25  402.45  3.02
384.6  13865.15  411.56  2.97
386.1  14350.28  422.10  2.94
387.6  14822.50  436.85  2.95
389.0  15302.80  447.69  2.93
390.5  15823.80  455.65  2.88
392.0  16399.00  458.47  2.80
393.4  16999.93  474.45  2.79
394.9  17539.20  485.71  2.77
396.4  18112.50  496.80  2.74
397.9  18655.00  510.55  2.74
399.3  19221.68  526.28  2.74
400.8  19815.38  532.68  2.69
402.2  20474.70  550.39  2.69
403.7  21113.78  560.37  2.65
405.2  21733.65  579.02  2.66
406.6  22341.60  592.59  2.65
408.1  22939.00  603.96  2.63
409.6  23552.35  618.36  2.63
411.0  24253.60  635.62  2.62
412.5  24948.35  659.66  2.64
414.0  25611.38  672.18  2.62
415.4  26314.50  696.19  2.65
416.9  27023.55  716.30  2.65
418.4  27732.38  731.35  2.64
419.8  28483.00  747.41  2.62
421.3  29233.00  774.11  2.65
422.7  30032.40  796.75  2.65
424.2  30830.63  817.07  2.65
425.7  31605.70  835.18  2.64
427.1  32393.78  861.78  2.66
428.6  33216.50  880.70  2.65
430.0  33992.00  900.09  2.65
431.5  34894.65  923.93  2.65
432.9  35789.95  946.81  2.65
434.4  36714.98  970.01  2.64
435.9  37562.00  997.60  2.66
437.3  38445.00  1022.21  2.66
438.8  39326.78  1047.47  2.66
440.2  40209.40  1071.58  2.67
441.7  41218.40  1099.06  2.67
443.1  42135.00  1128.40  2.68
444.6  43138.30  1160.29  2.69
446.0  44115.00  1189.99  2.70
447.5  45108.25  1223.57  2.71
448.9  46091.70  1258.79  2.73
450.4  47125.05  1288.34  2.73
451.8  48022.00  1318.32  2.75
453.3  48992.03  1346.10  2.75
454.7  50038.65  1379.23  2.76
456.2  50942.70  1409.66  2.77
457.6  51945.08  1441.03  2.77
459.1  52966.88  1473.62  2.78
460.5  53941.38  1501.06  2.78
462.0  55046.75  1533.35  2.79
463.4  56128.90  1570.67  2.80
464.8  57151.13  1602.10  2.80
466.3  58175.70  1637.85  2.82
467.7  59185.38  1673.18  2.83
469.2  60297.30  1709.64  2.84
470.6  61300.15  1746.21  2.85
472.0  62380.40  1783.91  2.86
473.5  63449.50  1826.30  2.88
474.9  64524.00  1865.26  2.89
476.4  65721.60  1910.40  2.91
477.8  66830.50  1950.18  2.92
479.2  67874.50  1994.37  2.94
480.7  69031.28  2043.04  2.96
482.1  70227.00  2095.94  2.98
483.6  71484.15  2150.71  3.01
485.0  72621.08  2205.16  3.04
486.4  73870.35  2265.64  3.07
487.9  75011.63  2335.82  3.11
489.3  76216.60  2407.61  3.16
490.7  77350.43  2488.10  3.22
492.2  78630.30  2581.60  3.28
493.6  79798.55  2675.79  3.35
495.0  80964.00  2787.11  3.44
496.5  82209.35  2915.15  3.55
497.9  83354.00  3058.27  3.67
499.3  84572.03  3225.43  3.81
500.7  85892.95  3416.38  3.98
502.2  87089.00  3631.09  4.17
503.6  88403.00  3880.82  4.39
505.0  89540.80  4161.44  4.65
506.5  90910.58  4498.92  4.95
507.9  92152.20  4876.72  5.29
509.3  93565.60  5307.98  5.67
510.7  94843.13  5775.06  6.09
512.2  96302.18  6297.59  6.54
513.6  97852.65  6866.13  7.02
515.0  99347.40  7476.39  7.53
516.4  100784.25  8105.67  8.04
517.8  102462.75  8778.75  8.57
519.3  103831.28  9429.71  9.08
520.7  105459.30  10093.25  9.57
522.1  106796.95  10718.43  10.04
523.5  108197.60  11316.72  10.46
524.9  109633.05  11879.55  10.84
526.3  111054.65  12399.22  11.16
527.8  112652.10  12903.94  11.45
529.2  113940.30  13354.66  11.72
530.6  115527.75  13809.25  11.95
532.0  117306.00  14244.27  12.14
533.4  118672.65  14596.87  12.30
534.8  119620.13  14874.47  12.43
536.3  121337.40  15234.29  12.56
537.7  123391.80  15633.12  12.67
539.1  124889.23  15960.05  12.78
540.5  126139.40  16259.24  12.89
541.9  127982.48  16636.62  13.00
543.3  129304.33  16947.12  13.11
544.7  130712.40  17270.89  13.21
546.1  132571.45  17649.78  13.31
547.5  133828.80  17938.35  13.40
549.0  135652.00  18284.30  13.48
550.4  137158.13  18572.90  13.54
551.8  138751.08  18831.33  13.57
553.2  140323.10  19049.34  13.58
554.6  141710.40  19193.45  13.54
556.0  143275.05  19308.57  13.48
557.4  144932.03  19375.21  13.37
558.8  146618.10  19389.20  13.22
560.2  148113.50  19312.72  13.04
561.6  149838.53  19203.45  12.82
563.0  151478.98  19023.60  12.56
564.4  153112.15  18792.46  12.27
565.8  154678.75  18510.57  11.97
567.2  156487.75  18232.82  11.65
568.6  158024.63  17908.33  11.33
570.0  159510.65  17583.00  11.02
571.4  161274.75  17290.41  10.72
572.8  163092.50  17029.30  10.44
574.2  164774.40  16779.31  10.18
575.6  166365.00  16555.50  9.95
577.0  167940.60  16366.70  9.75
578.4  169715.00  16233.53  9.57
579.8  171275.85  16109.81  9.41
581.2  173034.68  16037.44  9.27
582.5  174505.50  15963.48  9.15
583.9  176079.60  15926.18  9.04
585.3  177921.00  15942.02  8.96
586.7  179449.08  15950.88  8.89
588.1  180989.88  15983.06  8.83
589.5  182684.25  16041.90  8.78
590.9  184363.20  16103.47  8.73
592.3  186216.90  16182.33  8.69
593.7  187716.75  16223.03  8.64
595.0  189386.78  16255.26  8.58
596.4  190870.05  16241.27  8.51
597.8  192411.70  16188.84  8.41
599.2  193987.20  16096.71  8.30
600.6  195810.88  15976.29  8.16
602.0  197159.55  15777.83  8.00
603.3  199008.85  15587.15  7.83
604.7  200721.65  15358.46  7.65
606.1  202252.80  15097.73  7.46
607.5  203945.55  14837.42  7.28
608.9  205677.95  14584.44  7.09
610.2  207125.10  14323.23  6.92
611.6  208772.55  14093.62  6.75
613.0  210377.55  13885.21  6.60
614.4  211804.35  13694.18  6.47
615.8  213291.00  13541.64  6.35
617.1  214884.60  13429.64  6.25
618.5  216568.40  13361.16  6.17
619.9  218158.73  13324.47  6.11
621.3  219853.80  13324.00  6.06
622.6  221521.50  13362.78  6.03
624.0  223036.20  13416.78  6.02
625.4  224575.73  13500.50  6.01
626.8  226230.55  13609.66  6.02
628.1  227604.30  13715.22  6.03
629.5  229532.25  13852.99  6.04
630.9  231159.50  13961.27  6.04
632.2  232557.50  14015.21  6.03
633.6  234218.63  14043.48  6.00
635.0  235794.80  14002.77  5.94
636.3  237390.60  13882.84  5.85
637.7  238836.75  13668.00  5.72
639.1  240572.50  13395.67  5.57
640.4  242112.15  13049.54  5.39
641.8  243400.38  12643.19  5.19
643.2  245031.85  12246.01  5.00
644.5  246448.00  11834.00  4.80
645.9  248226.30  11461.49  4.62
647.2  250035.10  11137.62  4.45
648.6  251970.75  10862.87  4.31
650.0  253540.80  10600.05  4.18
651.3  254110.73  10322.55  4.06
652.7  255278.75  10081.41  3.95
654.0  257441.80  9887.57  3.84
655.4  258997.30  9684.80  3.74
656.8  259347.50  9466.55  3.65
658.1  260505.20  9302.68  3.57
659.5  262931.03  9202.43  3.50
660.8  264757.50  9116.57  3.44
662.2  265664.00  9048.75  3.41
663.5  267394.80  9039.73  3.38
664.9  268780.20  9071.10  3.37
666.2  269641.20  9135.41  3.39
667.6  271516.65  9270.19  3.41
668.9  272710.18  9435.19  3.46
670.3  273847.63  9624.66  3.51
671.6  275544.75  9884.19  3.59
673.0  276783.75  10180.45  3.68
674.3  278106.40  10519.18  3.78
675.7  279491.58  10914.30  3.91
677.0  280708.63  11370.77  4.05
678.4  282140.25  11931.68  4.23
679.7  283307.58  12600.40  4.45
681.1  284701.28  13431.27  4.72
682.4  285907.70  14450.45  5.05
683.8  287211.60  15737.30  5.48
685.1  288266.63  17312.29  6.01
686.4  289643.40  19286.09  6.66
687.8  290985.50  21685.91  7.45
689.1  292098.00  24558.49  8.41
690.5  293589.60  27994.55  9.54
691.8  294467.45  31974.86  10.86
693.1  295854.30  36563.57  12.36
694.5  297092.25  41524.60  13.98
695.8  298366.25  46764.90  15.67
697.1  299640.25  52185.03  17.42
698.5  300775.00  57718.53  19.19
699.8  301962.98  63284.85  20.96
701.1  303164.75  68817.11  22.70
702.5  304019.10  74134.52  24.38
703.8  305077.50  79284.00  25.99
705.1  306303.08  84250.51  27.51
706.5  307454.88  88925.07  28.92
707.8  308519.40  93335.73  30.25
709.1  309491.48  97433.53  31.48
710.5  310719.35  101356.35  32.62
711.8  311664.80  104928.93  33.67
713.1  312757.50  108350.39  34.64
714.4  313761.00  111506.80  35.54
715.8  314653.00  114444.45  36.37
717.1  316073.70  117379.22  37.14
718.4  317094.40  119999.57  37.84
719.7  318313.43  122512.30  38.49
721.0  318915.00  124658.57  39.09
722.4  319759.00  126749.90  39.64
723.7  320814.60  128793.08  40.15
725.0  321967.80  130745.80  40.61
726.3  323019.40  132554.99  41.04
727.6  323612.85  134087.09  41.43
729.0  324595.08  135679.32  41.80
730.3  325458.38  137125.50  42.13
731.6  326438.15  138542.39  42.44
732.9  327362.88  139843.29  42.72
734.2  328278.50  141072.35  42.97
735.5  329420.58  142327.59  43.21
736.8  330306.90  143406.22  43.42
738.1  331254.00  144443.86  43.61
739.5  332309.55  145479.62  43.78
740.8  333080.28  146341.39  43.94
742.1  333867.90  147167.75  44.08
743.4  334650.00  147936.67  44.21
744.7  335708.63  148783.29  44.32
746.0  336698.70  149545.69  44.42
747.3  337363.93  150138.05  44.50
748.6  338200.50  150763.55  44.58
749.9  339040.00  151348.72  44.64
751.2  339793.10  151876.21  44.70
752.5  340708.35  152472.93  44.75
753.8  341373.90  152936.58  44.80
755.1  342186.00  153429.22  44.84
756.4  342895.98  153858.09  44.87
757.7  344033.55  154459.36  44.90
759.0  345986.43  155420.34  44.92
760.3  347318.40  156076.30  44.94
761.6  349045.20  156902.51  44.95
762.9  349676.00  157239.56  44.97
764.2  350130.40  157483.36  44.98
765.5  350514.25  157691.13  44.99
766.8  351070.40  157962.06  44.99
768.1  351679.00  158264.49  45.00
769.3  352399.25  158596.19  45.00
770.6  353176.20  158957.77  45.01
771.9  353990.70  159351.36  45.02
773.2  354517.20  159586.36  45.02
774.5  355212.00  159935.56  45.03
775.8  356037.85  160313.68  45.03
777.1  356708.55  160639.82  45.03
778.4  357131.23  160842.09  45.04
779.6  358037.63  161260.67  45.04
780.9  358590.00  161544.57  45.05
782.2  359158.25  161815.60  45.05
783.5  359625.50  162035.75  45.06
784.8  360282.60  162337.37  45.06
786.0  360779.30  162579.27  45.06
787.3  361270.05  162819.28  45.07
788.6  361818.43  163088.88  45.07
789.9  362378.80  163371.15  45.08
791.2  363146.10  163735.60  45.09
792.4  363978.05  164118.15  45.09
793.7  364527.60  164403.71  45.10
795.0  365276.18  164749.01  45.10
796.2  366070.60  165116.39  45.11
797.5  366939.08  165511.26  45.11
798.8  367713.78  165884.92  45.11
800.0  368487.08  166250.94  45.12
801.3  369086.40  166533.08  45.12
802.6  369794.03  166871.25  45.13
803.8  370523.23  167228.02  45.13
805.1  371133.00  167516.53  45.14
806.4  371703.60  167785.14  45.14
807.7  372322.58  168091.78  45.15
808.9  373024.15  168401.99  45.15
810.2  373628.85  168698.45  45.15
811.4  374213.20  168979.11  45.16
812.7  374968.75  169318.81  45.16
814.0  375905.25  169756.68  45.16
815.2  376626.75  170087.11  45.16
816.5  377093.00  170315.91  45.17
817.7  377637.05  170581.36  45.17
819.0  378188.80  170870.23  45.18
820.2  378444.00  170983.16  45.18
821.5  379257.10  171343.74  45.18
822.7  379676.15  171524.12  45.18
824.0  380052.00  171699.22  45.18
825.2  380564.33  171952.24  45.18
826.5  380941.95  172140.43  45.19
827.7  381606.65  172424.39  45.18
829.0  382004.00  172625.71  45.19
830.2  382396.85  172773.59  45.18
831.5  382895.25  172999.35  45.18
832.7  383210.63  173154.70  45.19
834.0  383540.88  173305.35  45.19
835.2  383957.75  173490.58  45.18
836.4  384280.05  173642.56  45.19
837.7  384711.60  173862.24  45.19
838.9  385139.48  174068.47  45.20
840.1  385564.05  174260.16  45.20
841.4  385952.70  174475.99  45.21
842.6  386393.00  174622.06  45.19
843.8  386642.80  174788.73  45.21
845.1  387199.40  175059.89  45.21
846.3  387584.90  175229.85  45.21
847.5  387993.90  175451.16  45.22
848.8  388413.00  175632.07  45.22
850.0  388743.25  175779.19  45.22
851.2  389265.75  176038.10  45.22
852.5  389593.70  176243.24  45.24
853.7  390064.50  176460.86  45.24
854.9  390518.80  176675.86  45.24
856.1  390988.00  176876.80  45.24
857.4  391146.78  176963.82  45.24
858.6  391648.25  177161.46  45.23
859.8  392038.13  177334.39  45.23
861.0  392418.00  177561.87  45.25
862.2  392902.60  177767.37  45.24
863.5  393170.05  177944.04  45.26
864.7  393709.80  178172.85  45.25
865.9  394158.00  178336.83  45.25
867.1  394403.85  178479.76  45.25
868.3  394758.90  178651.98  45.26
869.5  395271.25  178878.39  45.25
870.8  395887.50  179123.66  45.25
872.0  396367.95  179363.07  45.25
873.2  396767.55  179542.55  45.25
874.4  397165.28  179724.54  45.25
875.6  397518.83  179914.66  45.26
876.8  398007.75  180101.44  45.25
878.0  398533.65  180357.85  45.26
879.2  399116.85  180567.42  45.24
880.4  399560.25  180784.51  45.25
881.6  400124.33  180987.28  45.23
882.8  400522.40  181167.10  45.23
884.0  401015.40  181415.03  45.24
885.2  401578.30  181657.60  45.24
886.5  402223.95  181934.34  45.23
887.7  402771.85  182154.01  45.23
888.8  403435.50  182457.86  45.23
890.0  404006.50  182711.14  45.22
891.2  404690.30  182952.37  45.21
892.4  405281.63  183244.40  45.21
893.6  405826.20  183481.60  45.21
894.8  406835.50  183905.92  45.20
896.0  407818.25  184298.74  45.19
897.2  408642.00  184664.20  45.19
898.4  409404.60  185011.01  45.19
899.6  409994.63  185269.47  45.19
900.8  410524.95  185435.55  45.17
902.0  410688.00  185567.42  45.18
903.2  411092.70  185693.51  45.17
904.3  411443.70  185819.44  45.16
905.5  412002.65  186123.47  45.18
906.7  412686.00  186373.49  45.16
907.9  413273.35  186626.35  45.16
909.1  413850.60  186768.82  45.13
910.2  414013.80  186838.56  45.13
911.4  414340.88  186929.95  45.12
912.6  414485.50  186985.57  45.11
913.8  414775.35  187123.62  45.11
915.0  415333.80  187327.42  45.10
916.2  415613.25  187401.69  45.09
917.3  415745.10  187426.67  45.08
918.5  415929.70  187524.90  45.09
919.7  416224.20  187592.81  45.07
920.8  416368.25  187590.59  45.05
922.0  416512.25  187669.53  45.06
923.2  416871.00  187777.20  45.04
924.4  417200.63  187813.09  45.02
925.5  417532.80  187929.85  45.01
926.7  418297.75  188157.38  44.98
927.9  419195.40  188552.89  44.98
929.0  420701.85  189206.87  44.97
930.2  423131.90  190186.71  44.95
931.4  425659.05  191315.28  44.95
932.5  428633.90  192481.95  44.91
933.7  430018.18  193053.34  44.89
934.9  430911.25  193315.75  44.86
936.0  430335.75  193092.28  44.87
937.2  428350.05  192120.54  44.85
938.3  426733.95  191296.01  44.83
939.5  425368.80  190493.42  44.78
940.7  425624.40  190497.94  44.76
941.8  427335.30  191116.35  44.72
943.0  428766.00  191753.11  44.72
944.2  429775.45  192060.82  44.69
945.3  429409.50  191802.56  44.67
946.5  428780.25  191342.24  44.62
947.6  429075.00  191292.08  44.58
948.8  429183.30  191086.91  44.52
949.9  429345.00  190970.40  44.48
951.1  428922.98  190701.18  44.46
952.2  428808.00  190462.17  44.42
953.4  428593.00  190176.55  44.37
954.5  428781.60  190001.31  44.31
955.7  428828.40  189809.76  44.26
956.8  429045.10  189460.94  44.16
958.0  428381.00  189165.22  44.16
959.1  428426.05  188964.07  44.11
960.3  427983.48  188702.15  44.09
961.4  428053.75  188605.01  44.06
962.6  428433.25  188575.93  44.02
963.7  428337.45  188409.60  43.99
964.9  428499.68  188378.72  43.96
966.0  428196.38  188281.49  43.97
967.2  428187.15  188306.25  43.98
968.3  428190.30  188167.01  43.94
969.5  428029.33  188161.96  43.96
970.6  428467.90  188248.70  43.94
971.8  428477.18  188352.58  43.96
972.9  428684.93  188351.96  43.94
974.0  428884.40  188388.82  43.93
975.2  429135.25  188359.48  43.89
976.3  429154.43  188345.13  43.89
977.5  429228.63  188504.03  43.92
978.6  429707.40  188534.74  43.88
979.7  429821.70  188642.62  43.89
980.9  429731.53  188606.90  43.89
982.0  429555.25  188698.06  43.93
983.2  429177.00  188536.19  43.93
984.3  429058.20  188496.62  43.93
985.4  429302.65  188505.25  43.91
986.6  429273.38  188436.95  43.90
987.7  430468.50  188971.32  43.90
988.9  430185.60  188711.76  43.87
990.0  430070.70  189160.42  43.98
993.1  369772.14  161722.62  43.74
996.9  370958.08  162527.51  43.81
1000.7  372296.40  163438.19  43.90
1004.5  373024.83  164063.15  43.98
1008.4  372853.00  164321.94  44.07
1012.2  373069.96  164660.08  44.14
1016.0  373307.40  165007.11  44.20
1019.8  373729.13  165413.33  44.26
1023.7  374066.89  165707.52  44.30
1027.5  374083.75  165909.16  44.35
1031.3  374657.38  166294.82  44.39
1035.1  374718.23  166464.50  44.42
1038.9  374897.60  166638.34  44.45
1042.7  374866.33  166705.02  44.47
1046.5  374741.67  166729.03  44.49
1050.3  374886.15  166814.12  44.50
1054.2  374648.17  166786.58  44.52
1058.0  374182.20  166594.09  44.52
1061.8  374056.07  166586.57  44.54
1065.6  373915.00  166500.51  44.53
1069.4  374098.73  166559.56  44.52
1073.2  373932.27  166446.80  44.51
1077.0  373571.05  166235.56  44.50
1080.8  373012.50  165895.54  44.47
1084.6  371785.87  165242.00  44.45
1088.4  370985.48  164818.38  44.43
1092.2  370100.25  164313.96  44.40
1096.0  369524.42  163964.34  44.37
1099.8  369125.25  163633.97  44.33
1103.6  368531.23  163237.11  44.29
1107.4  367714.64  162699.52  44.25
1111.2  367523.60  162452.59  44.20
1114.9  366889.83  161973.75  44.15
1118.7  366257.93  161452.03  44.08
1122.5  365521.00  160820.03  44.00
1126.3  364392.76  159953.81  43.90
1130.1  363914.69  159179.45  43.74
1133.9  362341.00  157708.80  43.52
1137.7  360956.50  156145.85  43.26
1141.4  359239.40  154262.64  42.94
1145.2  358584.75  152709.06  42.59
1149.0  357520.63  151083.96  42.26
1152.8  355950.45  149397.27  41.97
1156.6  354314.22  147978.97  41.76
1160.3  352590.00  146792.57  41.63
1164.1  350123.20  145514.24  41.56
1167.9  348330.21  144629.61  41.52
1171.7  347051.25  144034.88  41.50
1175.4  345922.87  143555.95  41.50
1179.2  344956.55  143110.02  41.49
1183.0  344705.00  142933.14  41.47
1186.7  344120.47  142608.63  41.44
1190.5  342950.67  142059.62  41.42
1194.3  341699.50  141503.64  41.41
1198.0  340549.00  141022.63  41.41
1201.8  339113.88  140469.12  41.42
1205.6  337881.00  140045.95  41.45
1209.3  336899.03  139790.11  41.49
1213.1  335854.13  139528.17  41.54
1216.8  334817.08  139321.69  41.61
1220.6  333707.73  139086.93  41.68
1224.3  332439.42  138787.31  41.75
1228.1  331216.20  138521.54  41.82
1231.9  330045.70  138219.34  41.88
1235.6  328628.03  137782.86  41.93
1239.4  327315.75  137399.28  41.98
1243.1  326084.25  136991.64  42.01
1246.9  324884.98  136554.44  42.03
1250.6  323929.80  136198.54  42.05
1254.3  322890.61  135786.07  42.05
1258.1  321926.97  135394.15  42.06
1261.8  320670.53  134860.13  42.06
1265.6  319197.60  134204.29  42.04
1269.3  317648.40  133477.81  42.02
1273.1  317534.73  133322.21  41.99
1276.8  317897.60  133339.03  41.94
1280.6  317971.60  133215.31  41.90
1284.3  316733.20  132528.40  41.84
1288.0  315250.75  131685.11  41.77
1291.8  313805.24  130794.14  41.68
1295.5  312276.80  129847.98  41.58
1299.2  310976.10  128957.50  41.47
1302.9  309560.08  127948.20  41.33
1306.7  308036.87  126833.23  41.17
1310.4  306595.02  125650.56  40.98
1314.1  305246.33  124450.59  40.77
1317.9  304045.00  123198.36  40.52
1321.6  302663.58  121785.08  40.24
1325.3  301043.93  120170.93  39.92
1329.0  299675.60  118609.58  39.58
1332.8  297528.00  116652.80  39.21
1336.5  295684.80  114794.43  38.82
1340.2  295295.00  113479.17  38.43
1343.9  294813.54  112126.70  38.03
