/*** Spectra Vista SIG Data ***/
name= 11_20220824_TITO_31_avg.sig
comm= Averaged Ref/Tar of files: HR.082422.0029_moc.sig,HR.082422.0030_moc.sig,HR.082422.0031_moc.sig
data=
337.3  3473.75  330.83  9.52
338.8  3607.50  320.67  8.89
340.3  3748.00  306.09  8.17
341.8  3978.08  298.74  7.51
343.2  4173.60  301.92  7.23
344.7  4350.30  312.77  7.19
346.2  4534.35  305.01  6.73
347.7  4719.00  304.11  6.44
349.2  4914.00  302.40  6.15
350.6  5214.95  293.80  5.63
352.1  5537.38  304.85  5.51
353.6  5829.60  300.73  5.16
355.1  6128.85  318.79  5.20
356.6  6423.90  319.01  4.97
358.0  6699.00  319.00  4.76
359.5  7014.30  321.36  4.58
361.0  7361.55  323.19  4.39
362.5  7757.88  339.59  4.38
364.0  8143.70  355.57  4.37
365.4  8514.30  359.68  4.22
366.9  8895.25  368.33  4.14
368.4  9246.23  381.85  4.13
369.9  9647.93  396.37  4.11
371.3  10119.30  409.40  4.05
372.8  10566.90  424.80  4.02
374.3  11018.75  433.58  3.93
375.8  11453.75  438.39  3.83
377.2  11889.80  448.33  3.77
378.7  12347.10  455.51  3.69
380.2  12804.40  473.44  3.70
381.7  13377.38  479.24  3.58
383.1  13879.25  495.88  3.57
384.6  14404.65  503.53  3.50
386.1  14944.83  511.67  3.42
387.6  15469.30  524.63  3.39
389.0  15972.80  532.43  3.33
390.5  16514.10  552.24  3.34
392.0  17113.15  567.79  3.32
393.4  17735.63  585.06  3.30
394.9  18322.20  595.08  3.25
396.4  18888.75  617.55  3.27
397.9  19475.00  628.67  3.23
399.3  20082.73  644.94  3.21
400.8  20687.75  661.34  3.20
402.2  21358.50  684.13  3.20
403.7  22028.63  699.78  3.18
405.2  22680.65  713.41  3.15
406.6  23292.80  733.12  3.15
408.1  23933.40  756.35  3.16
409.6  24562.05  772.64  3.15
411.0  25257.05  794.22  3.14
412.5  25968.78  813.56  3.13
414.0  26650.50  842.17  3.16
415.4  27427.50  866.55  3.16
416.9  28141.50  886.65  3.15
418.4  28871.55  913.83  3.17
419.8  29647.80  939.12  3.17
421.3  30409.45  964.93  3.17
422.7  31250.40  992.96  3.18
424.2  32062.50  1021.50  3.19
425.7  32877.10  1047.55  3.19
427.1  33691.43  1078.21  3.20
428.6  34534.00  1111.87  3.22
430.0  35312.23  1137.11  3.22
431.5  36237.90  1168.13  3.22
432.9  37181.70  1197.39  3.22
434.4  38133.15  1231.95  3.23
435.9  39018.00  1261.87  3.23
437.3  39902.50  1296.17  3.25
438.8  40806.45  1330.35  3.26
440.2  41732.08  1363.67  3.27
441.7  42759.40  1400.75  3.28
443.1  43725.00  1436.30  3.28
444.6  44762.70  1474.19  3.29
446.0  45762.83  1512.02  3.30
447.5  46775.58  1551.00  3.32
448.9  47755.80  1591.00  3.33
450.4  48821.50  1633.43  3.35
451.8  49751.00  1670.93  3.36
453.3  50744.08  1710.21  3.37
454.7  51817.28  1756.67  3.39
456.2  52754.53  1791.55  3.40
457.6  53763.75  1830.18  3.40
459.1  54819.05  1867.28  3.41
460.5  55800.50  1908.17  3.42
462.0  56940.25  1956.62  3.44
463.4  58033.20  2002.03  3.45
464.8  59093.63  2042.40  3.46
466.3  60139.20  2079.44  3.46
467.7  61169.95  2116.88  3.46
469.2  62295.95  2167.55  3.48
470.6  63337.40  2208.66  3.49
472.0  64449.43  2252.00  3.49
473.5  65525.88  2297.67  3.51
474.9  66618.75  2346.50  3.52
476.4  67838.40  2390.40  3.52
477.8  68991.00  2443.73  3.54
479.2  70064.00  2486.27  3.55
480.7  71245.95  2532.16  3.55
482.1  72452.30  2581.73  3.56
483.6  73709.45  2639.53  3.58
485.0  74879.18  2696.21  3.60
486.4  76125.60  2752.86  3.62
487.9  77278.50  2813.85  3.64
489.3  78513.70  2878.25  3.67
490.7  79647.53  2939.11  3.69
492.2  80952.90  3012.52  3.72
493.6  82127.90  3082.36  3.75
495.0  83318.63  3160.95  3.79
496.5  84572.03  3238.28  3.83
497.9  85746.03  3330.25  3.88
499.3  86978.73  3424.17  3.94
500.7  88310.20  3531.63  4.00
502.2  89512.60  3644.16  4.07
503.6  90855.80  3774.59  4.15
505.0  91987.35  3904.71  4.24
506.5  93378.00  4064.11  4.35
507.9  94627.98  4241.93  4.48
509.3  96096.40  4443.95  4.62
510.7  97417.13  4656.60  4.78
512.2  98907.68  4907.99  4.96
513.6  100464.35  5187.05  5.16
515.0  101964.80  5492.75  5.39
516.4  103420.80  5826.87  5.63
517.8  105132.38  6205.58  5.90
519.3  106533.68  6588.98  6.18
520.7  108185.00  7010.01  6.48
522.1  109564.00  7432.84  6.78
523.5  110991.50  7874.81  7.09
524.9  112548.60  8327.22  7.40
526.3  114053.80  8776.46  7.70
527.8  115636.95  9222.84  7.98
529.2  116741.50  9639.31  8.26
530.6  118359.95  10082.25  8.52
532.0  120162.00  10514.93  8.75
533.4  121591.28  10885.34  8.95
534.8  122556.08  11188.35  9.13
536.3  124343.10  11546.36  9.29
537.7  126453.60  11929.68  9.43
539.1  127995.13  12241.19  9.56
540.5  129248.30  12515.93  9.68
541.9  131091.08  12836.32  9.79
543.3  132429.58  13104.44  9.90
544.7  133801.80  13374.48  10.00
546.1  135672.08  13689.35  10.09
547.5  136976.00  13940.27  10.18
549.0  138798.00  14231.07  10.25
550.4  140420.00  14482.58  10.31
551.8  142055.93  14713.95  10.36
553.2  143664.63  14924.78  10.39
554.6  145090.40  15086.93  10.40
556.0  146700.90  15240.72  10.39
557.4  148401.23  15366.35  10.35
558.8  150126.75  15464.28  10.30
560.2  151661.75  15501.63  10.22
561.6  153414.30  15524.91  10.12
563.0  155092.85  15501.60  10.00
564.4  156762.45  15449.42  9.86
565.8  158344.38  15365.17  9.70
567.2  160175.00  15283.63  9.54
568.6  161754.75  15161.20  9.37
570.0  163264.10  15018.19  9.20
571.4  165098.05  14898.35  9.02
572.8  166964.00  14788.83  8.86
574.2  168660.80  14679.47  8.70
575.6  170268.75  14584.50  8.57
577.0  171873.00  14507.69  8.44
578.4  173696.25  14465.97  8.33
579.8  175280.63  14423.31  8.23
581.2  177097.50  14413.19  8.14
582.5  178588.80  14383.20  8.05
583.9  180186.00  14380.27  7.98
585.3  182070.90  14411.76  7.92
586.7  183633.78  14428.40  7.86
588.1  185197.25  14454.62  7.80
589.5  186935.00  14499.10  7.76
590.9  188641.20  14550.99  7.71
592.3  190546.65  14629.95  7.68
593.7  192051.60  14692.86  7.65
595.0  193760.10  14770.98  7.62
596.4  195273.05  14837.25  7.60
597.8  196831.05  14900.27  7.57
599.2  198462.00  14961.76  7.54
600.6  200314.73  15035.93  7.51
602.0  201670.35  15068.22  7.47
603.3  203561.65  15127.22  7.43
604.7  205302.78  15164.66  7.39
606.1  206875.80  15181.84  7.34
607.5  208596.50  15198.67  7.29
608.9  210370.65  15213.34  7.23
610.2  211831.20  15206.94  7.18
611.6  213499.80  15213.15  7.13
613.0  215131.60  15220.67  7.08
614.4  216576.75  15211.54  7.02
615.8  218102.63  15221.70  6.98
617.1  219706.20  15240.96  6.94
618.5  221437.60  15273.60  6.90
619.9  223009.35  15317.03  6.87
621.3  224723.03  15382.53  6.85
622.6  226401.50  15465.53  6.83
624.0  227902.95  15553.00  6.82
625.4  229450.65  15660.37  6.83
626.8  231103.60  15793.35  6.83
628.1  232471.80  15906.99  6.84
629.5  234390.60  16062.30  6.85
630.9  236041.03  16184.52  6.86
632.2  237446.30  16275.63  6.85
633.6  239082.13  16341.82  6.84
635.0  240679.60  16369.81  6.80
636.3  242269.20  16338.12  6.74
637.7  243719.13  16251.42  6.67
639.1  245455.00  16135.00  6.57
640.4  247008.13  15975.84  6.47
641.8  248266.60  15773.94  6.35
643.2  249916.63  15600.04  6.24
644.5  251339.00  15415.17  6.13
645.9  253134.00  15269.22  6.03
647.2  254937.38  15173.53  5.95
648.6  256871.25  15133.50  5.89
650.0  258400.80  15105.60  5.85
651.3  258858.33  15046.24  5.81
652.7  260165.35  15022.45  5.77
654.0  262296.60  15052.93  5.74
655.4  263893.93  15119.56  5.73
656.8  264159.90  15148.47  5.73
658.1  265544.60  15190.84  5.72
659.5  268055.55  15242.64  5.69
660.8  269910.00  15264.00  5.66
662.2  270883.20  15246.93  5.63
663.5  272577.90  15286.45  5.61
664.9  273907.40  15307.93  5.59
666.2  274680.60  15329.84  5.58
667.6  276472.80  15445.92  5.59
668.9  277598.10  15545.25  5.60
670.3  278949.13  15674.43  5.62
671.6  280522.88  15853.30  5.65
673.0  281761.88  16050.95  5.70
674.3  283056.80  16277.39  5.75
675.7  284436.38  16541.53  5.82
677.0  285598.18  16830.04  5.89
678.4  287029.80  17161.88  5.98
679.7  288197.13  17514.28  6.08
681.1  289579.85  17930.79  6.19
682.4  290769.70  18393.09  6.33
683.8  292073.60  18929.39  6.48
685.1  293134.13  19558.50  6.67
686.4  294505.20  20335.20  6.90
687.8  295836.00  21259.13  7.19
689.1  296970.75  22380.53  7.54
690.5  298372.50  23804.24  7.98
691.8  299232.15  25549.58  8.54
693.1  300656.10  27738.70  9.23
694.5  301869.75  30293.90  10.04
695.8  303166.50  33251.40  10.97
697.1  304440.50  36609.30  12.03
698.5  305564.70  40348.49  13.20
699.8  306724.73  44455.09  14.49
701.1  307949.18  48896.37  15.88
702.5  308777.15  53518.67  17.33
703.8  309802.50  58335.00  18.83
705.1  311034.75  63310.26  20.35
706.5  312176.00  68297.45  21.88
707.8  313235.25  73305.02  23.40
709.1  314179.73  78250.61  24.91
710.5  315385.28  83230.58  26.39
711.8  316280.90  88073.11  27.85
713.1  317351.30  92895.85  29.27
714.4  318310.20  97602.64  30.66
715.8  319202.20  102193.47  32.02
717.1  320610.75  106850.88  33.33
718.4  321641.60  111280.21  34.60
719.7  322785.95  115650.36  35.83
721.0  323347.50  119682.00  37.01
722.4  324178.80  123673.22  38.15
723.7  325186.05  127601.04  39.24
725.0  326308.28  131423.22  40.28
726.3  327287.68  135047.92  41.26
727.6  327903.95  138356.02  42.19
729.0  328859.13  141652.05  43.07
730.3  329694.98  144732.08  43.90
731.6  330651.45  147730.95  44.68
732.9  331459.28  150520.98  45.41
734.2  332369.13  153181.05  46.09
735.5  333443.35  155795.10  46.72
736.8  334288.50  158154.84  47.31
738.1  335197.50  160416.80  47.86
739.5  336201.73  162607.50  48.37
740.8  336947.33  164550.32  48.84
742.1  337732.80  166412.02  49.27
743.4  338500.00  168153.33  49.68
744.7  339510.05  169937.96  50.05
746.0  340425.15  171565.42  50.40
747.3  341014.00  172933.58  50.71
748.6  341754.00  174296.60  51.00
749.9  342498.00  175576.27  51.26
751.2  343271.05  176767.03  51.49
752.5  344186.30  177976.90  51.71
753.8  344815.80  178971.85  51.90
755.1  345592.00  179972.00  52.08
756.4  346246.75  180837.95  52.23
757.7  347319.00  181892.25  52.37
759.0  349212.10  183337.23  52.50
760.3  350460.00  184405.76  52.62
761.6  352130.80  185660.91  52.72
762.9  352725.50  186308.40  52.82
764.2  353143.20  186829.47  52.90
765.5  353432.95  187268.84  52.99
766.8  353899.20  187770.67  53.06
768.1  354473.80  188303.76  53.12
769.3  355108.95  188856.87  53.18
770.6  355775.55  189441.37  53.25
771.9  356554.63  190042.25  53.30
773.2  357016.40  190450.40  53.35
774.5  357643.00  190964.11  53.40
775.8  358432.40  191525.53  53.43
777.1  359011.40  192016.88  53.48
778.4  359367.53  192376.73  53.53
779.6  360177.83  192966.77  53.58
780.9  360690.00  193384.00  53.62
782.2  361185.00  193797.63  53.66
783.5  361516.50  194126.40  53.70
784.8  362101.28  194579.73  53.74
786.0  362523.70  194940.85  53.77
787.3  362938.23  195312.87  53.81
788.6  363409.68  195698.29  53.85
789.9  363924.40  196089.41  53.88
791.2  364611.98  196596.64  53.92
792.4  365363.00  197120.15  53.95
793.7  365863.60  197523.15  53.99
795.0  366527.70  198016.06  54.02
796.2  367234.25  198523.25  54.06
797.5  367980.83  199057.59  54.09
798.8  368700.08  199561.37  54.13
800.0  369414.63  200070.16  54.16
801.3  369916.70  200460.89  54.19
802.6  370564.20  200934.99  54.22
803.8  371266.73  201414.15  54.25
805.1  371810.25  201815.48  54.28
806.4  372313.20  202204.32  54.31
807.7  372861.23  202635.00  54.35
808.9  373491.55  203074.91  54.37
810.2  374024.35  203487.39  54.40
811.4  374614.20  203900.48  54.43
812.7  375293.75  204381.67  54.46
814.0  376193.30  204976.38  54.49
815.2  376835.50  205448.97  54.52
816.5  377262.10  205800.34  54.55
817.7  377765.60  206199.91  54.58
819.0  378319.15  206607.65  54.61
820.2  378488.00  206823.47  54.64
821.5  379301.75  207348.65  54.67
822.7  379630.88  207667.37  54.70
824.0  380006.10  207957.60  54.72
825.2  380517.75  208357.92  54.76
826.5  380847.40  208640.33  54.78
827.7  381462.58  209049.62  54.80
829.0  381857.83  209394.06  54.84
830.2  382199.05  209661.41  54.86
831.5  382744.80  210041.57  54.88
832.7  383057.85  210327.04  54.91
834.0  383385.70  210624.20  54.94
835.2  383747.65  210940.40  54.97
836.4  384120.00  211230.43  54.99
837.7  384549.00  211589.57  55.02
838.9  385029.33  211943.29  55.05
840.1  385395.98  212260.05  55.08
841.4  385838.90  212608.75  55.10
842.6  386219.60  212919.79  55.13
843.8  386584.20  213225.87  55.16
845.1  387080.70  213620.43  55.19
846.3  387524.80  213956.00  55.21
847.5  387993.90  214286.80  55.23
848.8  388413.00  214635.52  55.26
850.0  388805.90  214922.91  55.28
851.2  389392.65  215307.00  55.29
852.5  389850.90  215627.91  55.31
853.7  390325.50  215994.90  55.34
854.9  390783.20  216349.71  55.36
856.1  391255.80  216739.47  55.40
857.4  391485.90  216922.44  55.41
858.6  391991.50  217254.37  55.42
859.8  392454.38  217560.00  55.44
861.0  392909.40  217900.80  55.46
862.2  393400.13  218238.16  55.47
863.5  393816.48  218529.96  55.49
864.7  394363.20  218913.20  55.51
865.9  394818.60  219201.76  55.52
867.1  395219.50  219434.57  55.52
868.3  395657.10  219749.62  55.54
869.5  396179.05  220080.98  55.55
870.8  396729.00  220473.00  55.57
872.0  397373.18  220840.20  55.58
873.2  397861.65  221143.66  55.58
874.4  398349.90  221424.84  55.59
875.6  398715.45  221710.68  55.61
876.8  399298.15  222045.58  55.61
878.0  399840.05  222381.94  55.62
879.2  400273.95  222736.24  55.65
880.4  400898.25  223066.90  55.64
881.6  401392.95  223402.04  55.66
882.8  401892.00  223678.51  55.66
884.0  402487.18  224056.10  55.67
885.2  403069.20  224406.76  55.67
886.5  403734.40  224766.81  55.67
887.7  404212.25  225110.51  55.69
888.8  404895.90  225534.44  55.70
890.0  405578.15  225886.17  55.69
891.2  406189.50  226279.25  55.71
892.4  406897.05  226653.63  55.70
893.6  407560.50  227000.60  55.70
894.8  408497.25  227562.00  55.71
896.0  409406.25  228129.43  55.72
897.2  410354.75  228648.77  55.72
898.4  411143.70  229097.44  55.72
899.6  411656.63  229452.95  55.74
900.8  412106.33  229728.10  55.74
902.0  412399.20  229899.72  55.75
903.2  412829.10  230087.47  55.73
904.3  413095.20  230343.88  55.76
905.5  413791.05  230718.50  55.76
906.7  414502.00  231131.40  55.76
907.9  415000.60  231436.15  55.77
909.1  415368.68  231650.46  55.77
910.2  415553.33  231781.41  55.78
911.4  415899.90  231950.94  55.77
912.6  416065.65  232079.47  55.78
913.8  416500.50  232238.05  55.76
915.0  416958.15  232490.30  55.76
916.2  417134.25  232594.70  55.76
917.3  417158.33  232659.66  55.77
918.5  417490.90  232757.57  55.75
919.7  417802.80  232948.74  55.76
920.8  417964.55  232971.12  55.74
922.0  417994.50  233063.60  55.76
923.2  418236.00  233178.40  55.75
924.4  418584.38  233263.35  55.73
925.5  418935.80  233403.08  55.71
926.7  419579.13  233722.80  55.70
927.9  420496.80  234174.88  55.69
929.0  422026.20  234949.50  55.67
930.2  424332.70  236237.39  55.67
931.4  426884.85  237600.90  55.66
932.5  429729.75  239083.16  55.64
933.7  431133.45  239900.96  55.64
934.9  432044.38  240157.75  55.59
936.0  431812.88  239841.33  55.54
937.2  429673.65  238512.72  55.51
938.3  427736.85  237464.43  55.52
939.5  426045.60  236564.16  55.53
940.7  426312.00  236626.08  55.51
941.8  428212.43  237431.89  55.45
943.0  429662.25  238067.90  55.41
944.2  430871.35  238443.49  55.34
945.3  430335.75  238058.60  55.32
946.5  429343.20  237489.84  55.31
947.6  429456.40  237510.49  55.30
948.8  429571.35  237279.64  55.24
949.9  429739.80  237116.88  55.18
951.1  429324.03  236646.24  55.12
952.2  429216.00  236232.00  55.04
953.4  428800.25  235822.87  55.00
954.5  428992.20  235535.04  54.90
955.7  428828.40  235220.16  54.85
956.8  428827.20  234896.20  54.78
958.0  428381.00  234524.20  54.75
959.1  428426.05  234152.07  54.65
960.3  427983.48  233838.58  54.64
961.4  427819.20  233674.35  54.62
962.6  427953.75  233644.37  54.60
963.7  427601.48  233385.85  54.58
964.9  427495.58  233319.37  54.58
966.0  427167.68  233274.87  54.61
967.2  427658.85  233367.72  54.57
968.3  427376.25  233252.46  54.58
969.5  427190.60  233128.27  54.57
970.6  427024.28  233174.31  54.60
971.8  427279.48  233311.96  54.60
972.9  427123.80  233294.52  54.62
974.0  427254.90  233518.21  54.66
975.2  427088.50  233420.47  54.65
976.3  427003.28  233471.48  54.68
977.5  427337.75  233611.30  54.67
978.6  426506.60  233658.40  54.78
979.7  426423.90  233712.01  54.81
980.9  426124.13  233759.52  54.86
982.0  426195.60  233767.65  54.85
983.2  425600.53  233731.16  54.92
984.3  424707.80  233616.48  55.01
985.4  425252.63  233821.44  54.98
986.6  424974.50  233940.68  55.05
987.7  425902.93  234453.15  55.05
988.9  425359.80  234304.08  55.08
990.0  426432.20  234707.51  55.04
993.1  384330.10  208305.59  54.20
996.9  384060.50  209084.20  54.44
1000.7  384592.78  210152.40  54.64
1004.5  384887.00  210946.94  54.81
1008.4  384387.75  211308.77  54.97
1012.2  384127.75  211822.36  55.14
1016.0  383775.60  212313.20  55.32
1019.8  383431.13  212779.23  55.49
1023.7  382831.42  213038.24  55.65
1027.5  381942.20  213091.18  55.79
1031.3  381728.33  213348.94  55.89
1035.1  381348.92  213408.79  55.96
1038.9  381198.40  213563.58  56.02
1042.7  380928.25  213647.44  56.09
1046.5  380756.83  213729.63  56.13
1050.3  380746.70  213878.57  56.17
1054.2  380367.75  213826.54  56.22
1058.0  379895.83  213673.68  56.25
1061.8  379754.48  213700.62  56.27
1065.6  379411.10  213570.37  56.29
1069.4  379060.33  213512.87  56.33
1073.2  378292.04  213184.10  56.35
1077.0  377624.43  212857.23  56.37
1080.8  377241.67  212599.54  56.36
1084.6  376439.23  212067.28  56.34
1088.4  376037.17  211706.07  56.30
1092.2  375336.00  211165.50  56.26
1096.0  374724.92  210690.87  56.23
1099.8  374120.72  210219.58  56.19
1103.6  373406.13  209651.83  56.15
1107.4  372378.04  208915.38  56.10
1111.2  372066.40  208537.91  56.05
1114.9  371386.17  207915.82  55.98
1118.7  370831.73  207285.10  55.90
1122.5  370168.93  206503.17  55.79
1126.3  369111.28  205346.18  55.63
1130.1  368612.41  204289.10  55.42
1133.9  366951.20  202255.98  55.12
1137.7  365479.70  200014.53  54.73
1141.4  363580.97  197266.43  54.26
1145.2  362744.43  194981.68  53.75
1149.0  361536.88  192642.27  53.28
1152.8  359829.35  190322.51  52.89
1156.6  358093.63  188418.15  52.62
1160.3  356386.00  186869.19  52.43
1164.1  353976.30  185277.30  52.34
1167.9  352211.46  184207.64  52.30
1171.7  350878.50  183513.75  52.30
1175.4  349531.60  182873.73  52.32
1179.2  348329.75  182282.94  52.33
1183.0  347994.67  182075.56  52.32
1186.7  347608.33  181793.27  52.30
1190.5  346743.13  181278.36  52.28
1194.3  345638.20  180688.82  52.28
1198.0  344315.13  180089.25  52.30
1201.8  342695.35  179399.11  52.35
1205.6  341476.67  178954.52  52.41
1209.3  340619.85  178760.65  52.48
1213.1  339798.98  178592.37  52.56
1216.8  338994.43  178433.83  52.64
1220.6  337958.13  178179.14  52.72
1224.3  336777.42  177840.15  52.81
1228.1  335445.40  177505.69  52.92
1231.9  334079.00  177105.84  53.01
1235.6  332505.98  176561.77  53.10
1239.4  331096.63  176068.33  53.18
1243.1  329780.98  175579.11  53.24
1246.9  328523.31  175080.64  53.29
1250.6  327498.53  174674.65  53.34
1254.3  326322.79  174180.36  53.38
1258.1  325221.28  173669.01  53.40
1261.8  323849.47  172993.75  53.42
1265.6  322428.07  172222.82  53.41
1269.3  321151.88  171446.49  53.38
1273.1  321221.78  171357.40  53.35
1276.8  321276.00  171263.38  53.31
1280.6  320721.20  170868.00  53.28
1284.3  319029.20  169791.02  53.22
1288.0  317540.83  168696.78  53.13
1291.8  316501.36  167704.23  52.99
1295.5  315342.13  166582.04  52.83
1299.2  314125.95  165368.89  52.64
1302.9  312588.09  163918.72  52.44
1306.7  310922.97  162311.23  52.20
1310.4  309353.11  160613.04  51.92
1314.1  307894.03  158858.62  51.60
1317.9  306584.79  157054.77  51.23
1321.6  305063.86  155039.40  50.82
1325.3  303373.35  152777.80  50.36
1329.0  302029.23  150598.57  49.86
1332.8  299945.80  147949.51  49.33
1336.5  298158.00  145375.98  48.76
1340.2  297782.33  143507.00  48.19
1343.9  297338.13  141579.45  47.62
