/*** Spectra Vista SIG Data ***/
name= 45_20220926_LIST_62_avg.sig
comm= Averaged Ref/Tar of files: HR.092722.0050_moc.sig,HR.092722.0051_moc.sig,HR.092722.0052_moc.sig
data=
337.3  3225.63  196.61  6.10
338.8  3367.00  201.56  5.99
340.3  3513.75  205.25  5.84
341.8  3658.00  198.58  5.43
343.2  3862.80  200.43  5.19
344.7  4009.10  192.53  4.80
346.2  4207.55  185.96  4.42
347.7  4443.73  182.77  4.11
349.2  4611.60  189.36  4.11
350.6  4847.70  192.37  3.97
352.1  5108.68  206.86  4.05
353.6  5413.20  205.56  3.80
355.1  5724.75  205.90  3.60
356.6  5997.83  206.01  3.43
358.0  6284.30  219.35  3.49
359.5  6550.80  226.60  3.46
361.0  6882.75  234.27  3.40
362.5  7230.93  245.35  3.39
364.0  7570.20  244.15  3.23
365.4  7952.30  253.17  3.18
366.9  8315.13  268.88  3.23
368.4  8673.45  277.95  3.20
369.9  9053.38  290.33  3.21
371.3  9478.50  306.16  3.23
372.8  9903.15  316.58  3.20
374.3  10320.00  321.48  3.12
375.8  10726.10  327.51  3.05
377.2  11163.50  334.07  2.99
378.7  11593.90  339.20  2.93
380.2  11997.40  342.78  2.86
381.7  12539.60  360.33  2.87
383.1  12989.90  362.93  2.79
384.6  13514.48  370.46  2.74
386.1  13971.93  383.50  2.74
387.6  14445.20  394.75  2.73
389.0  14927.60  404.81  2.71
390.5  15399.00  413.17  2.68
392.0  16002.25  424.71  2.65
393.4  16553.25  437.42  2.64
394.9  17121.60  443.95  2.59
396.4  17646.75  461.31  2.61
397.9  18193.75  477.85  2.63
399.3  18765.83  487.20  2.60
400.8  19316.88  499.92  2.59
402.2  19959.15  506.90  2.54
403.7  20560.05  522.31  2.54
405.2  21165.45  535.28  2.53
406.6  21761.60  548.85  2.52
408.1  22328.80  564.35  2.53
409.6  22959.70  581.15  2.53
411.0  23634.45  595.36  2.52
412.5  24323.60  614.83  2.53
414.0  24959.38  625.61  2.51
415.4  25638.75  640.92  2.50
416.9  26310.38  663.79  2.52
418.4  27022.73  686.53  2.54
419.8  27755.00  709.63  2.56
421.3  28502.18  730.66  2.56
422.7  29266.80  748.03  2.56
424.2  30020.63  773.04  2.58
425.7  30790.70  790.47  2.57
427.1  31570.88  813.56  2.58
428.6  32364.00  842.02  2.60
430.0  33127.03  867.14  2.62
431.5  34014.08  891.52  2.62
432.9  34881.65  921.14  2.64
434.4  35783.85  939.99  2.63
435.9  36624.00  963.73  2.63
437.3  37496.25  989.74  2.64
438.8  38362.95  1017.74  2.65
440.2  39239.20  1047.71  2.67
441.7  40213.40  1076.08  2.68
443.1  41128.00  1100.89  2.68
444.6  42103.40  1130.09  2.68
446.0  43051.05  1161.82  2.70
447.5  44035.48  1194.27  2.71
448.9  44982.30  1228.33  2.73
450.4  45998.40  1258.99  2.74
451.8  46891.00  1284.15  2.74
453.3  47815.28  1312.98  2.75
454.7  48839.73  1344.60  2.75
456.2  49712.78  1373.64  2.76
457.6  50697.23  1402.35  2.77
459.1  51687.68  1432.50  2.77
460.5  52644.00  1462.84  2.78
462.0  53721.30  1493.42  2.78
463.4  54772.60  1520.83  2.78
464.8  55763.63  1552.15  2.78
466.3  56731.13  1578.55  2.78
467.7  57721.58  1604.82  2.78
469.2  58791.28  1636.72  2.78
470.6  59810.85  1672.08  2.80
472.0  60874.38  1697.58  2.79
473.5  61895.75  1729.98  2.79
474.9  62942.25  1762.11  2.80
476.4  64108.80  1797.12  2.80
477.8  65163.00  1826.72  2.80
479.2  66178.00  1860.97  2.81
480.7  67279.80  1890.02  2.81
482.1  68435.20  1927.49  2.82
483.6  69634.55  1968.23  2.83
485.0  70710.38  2003.89  2.83
486.4  71920.65  2041.99  2.84
487.9  72993.38  2081.76  2.85
489.3  74169.83  2129.38  2.87
490.7  75215.30  2169.48  2.88
492.2  76440.00  2221.24  2.91
493.6  77542.45  2272.28  2.93
495.0  78653.25  2326.91  2.96
496.5  79846.68  2385.46  2.99
497.9  80976.65  2451.98  3.03
499.3  82150.65  2527.17  3.08
500.7  83431.75  2610.49  3.13
502.2  84577.80  2702.25  3.19
503.6  85848.00  2812.10  3.28
505.0  86947.75  2930.00  3.37
506.5  88265.85  3070.10  3.48
507.9  89439.23  3224.79  3.61
509.3  90783.20  3408.51  3.75
510.7  92005.88  3618.64  3.93
512.2  93392.70  3858.35  4.13
513.6  94896.55  4139.91  4.36
515.0  96345.93  4453.92  4.62
516.4  97736.63  4800.60  4.91
517.8  99383.50  5193.43  5.23
519.3  100748.85  5608.82  5.57
520.7  102312.10  6069.06  5.93
522.1  103610.65  6534.71  6.31
523.5  104958.90  7024.13  6.69
524.9  106466.40  7527.15  7.07
526.3  107940.70  8019.60  7.43
527.8  109444.50  8507.21  7.77
529.2  110453.70  8959.30  8.11
530.6  111973.05  9426.63  8.42
532.0  113652.00  9886.13  8.70
533.4  115007.40  10289.33  8.95
534.8  115943.58  10625.09  9.16
536.3  117531.90  10989.57  9.35
537.7  119473.20  11363.28  9.51
539.1  120920.58  11667.43  9.65
540.5  122126.75  11941.44  9.78
541.9  123896.55  12256.99  9.89
543.3  125206.78  12521.72  10.00
544.7  126540.00  12795.58  10.11
546.1  128343.33  13115.94  10.22
547.5  129584.00  13373.44  10.32
549.0  131219.00  13655.09  10.41
550.4  132748.75  13912.27  10.48
551.8  134351.63  14147.40  10.53
553.2  135860.75  14340.77  10.56
554.6  137196.80  14469.47  10.55
556.0  138710.70  14562.55  10.50
557.4  140337.40  14617.45  10.42
558.8  142002.00  14637.46  10.31
560.2  143486.25  14604.05  10.18
561.6  145168.13  14553.70  10.03
563.0  146765.23  14461.29  9.85
564.4  148375.20  14342.17  9.67
565.8  149897.50  14185.08  9.46
567.2  151661.00  14016.16  9.24
568.6  153152.63  13789.09  9.00
570.0  154593.85  13526.01  8.75
571.4  156324.35  13266.52  8.49
572.8  158097.38  13013.92  8.23
574.2  159723.20  12764.16  7.99
575.6  161302.50  12525.21  7.77
577.0  162833.00  12311.19  7.56
578.4  164550.75  12136.37  7.38
579.8  166100.63  11965.47  7.20
581.2  167814.35  11829.65  7.05
582.5  169252.20  11691.98  6.91
583.9  170781.40  11579.28  6.78
585.3  172578.60  11501.83  6.66
586.7  174085.93  11418.25  6.56
588.1  175557.88  11350.85  6.47
589.5  177233.00  11309.43  6.38
590.9  178870.00  11286.36  6.31
592.3  180682.35  11286.39  6.25
593.7  182152.43  11288.48  6.20
595.0  183756.60  11311.41  6.16
596.4  185223.85  11322.99  6.11
597.8  186711.00  11347.36  6.08
599.2  188271.60  11364.82  6.04
600.6  190054.48  11382.34  5.99
602.0  191346.53  11359.34  5.94
603.3  193141.70  11343.29  5.87
604.7  194814.05  11301.80  5.80
606.1  196305.00  11222.69  5.72
607.5  197957.80  11128.86  5.62
608.9  199664.55  11021.36  5.52
610.2  201044.03  10878.03  5.41
611.6  202655.78  10748.39  5.30
613.0  204207.40  10611.80  5.20
614.4  205606.05  10470.46  5.09
615.8  207075.38  10343.08  4.99
617.1  208622.40  10229.80  4.90
618.5  210248.80  10141.52  4.82
619.9  211770.83  10065.14  4.75
621.3  213386.63  10023.87  4.70
622.6  214979.25  10001.68  4.65
624.0  216454.50  9996.00  4.62
625.4  217929.53  10009.91  4.59
626.8  219510.20  10040.64  4.57
628.1  220789.80  10073.41  4.56
629.5  222558.70  10133.44  4.55
630.9  224030.13  10179.39  4.54
632.2  225275.23  10203.75  4.53
633.6  226786.38  10217.92  4.51
635.0  228226.80  10187.31  4.46
636.3  229726.70  10118.69  4.40
637.7  231104.88  10008.99  4.33
639.1  232732.50  9878.67  4.24
640.4  234211.43  9716.87  4.15
641.8  235414.78  9534.85  4.05
643.2  236992.70  9359.61  3.95
644.5  238363.25  9172.28  3.85
645.9  239923.80  9004.65  3.75
647.2  240974.48  8840.63  3.67
648.6  242493.75  8736.04  3.60
650.0  243864.00  8655.22  3.55
651.3  244843.78  8591.76  3.51
652.7  246957.70  8560.99  3.47
654.0  249014.60  8532.32  3.43
655.4  250433.90  8486.62  3.39
656.8  250653.40  8394.24  3.35
658.1  252106.20  8324.63  3.30
659.5  254375.10  8266.32  3.25
660.8  255735.00  8173.29  3.20
662.2  256748.80  8080.64  3.15
663.5  258291.15  8001.42  3.10
664.9  259321.40  7919.80  3.05
666.2  260095.20  7867.26  3.02
667.6  261827.60  7863.50  3.00
668.9  262776.65  7864.01  2.99
670.3  264629.13  7897.74  2.98
671.6  265654.88  7929.60  2.98
673.0  266849.63  8005.46  3.00
674.3  268095.10  8088.18  3.02
675.7  269425.38  8196.76  3.04
677.0  270489.03  8310.77  3.07
678.4  271788.50  8457.18  3.11
679.7  272823.68  8615.76  3.16
681.1  274083.20  8812.76  3.22
682.4  275167.10  9042.90  3.29
683.8  276338.40  9306.42  3.37
685.1  277314.75  9622.90  3.47
686.4  278632.20  10050.47  3.61
687.8  279816.00  10604.14  3.79
689.1  280884.00  11339.02  4.04
690.5  282213.45  12354.65  4.38
691.8  283005.20  13726.02  4.85
693.1  284325.45  15564.22  5.47
694.5  285489.75  17859.83  6.26
695.8  286718.25  20643.57  7.20
697.1  287878.50  23876.23  8.29
698.5  288925.60  27527.10  9.53
699.8  289967.90  31537.69  10.88
701.1  291124.33  35824.77  12.31
702.5  291887.20  40246.81  13.79
703.8  292815.00  44778.00  15.29
705.1  293969.33  49372.59  16.80
706.5  294969.63  53958.70  18.29
707.8  295914.00  58504.21  19.77
709.1  296721.58  62984.14  21.23
710.5  297837.83  67469.55  22.65
711.8  298663.90  71845.50  24.06
713.1  299645.10  76221.82  25.44
714.4  300559.40  80527.21  26.79
715.8  301317.60  84765.49  28.13
717.1  302619.00  89075.18  29.43
718.4  303564.80  93215.15  30.71
719.7  304648.63  97306.48  31.94
721.0  305145.00  101118.43  33.14
722.4  305890.75  104888.86  34.29
723.7  306839.55  108602.65  35.39
725.0  307855.58  112213.02  36.45
726.3  308776.60  115639.71  37.45
727.6  309301.58  118764.34  38.40
729.0  310175.25  121852.27  39.28
730.3  310929.60  124743.75  40.12
731.6  311830.50  127499.18  40.89
732.9  312559.98  130058.93  41.61
734.2  313341.88  132470.35  42.28
735.5  314388.10  134811.69  42.88
736.8  315162.60  136914.22  43.44
738.1  316005.80  138891.78  43.95
739.5  316934.25  140785.53  44.42
740.8  317587.60  142431.45  44.85
742.1  318234.88  143961.15  45.24
743.4  318850.00  145361.90  45.59
744.7  319722.50  146773.13  45.91
746.0  320576.10  148081.66  46.19
747.3  321155.55  149167.13  46.45
748.6  321875.00  150231.88  46.67
749.9  322478.00  151168.46  46.88
751.2  323057.10  152013.69  47.05
752.5  323763.15  152859.45  47.21
753.8  324268.70  153554.43  47.35
755.1  324896.00  154257.26  47.48
756.4  325440.78  154890.66  47.59
757.7  326406.85  155668.74  47.69
759.0  328153.43  156798.03  47.78
760.3  329287.20  157585.37  47.86
761.6  330797.60  158522.83  47.92
762.9  331298.75  158944.93  47.98
764.2  331650.10  159266.45  48.02
765.5  331867.00  159516.48  48.07
766.8  332193.60  159816.32  48.11
768.1  332636.00  160145.43  48.14
769.3  333182.50  160512.73  48.18
770.6  333778.90  160889.25  48.20
771.9  334409.08  161283.90  48.23
773.2  334750.80  161508.91  48.25
774.5  335277.80  161838.41  48.27
775.8  335871.70  162193.05  48.29
777.1  336361.85  162498.20  48.31
778.4  336622.00  162692.79  48.33
779.6  337319.30  163076.45  48.34
780.9  337710.00  163321.71  48.36
782.2  338074.00  163567.80  48.38
783.5  338306.00  163734.46  48.40
784.8  338735.93  163994.28  48.41
786.0  339036.60  164193.13  48.43
787.3  339363.45  164395.42  48.44
788.6  339700.05  164609.21  48.46
789.9  340064.20  164829.04  48.47
791.2  340636.78  165150.91  48.48
792.4  341192.33  165476.09  48.50
793.7  341615.20  165707.90  48.51
795.0  342139.88  166016.32  48.52
796.2  342729.15  166322.42  48.53
797.5  343326.08  166652.88  48.54
798.8  343831.23  166987.97  48.57
800.0  344442.13  167300.12  48.57
801.3  344827.20  167520.50  48.58
802.6  345368.48  167798.25  48.59
803.8  345950.55  168100.39  48.59
805.1  346300.50  168322.07  48.61
806.4  346671.90  168539.89  48.62
807.7  347121.45  168801.18  48.63
808.9  347589.80  169071.93  48.64
810.2  348079.55  169322.97  48.64
811.4  348509.10  169561.13  48.65
812.7  349050.00  169862.02  48.66
814.0  349816.15  170257.54  48.67
815.2  350407.75  170577.78  48.68
816.5  350755.68  170795.83  48.69
817.7  351198.60  171034.35  48.70
819.0  351597.40  171288.18  48.72
820.2  351736.00  171372.04  48.72
821.5  352422.45  171721.35  48.73
822.7  352692.25  171916.51  48.74
824.0  352971.00  172077.79  48.75
825.2  353457.68  172317.74  48.75
826.5  353711.55  172497.92  48.77
827.7  354232.40  172782.97  48.78
829.0  354620.55  172993.24  48.78
830.2  354902.65  173168.25  48.79
831.5  355413.05  173421.57  48.79
832.7  355711.13  173594.11  48.80
834.0  356023.18  173779.25  48.81
835.2  356382.13  173985.81  48.82
836.4  356644.75  174159.80  48.83
837.7  357015.40  174401.15  48.85
838.9  357546.90  174647.55  48.85
840.1  357887.70  174855.63  48.86
841.4  358356.20  175098.10  48.86
842.6  358706.80  175326.67  48.88
843.8  359042.20  175542.16  48.89
845.1  359542.30  175821.83  48.90
846.3  359938.90  176048.35  48.91
847.5  360406.20  176295.64  48.92
848.8  360850.20  176530.23  48.92
850.0  361239.90  176756.53  48.93
851.2  361728.45  177046.05  48.94
852.5  362137.60  177257.34  48.95
853.7  362594.25  177529.71  48.96
854.9  363087.30  177807.74  48.97
856.1  363605.45  178064.05  48.97
857.4  363881.13  178201.47  48.97
858.6  364325.55  178487.38  48.99
859.8  364704.38  178703.39  49.00
861.0  365180.40  178923.09  49.00
862.2  365680.88  179165.86  49.00
863.5  366092.03  179394.22  49.00
864.7  366630.00  179666.33  49.00
865.9  367073.40  179884.53  49.01
867.1  367339.10  180060.21  49.02
868.3  367812.90  180283.00  49.01
869.5  368264.20  180538.36  49.02
870.8  368806.50  180834.34  49.03
872.0  369381.53  181076.00  49.02
873.2  369805.80  181296.09  49.02
874.4  370234.80  181540.21  49.03
875.6  370634.65  181742.65  49.04
876.8  371070.65  181980.20  49.04
878.0  371670.80  182224.14  49.03
879.2  372172.95  182483.33  49.03
880.4  372716.63  182719.83  49.02
881.6  373144.90  182960.69  49.03
882.8  373558.40  183185.63  49.04
884.0  374177.15  183484.58  49.04
885.2  374566.70  183715.63  49.05
886.5  375213.55  183943.19  49.02
887.7  375674.33  184153.43  49.02
888.8  376326.83  184457.21  49.02
890.0  376918.65  184713.34  49.01
891.2  377423.60  184965.58  49.01
892.4  378009.45  185226.35  49.00
893.6  378462.80  185500.36  49.01
894.8  379270.00  185901.88  49.02
896.0  380226.75  186285.63  48.99
897.2  380935.75  186677.28  49.00
898.4  381681.30  186982.97  48.99
899.6  382260.00  187216.39  48.98
900.8  382481.90  187377.37  48.99
902.0  382667.10  187443.63  48.98
903.2  382876.20  187553.94  48.99
904.3  383258.10  187652.34  48.96
905.5  383835.35  187894.84  48.95
906.7  384424.50  188126.79  48.94
907.9  384831.30  188359.08  48.95
909.1  385007.18  188425.92  48.94
910.2  385236.53  188471.70  48.92
911.4  385319.03  188535.81  48.93
912.6  385313.50  188576.14  48.94
913.8  385571.03  188602.32  48.92
915.0  385970.55  188748.28  48.90
916.2  386080.50  188792.31  48.90
917.3  385938.90  188694.29  48.89
918.5  386006.70  188731.73  48.89
919.7  386230.80  188778.01  48.88
920.8  386304.60  188728.27  48.85
922.0  386328.25  188662.83  48.83
923.2  386431.50  188692.40  48.83
924.4  386343.00  188693.42  48.84
925.5  386666.80  188715.53  48.81
926.7  387117.63  188911.29  48.80
927.9  387961.80  189180.87  48.76
929.0  389358.90  189787.06  48.74
930.2  391460.80  190698.48  48.71
931.4  393635.03  191791.00  48.72
932.5  396384.60  192941.17  48.68
933.7  397675.20  193478.21  48.65
934.9  398212.50  193658.00  48.63
936.0  397674.88  193270.47  48.60
937.2  395590.95  192070.12  48.55
938.3  393638.25  190996.73  48.52
939.5  392036.40  190106.67  48.49
940.7  392103.90  190075.56  48.48
941.8  393302.85  190678.62  48.48
943.0  394708.50  191128.30  48.42
944.2  395619.90  191250.21  48.34
945.3  394953.00  190772.21  48.30
946.5  394252.65  190155.57  48.23
947.6  393986.20  190035.27  48.23
948.8  393870.75  189704.71  48.16
949.9  393813.00  189496.48  48.12
951.1  393430.05  188959.48  48.03
952.2  393108.00  188542.63  47.96
953.4  392738.75  188068.52  47.89
954.5  392558.40  187718.81  47.82
955.7  392200.20  187333.20  47.76
956.8  392002.10  186862.74  47.67
958.0  391612.00  186346.90  47.58
959.1  391407.15  185958.70  47.51
960.3  390727.53  185486.88  47.47
961.4  390291.20  185187.28  47.45
962.6  390552.75  185105.27  47.40
963.7  390312.08  184792.81  47.34
964.9  390092.85  184587.05  47.32
966.0  389877.30  184396.92  47.30
967.2  389621.25  184271.04  47.29
968.3  389387.25  183985.64  47.25
969.5  389168.40  183779.29  47.22
970.6  389201.30  183700.59  47.20
971.8  389252.50  183755.70  47.21
972.9  389344.58  183689.40  47.18
974.0  389450.50  183745.52  47.18
975.2  389223.63  183564.24  47.16
976.3  388999.63  183407.73  47.15
977.5  389142.08  183382.46  47.12
978.6  388897.20  183405.84  47.16
979.7  389048.10  183570.19  47.18
980.9  389148.28  183350.40  47.12
982.0  388759.50  183258.62  47.14
983.2  388813.93  182979.27  47.06
984.3  387729.40  182758.23  47.14
985.4  387645.25  182708.47  47.13
986.6  386898.75  182623.23  47.20
987.7  387421.65  183070.24  47.25
988.9  388132.20  182815.75  47.10
990.0  388591.80  182936.85  47.08
993.1  390468.05  182710.81  46.79
996.9  389121.23  182701.09  46.95
1000.7  389132.98  183220.50  47.08
1004.5  389205.75  183731.97  47.21
1008.4  388804.21  184058.69  47.34
1012.2  388541.38  184463.76  47.48
1016.0  388155.60  184760.92  47.60
1019.8  387514.05  184898.18  47.71
1023.7  386359.99  184721.72  47.81
1027.5  384705.22  184296.80  47.91
1031.3  383719.18  184104.59  47.98
1035.1  382661.59  183856.24  48.05
1038.9  382182.90  183824.90  48.10
1042.7  381835.92  183867.33  48.15
1046.5  381657.50  183942.79  48.20
1050.3  381660.44  184049.18  48.22
1054.2  381264.33  183998.33  48.26
1058.0  380837.98  183869.59  48.28
1061.8  380744.21  183908.90  48.30
1065.6  380222.00  183653.83  48.30
1069.4  379444.27  183275.43  48.30
1073.2  378114.09  182631.78  48.30
1077.0  377354.20  182230.30  48.29
1080.8  377422.92  182156.25  48.26
1084.6  377406.17  182020.88  48.23
1088.4  377621.43  182027.44  48.20
1092.2  377120.25  181638.32  48.16
1096.0  376429.53  181134.24  48.12
1099.8  375738.57  180586.93  48.06
1103.6  374806.97  179923.03  48.00
1107.4  373654.93  179116.60  47.94
1111.2  373312.90  178696.66  47.87
1114.9  372757.00  178130.00  47.79
1118.7  372438.00  177596.45  47.68
1122.5  371995.87  176893.97  47.55
1126.3  371057.34  175826.94  47.39
1130.1  370670.96  174769.39  47.15
1133.9  368997.30  172793.70  46.83
1137.7  367432.90  170600.27  46.43
1141.4  365297.40  167918.38  45.97
1145.2  364348.17  165599.78  45.45
1149.0  363024.38  163246.04  44.97
1152.8  361204.15  160893.69  44.54
1156.6  359337.18  158906.18  44.22
1160.3  357529.67  157276.76  43.99
1164.1  355139.50  155688.78  43.84
1167.9  353457.29  154599.70  43.74
1171.7  352130.63  153788.63  43.67
1175.4  350679.83  152962.76  43.62
1179.2  349266.75  152145.37  43.56
1183.0  348917.67  151760.81  43.49
1186.7  348833.80  151526.93  43.44
1190.5  348418.33  151170.18  43.39
1194.3  347457.83  150631.42  43.35
1198.0  345981.35  149963.51  43.34
1201.8  344272.10  149247.43  43.35
1205.6  343174.00  148870.81  43.38
1209.3  342557.32  148791.78  43.44
1213.1  342009.83  148771.01  43.50
1216.8  341366.48  148758.95  43.58
1220.6  340257.87  148541.07  43.66
1224.3  339006.67  148252.30  43.73
1228.1  337501.80  147861.26  43.81
1231.9  335886.38  147392.11  43.88
1235.6  334124.93  146813.48  43.94
1239.4  332549.38  146333.96  44.00
1243.1  331141.96  145866.94  44.05
1246.9  329851.30  145418.99  44.09
1250.6  328753.87  145031.99  44.12
1254.3  327578.90  144583.88  44.14
1258.1  326331.13  144084.20  44.15
1261.8  324862.53  143456.23  44.16
1265.6  323630.90  142886.78  44.15
1269.3  322776.68  142431.13  44.13
1273.1  323115.13  142447.30  44.09
1276.8  322932.40  142180.97  44.03
1280.6  321801.40  141487.49  43.97
1284.3  319816.40  140353.54  43.89
1288.0  318515.33  139443.99  43.78
1291.8  317995.59  138775.76  43.64
1295.5  317213.60  137944.61  43.49
1299.2  316066.77  136868.48  43.30
1302.9  314445.48  135478.10  43.08
1306.7  312676.35  133922.13  42.83
1310.4  310955.58  132249.73  42.53
1314.1  309354.83  130530.74  42.19
1317.9  307923.13  128729.85  41.81
1321.6  306355.15  126748.42  41.37
1325.3  304667.48  124590.53  40.89
1329.0  303358.88  122504.65  40.38
1332.8  301393.40  120051.80  39.83
1336.5  299715.20  117708.18  39.27
1340.2  299572.00  115992.50  38.72
1343.9  299558.54  114347.11  38.17
1347.6  299822.70  112835.76  37.63
1351.4  301382.00  111890.07  37.13
