/*** Spectra Vista SIG Data ***/
name= 36_20220721_BENI_69_avg.sig
comm= Averaged Ref/Tar of files: HR.072122.0030_moc.sig,HR.072122.0031_moc.sig,HR.072122.0032_moc.sig
data=
337.3  3275.25  289.24  8.83
338.8  3415.10  275.77  8.08
340.3  3560.60  262.36  7.37
341.8  3749.45  262.16  6.99
343.2  3907.20  258.79  6.62
344.7  4051.75  252.65  6.24
346.2  4248.40  232.65  5.48
347.7  4443.73  223.97  5.04
349.2  4649.40  228.96  4.92
350.6  4884.43  230.84  4.73
352.1  5180.13  227.96  4.40
353.6  5413.20  224.72  4.15
355.1  5691.08  214.88  3.78
356.6  5965.05  213.51  3.58
358.0  6220.50  213.27  3.43
359.5  6489.00  223.66  3.45
361.0  6822.90  226.29  3.32
362.5  7172.38  230.85  3.22
364.0  7541.53  228.85  3.03
365.4  7839.90  234.43  2.99
366.9  8177.00  240.47  2.94
368.4  8482.53  241.06  2.84
369.9  8837.18  251.20  2.84
371.3  9238.20  269.03  2.91
372.8  9637.65  279.66  2.90
374.3  10051.25  273.36  2.72
375.8  10429.65  270.53  2.59
377.2  10786.90  274.64  2.55
378.7  11190.40  280.78  2.51
380.2  11540.10  293.08  2.54
381.7  12053.15  300.62  2.49
383.1  12531.75  305.95  2.44
384.6  13028.93  305.20  2.34
386.1  13458.45  312.98  2.33
387.6  13879.25  325.45  2.34
389.0  14338.00  329.77  2.30
390.5  14788.35  341.36  2.31
392.0  15341.00  355.69  2.32
393.4  15870.10  373.86  2.36
394.9  16390.80  379.82  2.32
396.4  16896.38  385.91  2.28
397.9  17425.00  398.29  2.29
399.3  17955.43  410.99  2.29
400.8  18469.43  433.93  2.35
402.2  19075.35  446.58  2.34
403.7  19645.20  467.74  2.38
405.2  20218.45  478.46  2.37
406.6  20764.00  494.05  2.38
408.1  21334.40  510.11  2.39
409.6  21906.10  531.40  2.43
411.0  22524.25  556.73  2.47
412.5  23157.40  579.13  2.50
414.0  23777.63  593.79  2.50
415.4  24446.25  616.31  2.52
416.9  25076.78  635.52  2.53
418.4  25715.48  660.92  2.57
419.8  26390.00  687.09  2.60
421.3  27076.18  711.98  2.63
422.7  27840.00  739.42  2.66
424.2  28569.38  761.79  2.67
425.7  29291.10  781.78  2.67
427.1  30004.20  806.62  2.69
428.6  30752.00  833.16  2.71
430.0  31442.60  859.92  2.73
431.5  32282.78  883.84  2.74
432.9  33109.00  911.09  2.75
434.4  33950.25  937.81  2.76
435.9  34734.00  960.53  2.77
437.3  35530.00  987.12  2.78
438.8  36313.13  1012.31  2.79
440.2  37137.10  1047.71  2.82
441.7  38056.00  1076.85  2.83
443.1  38902.00  1107.70  2.85
444.6  39824.00  1140.57  2.86
446.0  40702.58  1172.20  2.88
447.5  41605.58  1204.86  2.90
448.9  42479.70  1237.17  2.91
450.4  43447.25  1275.51  2.94
451.8  44252.00  1303.71  2.95
453.3  45121.83  1341.12  2.97
454.7  46086.15  1380.24  2.99
456.2  46909.08  1411.42  3.01
457.6  47816.55  1445.84  3.02
459.1  48742.85  1477.43  3.03
460.5  49621.25  1509.21  3.04
462.0  50624.08  1546.49  3.05
463.4  51594.20  1581.37  3.07
464.8  52544.63  1616.11  3.08
466.3  53477.33  1649.61  3.08
467.7  54413.95  1684.44  3.10
469.2  55413.28  1720.37  3.10
470.6  56326.45  1751.30  3.11
472.0  57313.40  1783.91  3.11
473.5  58251.50  1821.18  3.13
474.9  59237.25  1863.90  3.15
476.4  60321.60  1906.56  3.16
477.8  61335.00  1946.31  3.17
479.2  62306.50  1982.77  3.18
480.7  63342.60  2024.29  3.20
482.1  64418.10  2067.59  3.21
483.6  65545.20  2112.45  3.22
485.0  66570.53  2161.60  3.25
486.4  67715.70  2214.65  3.27
487.9  68737.50  2268.13  3.30
489.3  69840.68  2325.43  3.33
490.7  70856.70  2382.08  3.36
492.2  72015.30  2455.88  3.41
493.6  73074.20  2521.75  3.45
495.0  74119.50  2597.68  3.50
496.5  75224.05  2685.11  3.57
497.9  76265.98  2774.55  3.64
499.3  77351.93  2872.67  3.71
500.7  78538.65  2987.20  3.80
502.2  79628.40  3116.61  3.91
503.6  80811.00  3269.01  4.05
505.0  81820.25  3434.52  4.20
506.5  83050.28  3630.99  4.37
507.9  84176.35  3851.11  4.58
509.3  85484.80  4115.81  4.81
510.7  86682.38  4403.10  5.08
512.2  88008.00  4737.60  5.38
513.6  89386.15  5119.53  5.73
515.0  90727.05  5540.43  6.11
516.4  92009.93  6008.58  6.53
517.8  93521.63  6533.28  6.99
519.3  94752.90  7077.18  7.47
520.7  96228.45  7671.57  7.97
522.1  97461.65  8270.80  8.49
523.5  98745.60  8889.65  9.00
524.9  100105.20  9507.52  9.50
526.3  101411.45  10105.95  9.97
527.8  102791.70  10695.39  10.40
529.2  103853.00  11241.98  10.82
530.6  105326.05  11806.34  11.21
532.0  106918.00  12334.40  11.54
533.4  108192.75  12785.06  11.82
534.8  109106.25  13154.72  12.06
536.3  110694.90  13567.36  12.26
537.7  112568.40  13991.28  12.43
539.1  113919.98  14327.05  12.58
540.5  115029.30  14620.90  12.71
541.9  116666.70  14970.62  12.83
543.3  117891.38  15267.54  12.95
544.7  119107.20  15556.11  13.06
546.1  120766.53  15906.98  13.17
547.5  121945.60  16183.89  13.27
549.0  123607.00  16501.68  13.35
550.4  125013.75  16771.92  13.42
551.8  126447.35  17007.60  13.45
553.2  127899.75  17196.16  13.45
554.6  129157.60  17314.32  13.41
556.0  130596.30  17402.19  13.33
557.4  132108.38  17448.46  13.21
558.8  133639.20  17457.20  13.06
560.2  134999.50  17398.97  12.89
561.6  136577.93  17324.36  12.68
563.0  138050.03  17196.76  12.46
564.4  139534.30  17034.53  12.21
565.8  140972.50  16828.79  11.94
567.2  142598.75  16604.76  11.64
568.6  144017.63  16324.10  11.33
570.0  145363.88  16004.48  11.01
571.4  146987.10  15704.47  10.68
572.8  148630.00  15406.96  10.37
574.2  150147.20  15114.03  10.07
575.6  151605.00  14836.93  9.79
577.0  153035.90  14588.62  9.53
578.4  154665.88  14382.55  9.30
579.8  156082.95  14188.56  9.09
581.2  157697.80  14039.70  8.90
582.5  159014.70  13885.34  8.73
583.9  160456.40  13761.72  8.58
585.3  162144.23  13681.72  8.44
586.7  163515.95  13596.72  8.32
588.1  164924.25  13534.50  8.21
589.5  166465.25  13502.53  8.11
590.9  167982.80  13496.40  8.03
592.3  169688.55  13518.86  7.97
593.7  171023.78  13529.90  7.91
595.0  172560.38  13567.87  7.86
596.4  173918.50  13593.55  7.82
597.8  175309.60  13618.92  7.77
599.2  176761.20  13639.25  7.72
600.6  178408.43  13659.27  7.66
602.0  179613.08  13619.34  7.58
603.3  181285.45  13588.71  7.50
604.7  182862.10  13515.85  7.39
606.1  184243.80  13399.67  7.27
607.5  185787.35  13271.98  7.14
608.9  187370.80  13132.60  7.01
610.2  188669.25  12960.00  6.87
611.6  190150.05  12793.45  6.73
613.0  191592.55  12628.47  6.59
614.4  192889.35  12461.17  6.46
615.8  194249.25  12312.30  6.34
617.1  195701.10  12190.08  6.23
618.5  197210.00  12093.71  6.13
619.9  198621.90  12015.90  6.05
621.3  200150.78  11968.69  5.98
622.6  201635.50  11948.16  5.93
624.0  202997.55  11942.11  5.88
625.4  204370.65  11955.10  5.85
626.8  205862.48  11999.87  5.83
628.1  207112.13  12041.73  5.81
629.5  208876.00  12116.13  5.80
630.9  210375.28  12181.85  5.79
632.2  211678.25  12222.65  5.77
633.6  213189.13  12258.89  5.75
635.0  214604.40  12260.16  5.71
636.3  216042.40  12226.98  5.66
637.7  217326.50  12143.30  5.59
639.1  218890.00  12037.67  5.50
640.4  220283.53  11888.71  5.40
641.8  221422.15  11712.21  5.29
643.2  222915.18  11542.52  5.18
644.5  224183.00  11356.71  5.07
645.9  225809.55  11187.03  4.95
647.2  227679.20  11054.05  4.86
648.6  229493.25  10943.87  4.77
650.0  230860.80  10836.62  4.69
651.3  231148.78  10693.40  4.63
652.7  231929.10  10570.51  4.56
654.0  233809.00  10495.62  4.49
655.4  235334.08  10407.09  4.42
656.8  235716.80  10278.13  4.36
658.1  236919.90  10167.01  4.29
659.5  239069.25  10073.18  4.21
660.8  240727.50  9965.14  4.14
662.2  241516.80  9842.35  4.08
663.5  243029.80  9748.95  4.01
664.9  244359.70  9671.80  3.96
666.2  245043.60  9594.63  3.92
667.6  246646.60  9591.67  3.89
668.9  247707.43  9609.81  3.88
670.3  248698.13  9634.89  3.87
671.6  250233.75  9700.86  3.88
673.0  251340.00  9777.99  3.89
674.3  252514.60  9885.22  3.91
675.7  253730.05  10008.59  3.94
677.0  254807.23  10143.25  3.98
678.4  256084.68  10314.83  4.03
679.7  257119.85  10502.78  4.08
681.1  258343.73  10730.13  4.15
682.4  259431.90  10985.59  4.23
683.8  260669.50  11292.89  4.33
685.1  261606.00  11661.35  4.46
686.4  262848.00  12132.62  4.62
687.8  264063.00  12740.14  4.82
689.1  265064.25  13520.37  5.10
690.5  266344.95  14564.11  5.47
691.8  267137.85  15924.71  5.96
693.1  268357.20  17710.57  6.60
694.5  269473.75  19929.43  7.40
695.8  270611.25  22608.73  8.35
697.1  271726.00  25748.67  9.48
698.5  272717.80  29351.32  10.76
699.8  273755.28  33378.03  12.19
701.1  274843.68  37787.78  13.75
702.5  275583.55  42462.29  15.41
703.8  276480.00  47374.29  17.13
705.1  277599.08  52483.47  18.91
706.5  278591.13  57672.52  20.70
707.8  279531.45  62898.43  22.50
709.1  280357.35  68094.65  24.29
710.5  281451.28  73319.55  26.05
711.8  282273.40  78410.20  27.78
713.1  283254.60  83481.86  29.47
714.4  284146.60  88416.31  31.12
715.8  284949.40  93214.00  32.71
717.1  286191.75  98028.80  34.25
718.4  287078.40  102582.19  35.73
719.7  288129.50  107026.38  37.15
721.0  288652.50  111108.43  38.49
722.4  289384.15  115087.90  39.77
723.7  290327.70  118953.05  40.97
725.0  291334.50  122666.52  42.11
726.3  292228.48  126140.08  43.16
727.6  292753.45  129275.58  44.16
729.0  293646.33  132368.95  45.08
730.3  294420.68  135208.50  45.92
731.6  295301.40  137936.96  46.71
732.9  296104.55  140438.69  47.43
734.2  296885.88  142798.54  48.10
735.5  297850.03  145095.03  48.71
736.8  298596.30  147135.47  49.28
738.1  299395.30  149062.25  49.79
739.5  300350.20  150917.39  50.25
740.8  301042.50  152517.48  50.66
742.1  301759.50  154060.86  51.05
743.4  302475.00  155496.19  51.41
744.7  303409.10  156968.28  51.73
746.0  304250.70  158282.50  52.02
747.3  304819.55  159354.28  52.28
748.6  305549.50  160421.52  52.50
749.9  306280.00  161434.25  52.71
751.2  307027.15  162362.11  52.88
752.5  307890.10  163327.42  53.05
753.8  308467.25  164094.69  53.20
755.1  309140.00  164859.81  53.33
756.4  309725.90  165515.67  53.44
757.7  310683.63  166322.74  53.53
759.0  312418.43  167502.82  53.61
760.3  313579.20  168341.99  53.68
761.6  315103.60  169352.32  53.74
762.9  315623.25  169818.68  53.80
764.2  315994.30  170175.55  53.85
765.5  316300.60  170467.01  53.89
766.8  316744.00  170819.63  53.93
768.1  317264.60  171188.42  53.96
769.3  317892.05  171588.53  53.98
770.6  318546.15  172009.62  54.00
771.9  319279.10  172465.35  54.02
773.2  319670.40  172733.67  54.03
774.5  320291.40  173107.36  54.05
775.8  320985.10  173531.93  54.06
777.1  321553.65  173878.92  54.07
778.4  321938.93  174109.69  54.08
779.6  322694.60  174558.22  54.09
780.9  323190.00  174831.43  54.10
782.2  323675.00  175125.03  54.11
783.5  324001.50  175333.17  54.11
784.8  324525.60  175656.12  54.13
786.0  324956.80  175894.26  54.13
787.3  325388.55  176147.29  54.13
788.6  325824.35  176408.10  54.14
789.9  326314.80  176693.97  54.15
791.2  326987.85  177062.19  54.15
792.4  327672.58  177448.84  54.15
793.7  328155.00  177722.99  54.16
795.0  328779.00  178081.22  54.16
796.2  329449.85  178460.88  54.17
797.5  330200.03  178869.47  54.17
798.8  330868.43  179250.30  54.18
800.0  331563.45  179633.48  54.18
801.3  332083.90  179901.77  54.17
802.6  332678.93  180250.29  54.18
803.8  333311.05  180615.98  54.19
805.1  333809.00  180906.02  54.19
806.4  334289.40  181152.07  54.19
807.7  334809.45  181473.02  54.20
808.9  335398.45  181787.44  54.20
810.2  335977.25  182087.45  54.20
811.4  336439.00  182376.33  54.21
812.7  337106.25  182720.42  54.20
814.0  337923.80  183172.37  54.21
815.2  338509.00  183518.69  54.21
816.5  338960.95  183755.33  54.21
817.7  339414.85  184030.55  54.22
819.0  339996.25  184314.90  54.21
820.2  340164.00  184408.61  54.21
821.5  340858.10  184799.12  54.22
822.7  341192.40  184992.79  54.22
824.0  341541.90  185177.21  54.22
825.2  342000.23  185455.44  54.23
826.5  342318.28  185630.47  54.23
827.7  342898.50  185912.55  54.22
829.0  343365.08  186124.86  54.21
830.2  343677.50  186272.03  54.20
831.5  344129.30  186540.81  54.21
832.7  344456.70  186716.27  54.21
834.0  344798.85  186887.84  54.20
835.2  345089.25  187069.04  54.21
836.4  345441.25  187241.22  54.20
837.7  345904.40  187453.54  54.19
838.9  346311.60  187696.65  54.20
840.1  346682.70  187917.45  54.20
841.4  347090.00  188181.85  54.22
842.6  347493.60  188381.76  54.21
843.8  347791.00  188571.45  54.22
845.1  348325.15  188835.87  54.21
846.3  348760.30  189062.01  54.21
847.5  349139.70  189287.64  54.22
848.8  349540.80  189523.53  54.22
850.0  349774.95  189701.81  54.24
851.2  350307.45  189985.01  54.23
852.5  350756.50  190210.42  54.23
853.7  351306.00  190474.07  54.22
854.9  351718.10  190726.83  54.23
856.1  352157.00  190949.05  54.22
857.4  352283.05  191055.92  54.23
858.6  352861.00  191324.28  54.22
859.8  353257.50  191545.04  54.22
861.0  353667.60  191785.06  54.23
862.2  354166.73  192040.59  54.22
863.5  354528.20  192213.28  54.22
864.7  355014.00  192489.57  54.22
865.9  355402.80  192702.26  54.22
867.1  355697.55  192854.97  54.22
868.3  356136.30  193091.61  54.22
869.5  356689.75  193354.20  54.21
870.8  357178.50  193632.43  54.21
872.0  357705.45  193913.43  54.21
873.2  358161.45  194121.62  54.20
874.4  358625.48  194344.69  54.19
875.6  358987.50  194555.27  54.20
876.8  359457.05  194805.85  54.19
878.0  359913.20  195076.62  54.20
879.2  360436.65  195324.78  54.19
880.4  361009.13  195607.64  54.18
881.6  361473.55  195843.48  54.18
882.8  361916.80  196069.65  54.18
884.0  362576.10  196363.64  54.16
885.2  362990.30  196620.06  54.17
886.5  363663.05  196937.29  54.15
887.7  364241.15  197209.62  54.14
888.8  364917.45  197517.36  54.13
890.0  365454.85  197791.93  54.12
891.2  366085.90  198112.14  54.12
892.4  366606.45  198421.25  54.12
893.6  367189.85  198701.23  54.11
894.8  368126.50  199136.30  54.09
896.0  369011.50  199617.27  54.10
897.2  369853.25  200056.88  54.09
898.4  370632.90  200410.57  54.07
899.6  371145.38  200706.29  54.08
900.8  371517.70  200917.96  54.08
902.0  371972.10  201029.33  54.04
903.2  372240.75  201195.01  54.05
904.3  372578.40  201363.46  54.05
905.5  373328.50  201699.58  54.03
906.7  373982.50  201991.09  54.01
907.9  374582.95  202284.55  54.00
909.1  374847.75  202443.36  54.01
910.2  375170.40  202542.84  53.99
911.4  375365.25  202661.83  53.99
912.6  375711.05  202789.39  53.97
913.8  375959.48  202936.32  53.98
915.0  376474.35  203163.94  53.96
916.2  376701.00  203251.47  53.96
917.3  376817.18  203249.90  53.94
918.5  377029.80  203332.67  53.93
919.7  377416.95  203464.00  53.91
920.8  377524.95  203515.58  53.91
922.0  377704.25  203552.07  53.89
923.2  378105.00  203671.00  53.87
924.4  378317.25  203727.54  53.85
925.5  378529.40  203819.82  53.85
926.7  379144.63  204084.39  53.83
927.9  379864.20  204453.38  53.82
929.0  381412.80  205118.69  53.78
930.2  383655.60  206174.50  53.74
931.4  386127.00  207355.74  53.70
932.5  388713.65  208667.73  53.68
933.7  390027.60  209331.81  53.67
934.9  390604.38  209571.08  53.65
936.0  390289.25  209270.32  53.62
937.2  388476.60  208177.07  53.59
938.3  387119.40  207262.82  53.54
939.5  385776.00  206436.89  53.51
940.7  386087.40  206535.39  53.49
941.8  387689.25  207205.33  53.45
943.0  388972.50  207790.01  53.42
944.2  389775.10  208113.15  53.39
945.3  389580.75  207751.70  53.33
946.5  388998.45  207247.81  53.28
947.6  389218.70  207198.27  53.23
948.8  389214.15  207045.00  53.20
949.9  389470.20  206924.08  53.13
951.1  389219.03  206563.67  53.07
952.2  389232.00  206234.29  52.98
953.4  389008.25  205809.12  52.91
954.5  389188.80  205517.52  52.81
955.7  389201.40  205309.68  52.75
956.8  388951.50  205004.47  52.71
958.0  388732.50  204649.12  52.65
959.1  388698.45  204459.56  52.60
960.3  388427.78  204160.85  52.56
961.4  388414.80  204022.76  52.53
962.6  388634.75  203970.17  52.48
963.7  388594.80  203741.24  52.43
964.9  388586.70  203617.14  52.40
966.0  388591.43  203520.95  52.37
967.2  388564.65  203601.79  52.40
968.3  388573.20  203455.65  52.36
969.5  388329.68  203434.75  52.39
970.6  388623.85  203482.38  52.36
971.8  388953.08  203648.92  52.36
972.9  389032.35  203487.44  52.31
974.0  389124.60  203634.74  52.33
975.2  389223.63  203583.40  52.30
976.3  389358.15  203587.57  52.29
977.5  389520.25  203681.45  52.29
978.6  389697.40  203692.82  52.27
979.7  389897.55  203835.64  52.28
980.9  390050.13  203749.39  52.24
982.0  390199.35  203800.48  52.23
983.2  389835.78  203834.75  52.29
984.3  389904.60  203805.88  52.27
985.4  389380.98  203955.95  52.38
986.6  389969.38  203983.08  52.31
987.7  391335.00  204575.03  52.28
988.9  390889.80  204587.66  52.34
990.0  392230.30  204975.76  52.26
993.1  333810.05  173596.31  52.00
996.9  334770.43  174588.96  52.15
1000.7  336037.86  175655.50  52.27
1004.5  336689.75  176376.84  52.39
1008.4  336638.04  176700.40  52.49
1012.2  336811.79  177127.31  52.59
1016.0  337041.00  177605.52  52.70
1019.8  337467.90  178106.14  52.78
1023.7  337756.72  178517.95  52.85
1027.5  337769.82  178773.61  52.93
1031.3  338204.23  179190.67  52.98
1035.1  338266.25  179395.18  53.03
1038.9  338307.02  179553.01  53.07
1042.7  338203.08  179593.48  53.10
1046.5  338103.83  179646.24  53.13
1050.3  338147.43  179733.54  53.15
1054.2  337857.33  179664.60  53.18
1058.0  337438.68  179448.80  53.18
1061.8  337286.28  179407.30  53.19
1065.6  337124.17  179313.78  53.19
1069.4  337241.13  179361.09  53.18
1073.2  337066.96  179219.66  53.17
1077.0  336700.35  178962.34  53.15
1080.8  336218.75  178598.38  53.12
1084.6  335072.62  177865.85  53.08
1088.4  334338.29  177368.13  53.05
1092.2  333537.75  176801.39  53.01
1096.0  333005.35  176375.83  52.96
1099.8  332595.90  175990.18  52.91
1103.6  332053.53  175507.52  52.86
1107.4  331267.95  174860.76  52.79
1111.2  331015.00  174521.43  52.72
1114.9  330370.83  173933.94  52.65
1118.7  329694.75  173273.30  52.56
1122.5  328955.47  172481.01  52.43
1126.3  327897.50  171413.51  52.28
1130.1  327415.02  170454.98  52.06
1133.9  326029.20  168744.67  51.76
1137.7  324745.20  166881.12  51.39
1141.4  323219.54  164668.62  50.95
1145.2  322575.93  162796.04  50.47
1149.0  321622.29  160838.10  50.01
1152.8  320205.65  158851.75  49.61
1156.6  318738.93  157184.26  49.31
1160.3  317209.33  155797.06  49.11
1164.1  314984.87  154336.33  49.00
1167.9  313351.04  153322.69  48.93
1171.7  312228.00  152646.38  48.89
1175.4  311241.53  152093.86  48.87
1179.2  310381.25  151587.27  48.84
1183.0  310199.00  151364.11  48.80
1186.7  309618.87  150974.80  48.76
1190.5  308516.00  150338.12  48.73
1194.3  307402.87  149742.99  48.71
1198.0  306357.15  149239.99  48.71
1201.8  305056.08  148643.19  48.73
1205.6  303934.33  148184.15  48.76
1209.3  302993.37  147886.65  48.81
1213.1  302019.45  147593.33  48.87
1216.8  301020.50  147354.50  48.95
1220.6  299992.00  147102.43  49.04
1224.3  298840.00  146786.22  49.12
1228.1  297770.60  146518.35  49.21
1231.9  296694.88  146209.54  49.28
1235.6  295420.73  145787.67  49.35
1239.4  294237.75  145390.30  49.41
1243.1  293144.78  144980.05  49.46
1246.9  292067.21  144546.65  49.49
1250.6  291219.40  144186.56  49.51
1254.3  290284.87  143767.26  49.53
1258.1  289424.22  143358.00  49.53
1261.8  288287.33  142804.42  49.54
1265.6  286978.85  142104.53  49.52
1269.3  285558.60  141319.45  49.49
1273.1  285464.03  141135.24  49.44
1276.8  285753.60  141125.12  49.39
1280.6  285794.73  140973.37  49.33
1284.3  284671.20  140207.51  49.25
1288.0  283352.12  139282.86  49.16
1291.8  282069.03  138295.47  49.03
1295.5  280720.00  137242.68  48.89
1299.2  279509.42  136197.56  48.73
1302.9  278187.33  135024.72  48.54
1306.7  276786.30  133738.40  48.32
1310.4  275454.78  132361.74  48.05
1314.1  274219.55  130947.87  47.75
1317.9  273141.67  129488.82  47.41
1321.6  271900.45  127834.74  47.02
1325.3  270441.68  125960.29  46.58
1329.0  269215.92  124136.81  46.11
1332.8  267282.40  121887.82  45.60
1336.5  265578.93  119716.84  45.08
1340.2  265158.83  118116.07  44.55
1343.9  264594.58  116439.34  44.01
1347.6  263654.25  114626.49  43.48
