/*** Spectra Vista SIG Data ***/
name= 18_20220824_QUPA_26_avg.sig
comm= Averaged Ref/Tar of files: HR.082422.0050_moc.sig,HR.082422.0051_moc.sig,HR.082422.0052_moc.sig
data=
337.3  3523.38  273.17  7.75
338.8  3655.60  275.77  7.54
340.3  3888.55  270.39  6.95
341.8  4069.53  259.54  6.38
343.2  4218.00  262.17  6.22
344.7  4392.95  251.84  5.73
346.2  4575.20  235.76  5.15
347.7  4797.65  239.70  5.00
349.2  4989.60  226.80  4.55
350.6  5251.68  230.14  4.38
352.1  5537.38  232.04  4.19
353.6  5829.60  228.69  3.92
355.1  6095.18  230.91  3.79
356.6  6423.90  227.86  3.55
358.0  6730.90  226.03  3.36
359.5  7014.30  226.01  3.22
361.0  7361.55  222.87  3.03
362.5  7728.60  235.32  3.04
364.0  8086.35  240.87  2.98
365.4  8458.10  242.46  2.87
366.9  8867.63  242.05  2.73
368.4  9191.68  244.18  2.66
369.9  9593.88  261.50  2.73
371.3  10039.20  271.58  2.71
372.8  10434.15  283.20  2.71
374.3  10911.25  276.94  2.54
375.8  11345.95  277.71  2.45
377.2  11782.20  286.93  2.44
378.7  12212.60  285.91  2.34
380.2  12643.00  298.21  2.36
381.7  13161.18  303.19  2.30
383.1  13690.60  313.13  2.29
384.6  14215.83  318.05  2.24
386.1  14728.63  318.64  2.16
387.6  15226.75  327.51  2.15
389.0  15731.60  340.49  2.16
390.5  16222.05  354.00  2.18
392.0  16822.20  363.75  2.16
393.4  17394.05  372.85  2.14
394.9  17982.90  380.81  2.12
396.4  18578.25  390.34  2.10
397.9  19167.50  404.14  2.11
399.3  19753.50  418.71  2.12
400.8  20338.80  430.13  2.11
402.2  20965.70  458.27  2.19
403.7  21595.28  464.53  2.15
405.2  22230.83  478.01  2.15
406.6  22828.80  493.61  2.16
408.1  23481.40  506.24  2.16
409.6  24123.05  517.60  2.15
411.0  24808.70  534.36  2.15
412.5  25489.80  551.37  2.16
414.0  26161.50  562.35  2.15
415.4  26890.88  582.62  2.17
416.9  27601.80  599.91  2.17
418.4  28311.30  614.32  2.17
419.8  29065.40  634.05  2.18
421.3  29803.40  654.94  2.20
422.7  30641.40  675.45  2.20
424.2  31455.00  696.21  2.21
425.7  32241.40  713.78  2.21
427.1  33042.60  727.95  2.20
428.6  33867.50  744.59  2.20
430.0  34644.53  762.80  2.20
431.5  35536.43  784.63  2.21
432.9  36463.85  812.59  2.23
434.4  37388.25  835.22  2.23
435.9  38262.00  856.80  2.24
437.3  39132.50  878.17  2.24
438.8  40005.53  899.05  2.25
440.2  40910.10  922.97  2.26
441.7  41915.20  951.78  2.27
443.1  42850.50  979.24  2.29
444.6  43858.80  1010.82  2.30
446.0  44841.60  1039.24  2.32
447.5  45832.05  1072.65  2.34
448.9  46814.10  1103.75  2.36
450.4  47876.15  1140.09  2.38
451.8  48763.00  1166.29  2.39
453.3  49724.23  1198.92  2.41
454.7  50789.63  1232.43  2.43
456.2  51709.75  1261.04  2.44
457.6  52715.03  1290.33  2.45
459.1  53739.73  1319.30  2.45
460.5  54717.13  1348.45  2.46
462.0  55804.15  1376.97  2.47
463.4  56909.80  1404.71  2.47
464.8  57928.13  1430.05  2.47
466.3  58961.10  1457.00  2.47
467.7  60001.73  1484.44  2.47
469.2  61113.65  1516.35  2.48
470.6  62129.10  1542.29  2.48
472.0  63224.90  1572.91  2.49
473.5  64254.63  1601.37  2.49
474.9  65336.25  1633.46  2.50
476.4  66528.00  1671.50  2.51
477.8  67657.00  1704.10  2.52
479.2  68730.00  1738.07  2.53
480.7  69885.30  1775.05  2.54
482.1  71065.10  1811.07  2.55
483.6  72322.25  1850.15  2.56
485.0  73460.63  1894.43  2.58
486.4  74728.80  1940.28  2.60
487.9  75859.88  1985.94  2.62
489.3  77100.10  2030.65  2.63
490.7  78219.20  2083.94  2.66
492.2  79512.30  2144.52  2.70
493.6  80662.90  2205.03  2.73
495.0  81841.50  2273.70  2.78
496.5  83060.50  2344.93  2.82
497.9  84249.18  2426.83  2.88
499.3  85452.53  2514.04  2.94
500.7  86757.30  2620.54  3.02
502.2  87950.40  2731.73  3.11
503.6  89264.40  2853.81  3.20
505.0  90375.85  2989.44  3.31
506.5  91752.75  3147.78  3.43
507.9  93012.05  3326.45  3.58
509.3  94468.40  3527.47  3.73
510.7  95779.13  3745.67  3.91
512.2  97243.05  3993.45  4.11
513.6  98771.05  4277.67  4.33
515.0  100257.80  4582.08  4.57
516.4  101691.45  4919.40  4.84
517.8  103366.75  5296.47  5.12
519.3  104746.15  5683.08  5.43
520.7  106358.50  6103.05  5.74
522.1  107705.33  6525.66  6.06
523.5  109128.90  6964.30  6.38
524.9  110595.60  7405.72  6.70
526.3  112016.10  7829.63  6.99
527.8  113587.65  8257.73  7.27
529.2  114864.10  8655.91  7.54
530.6  116524.80  9056.16  7.77
532.0  118300.00  9441.87  7.98
533.4  119663.63  9771.41  8.17
534.8  120664.90  10046.97  8.33
536.3  122446.80  10348.75  8.45
537.7  124513.20  10647.36  8.55
539.1  125998.48  10885.91  8.64
540.5  127260.05  11102.76  8.72
541.9  129065.78  11356.03  8.80
543.3  130415.53  11571.69  8.87
544.7  131772.60  11781.30  8.94
546.1  133620.03  12037.40  9.01
547.5  134926.40  12232.96  9.07
549.0  136807.00  12472.32  9.12
550.4  138390.63  12674.11  9.16
551.8  139950.93  12850.12  9.18
553.2  141559.15  12991.59  9.18
554.6  142979.20  13081.62  9.15
556.0  144568.80  13146.08  9.09
557.4  146232.98  13181.39  9.01
558.8  147932.55  13183.73  8.91
560.2  149441.50  13135.15  8.79
561.6  151183.35  13067.19  8.64
563.0  152830.25  12962.86  8.48
564.4  154473.10  12825.58  8.30
565.8  156060.00  12657.11  8.11
567.2  157863.75  12485.56  7.91
568.6  159438.38  12267.21  7.69
570.0  160948.38  12028.60  7.47
571.4  162755.45  11806.45  7.25
572.8  164583.25  11592.89  7.04
574.2  166264.00  11380.05  6.84
575.6  167861.25  11184.86  6.66
577.0  169443.50  11009.00  6.50
578.4  171250.63  10867.35  6.35
579.8  172824.98  10728.36  6.21
581.2  174608.88  10626.07  6.09
582.5  176085.00  10520.42  5.97
583.9  177672.60  10433.90  5.87
585.3  179542.80  10374.75  5.78
586.7  181072.45  10312.87  5.70
588.1  182638.88  10269.30  5.62
589.5  184350.25  10246.83  5.56
590.9  186037.20  10240.27  5.50
592.3  187911.15  10257.06  5.46
593.7  189415.20  10259.75  5.42
595.0  191118.15  10284.67  5.38
596.4  192618.30  10299.57  5.35
597.8  194150.68  10315.80  5.31
599.2  195769.20  10330.45  5.28
600.6  197583.10  10345.28  5.24
602.0  198945.08  10319.35  5.19
603.3  200797.45  10299.29  5.13
604.7  202526.75  10250.52  5.06
606.1  204074.40  10175.99  4.99
607.5  205769.73  10097.88  4.91
608.9  207532.55  10004.67  4.82
610.2  208967.85  9894.69  4.74
611.6  210620.48  9792.57  4.65
613.0  212212.70  9685.90  4.56
614.4  213666.75  9577.78  4.48
615.8  215163.00  9479.51  4.41
617.1  216766.20  9398.76  4.34
618.5  218462.80  9340.63  4.28
619.9  220039.28  9294.44  4.22
621.3  221723.10  9268.97  4.18
622.6  223382.00  9260.38  4.15
624.0  224905.65  9259.99  4.12
625.4  226425.38  9272.73  4.10
626.8  228109.70  9306.27  4.08
628.1  229486.40  9335.40  4.07
629.5  231432.63  9394.07  4.06
630.9  233122.18  9445.44  4.05
632.2  234594.50  9475.61  4.04
633.6  236307.88  9510.08  4.02
635.0  237910.40  9505.54  4.00
636.3  239501.20  9474.47  3.96
637.7  240956.50  9410.96  3.91
639.1  242672.50  9328.33  3.84
640.4  244215.48  9209.52  3.77
641.8  245485.90  9067.32  3.69
643.2  247140.78  8932.50  3.61
644.5  248565.00  8780.51  3.53
645.9  250366.50  8648.66  3.45
647.2  252476.70  8555.05  3.39
648.6  254502.00  8476.84  3.33
650.0  256046.40  8407.13  3.28
651.3  256393.23  8302.65  3.24
652.7  257261.05  8204.04  3.19
654.0  259411.20  8138.88  3.14
655.4  261047.05  8082.74  3.10
656.8  261458.60  7986.94  3.05
658.1  262729.80  7905.65  3.01
659.5  265120.80  7829.44  2.95
660.8  267007.50  7733.57  2.90
662.2  267926.40  7620.69  2.84
663.5  269565.50  7539.86  2.80
664.9  271078.60  7472.75  2.76
666.2  271861.20  7402.11  2.72
667.6  273659.85  7389.36  2.70
668.9  274872.58  7388.20  2.69
670.3  275861.38  7399.52  2.68
671.6  277668.75  7458.44  2.69
673.0  278907.75  7535.14  2.70
674.3  280228.00  7616.29  2.72
675.7  281610.78  7727.09  2.74
677.0  282801.00  7851.39  2.78
678.4  284254.65  8015.00  2.82
679.7  285399.95  8195.40  2.87
681.1  286776.33  8416.67  2.93
682.4  288007.20  8659.83  3.01
683.8  289377.40  8946.92  3.09
685.1  290457.00  9287.86  3.20
686.4  291819.00  9715.99  3.33
687.8  293188.25  10259.16  3.50
689.1  294323.00  10923.27  3.71
690.5  295757.55  11776.11  3.98
691.8  296647.53  12843.71  4.33
693.1  298028.70  14196.59  4.76
694.5  299299.00  15849.60  5.30
695.8  300573.00  17810.00  5.93
697.1  301847.00  20097.57  6.66
698.5  302999.60  22734.59  7.50
699.8  304162.45  25719.06  8.46
701.1  305386.90  29009.75  9.50
702.5  306251.55  32538.58  10.62
703.8  307237.50  36294.86  11.81
705.1  308500.73  40259.50  13.05
706.5  309625.25  44351.09  14.32
707.8  310687.35  48538.24  15.62
709.1  311657.00  52760.57  16.93
710.5  312884.88  57084.39  18.24
711.8  313827.90  61382.34  19.56
713.1  314942.90  65733.18  20.87
714.4  315901.80  70053.86  22.18
715.8  316816.10  74351.17  23.47
717.1  318241.65  78737.56  24.74
718.4  319267.20  82972.59  25.99
719.7  320471.03  87196.15  27.21
721.0  321052.50  91179.86  28.40
722.4  321901.25  95139.95  29.56
723.7  322943.70  99052.12  30.67
725.0  324058.50  102868.50  31.74
726.3  325096.48  106513.62  32.76
727.6  325712.75  109885.20  33.74
729.0  326727.10  113241.20  34.66
730.3  327576.68  116389.40  35.53
731.6  328567.95  119432.83  36.35
732.9  329457.63  122275.32  37.11
734.2  330335.50  124974.33  37.83
735.5  331467.25  127611.70  38.50
736.8  332297.70  130011.88  39.13
738.1  333213.80  132295.83  39.70
739.5  334267.73  134488.06  40.23
740.8  335038.28  136435.30  40.72
742.1  335874.68  138295.47  41.17
743.4  336700.00  140029.05  41.59
744.7  337798.15  141776.97  41.97
746.0  338777.40  143354.01  42.32
747.3  339380.40  144681.05  42.63
748.6  340209.00  145993.18  42.91
749.9  341042.00  147205.07  43.16
751.2  341885.10  148347.70  43.39
752.5  342904.95  149482.86  43.59
753.8  343590.28  150423.45  43.78
755.1  344396.00  151337.33  43.94
756.4  345051.90  152127.91  44.09
757.7  346119.55  153046.84  44.22
759.0  348058.20  154291.42  44.33
760.3  349351.20  155201.33  44.43
761.6  351066.80  156262.08  44.51
762.9  351709.00  156804.93  44.58
764.2  352174.80  157235.88  44.65
765.5  352541.13  157601.05  44.70
766.8  353056.00  158011.28  44.76
768.1  353679.20  158435.67  44.80
769.3  354362.40  158865.84  44.83
770.6  355104.75  159321.39  44.87
771.9  355934.78  159798.40  44.90
773.2  356420.00  160102.43  44.92
774.5  357128.20  160497.75  44.94
775.8  357941.95  160928.60  44.96
777.1  358632.45  161295.00  44.98
778.4  359043.85  161537.65  44.99
779.6  359940.03  161991.06  45.01
780.9  360510.00  162292.00  45.02
782.2  361064.00  162583.67  45.03
783.5  361486.00  162803.77  45.04
784.8  362132.10  163125.90  45.05
786.0  362617.15  163383.83  45.06
787.3  363127.08  163641.22  45.06
788.6  363632.45  163912.09  45.08
789.9  364182.00  164196.08  45.09
791.2  364970.30  164560.21  45.09
792.4  365758.70  164940.32  45.10
793.7  366331.20  165223.76  45.10
795.0  367102.73  165575.63  45.10
796.2  367884.53  165948.88  45.11
797.5  368744.78  166353.25  45.11
798.8  369510.25  166722.27  45.12
800.0  370306.50  167099.66  45.12
801.3  370891.40  167367.85  45.13
802.6  371627.78  167700.45  45.13
803.8  372419.15  168061.45  45.13
805.1  373014.25  168350.02  45.13
806.4  373532.40  168612.46  45.14
807.7  374130.90  168922.84  45.15
808.9  374815.85  169245.54  45.15
810.2  375487.70  169541.43  45.15
811.4  376057.80  169823.88  45.16
812.7  376796.88  170155.30  45.16
814.0  377757.00  170598.49  45.16
815.2  378463.75  170940.40  45.17
816.5  378953.10  171190.40  45.17
817.7  379522.45  171455.50  45.18
819.0  380144.05  171741.71  45.18
820.2  380336.00  171870.70  45.19
821.5  381177.05  172252.90  45.19
822.7  381577.70  172463.25  45.20
824.0  381979.80  172664.43  45.20
825.2  382567.05  172928.98  45.20
826.5  382927.50  173120.15  45.21
827.7  383575.68  173425.14  45.21
829.0  384050.45  173659.61  45.22
830.2  384374.85  173851.13  45.23
831.5  384901.25  174097.87  45.23
832.7  385298.55  174286.69  45.23
834.0  385661.60  174474.83  45.24
835.2  386058.75  174701.15  45.25
836.4  386414.05  174867.07  45.25
837.7  386879.60  175102.13  45.26
838.9  387342.48  175347.26  45.27
840.1  387749.03  175584.48  45.28
841.4  388342.50  175835.09  45.28
842.6  388705.00  176053.30  45.29
843.8  389104.00  176267.68  45.30
845.1  389573.40  176537.42  45.32
846.3  389988.90  176754.67  45.32
847.5  390490.80  176989.32  45.32
848.8  390946.80  177224.74  45.33
850.0  391311.90  177425.99  45.34
851.2  391867.20  177711.97  45.35
852.5  392358.60  177940.76  45.35
853.7  392870.25  178180.97  45.35
854.9  393361.10  178437.26  45.36
856.1  393866.85  178677.44  45.36
857.4  393995.43  178816.41  45.39
858.6  394531.55  179065.35  45.39
859.8  394951.88  179287.46  45.39
861.0  395506.80  179542.18  45.40
862.2  396029.90  179776.43  45.39
863.5  396474.00  179968.82  45.39
864.7  396976.80  180240.22  45.40
865.9  397387.60  180470.33  45.41
867.1  397814.75  180661.88  45.41
868.3  398276.85  180870.39  45.41
869.5  398826.80  181117.63  45.41
870.8  399406.50  181395.34  45.42
872.0  400002.23  181671.04  45.42
873.2  400440.60  181895.99  45.42
874.4  400956.08  182131.39  45.42
875.6  401268.25  182336.78  45.44
876.8  401878.95  182583.92  45.43
878.0  402452.85  182832.24  45.43
879.2  403001.40  183113.04  45.44
880.4  403657.88  183360.16  45.42
881.6  404183.93  183600.24  45.42
882.8  404716.80  183797.06  45.41
884.0  405257.58  184134.31  45.44
885.2  405875.60  184385.49  45.43
886.5  406577.60  184686.15  45.42
887.7  407273.10  184950.79  45.41
888.8  407999.25  185256.96  45.41
890.0  408629.00  185542.75  45.41
891.2  409281.60  185840.12  45.41
892.4  409937.85  186160.31  45.41
893.6  410643.70  186460.19  45.41
894.8  411723.00  186911.03  45.40
896.0  412681.50  187355.64  45.40
897.2  413679.50  187767.30  45.39
898.4  414519.60  188124.83  45.38
899.6  415188.38  188399.57  45.38
900.8  415585.35  188622.39  45.39
902.0  416035.50  188777.95  45.38
903.2  416410.43  188947.19  45.38
904.3  416838.60  189145.51  45.38
905.5  417703.18  189444.79  45.35
906.7  418361.00  189746.06  45.35
907.9  419030.85  190028.21  45.35
909.1  419572.58  190245.38  45.34
910.2  419698.20  190375.52  45.36
911.4  420097.28  190502.58  45.35
912.6  420319.90  190639.02  45.36
913.8  420813.38  190749.95  45.33
915.0  421331.40  190975.96  45.33
916.2  421570.50  191093.13  45.33
917.3  421654.95  191146.33  45.33
918.5  421914.30  191286.65  45.34
919.7  422407.05  191444.09  45.32
920.8  422620.43  191528.13  45.32
922.0  422980.25  191591.40  45.30
923.2  423423.00  191695.40  45.27
924.4  423704.25  191798.29  45.27
925.5  424126.90  191951.78  45.26
926.7  424704.63  192252.35  45.27
927.9  425847.00  192692.58  45.25
929.0  427323.60  193380.33  45.25
930.2  429886.40  194403.80  45.22
931.4  432554.18  195518.02  45.20
932.5  435522.10  196760.99  45.18
933.7  437028.48  197438.57  45.18
934.9  437871.88  197728.00  45.16
936.0  437721.38  197594.00  45.14
937.2  435795.30  196623.93  45.12
938.3  433921.40  195807.47  45.13
939.5  432475.20  195076.32  45.11
940.7  433016.10  195117.96  45.06
941.8  434703.15  195784.32  45.04
943.0  436115.25  196475.07  45.05
944.2  437264.10  196827.12  45.01
945.3  436819.50  196604.94  45.01
946.5  436473.90  196199.69  44.95
947.6  436703.00  196195.79  44.93
948.8  436944.30  196061.34  44.87
949.9  437241.00  195997.52  44.83
951.1  436743.45  195716.22  44.81
952.2  436764.00  195552.46  44.77
953.4  436675.75  195340.03  44.73
954.5  436995.00  195164.02  44.66
955.7  436968.00  194983.20  44.62
956.8  436889.50  194736.19  44.57
958.0  436576.50  194447.47  44.54
959.1  436552.15  194265.38  44.50
960.3  436492.55  194063.86  44.46
961.4  436497.55  194028.70  44.45
962.6  436824.50  194055.93  44.42
963.7  436923.83  193904.88  44.38
964.9  436783.50  193810.43  44.37
966.0  436683.15  193777.69  44.37
967.2  436639.95  193840.82  44.39
968.3  436873.50  193733.56  44.35
969.5  436696.15  193705.54  44.36
970.6  437129.65  193753.72  44.32
971.8  437459.93  193867.71  44.32
972.9  437427.23  193823.33  44.31
974.0  437683.70  193969.47  44.32
975.2  437663.38  193875.96  44.30
976.3  438117.55  193965.44  44.27
977.5  438304.83  193985.77  44.26
978.6  438109.50  194113.28  44.31
979.7  438740.93  194200.45  44.26
980.9  439200.95  194267.08  44.23
982.0  439154.25  194201.48  44.22
983.2  439395.50  194141.77  44.18
984.3  438846.60  194048.56  44.22
985.4  439138.43  194246.91  44.23
986.6  439713.50  194250.66  44.18
987.7  440251.88  194673.63  44.22
988.9  441216.00  194739.09  44.14
990.0  442441.60  195106.77  44.10
993.1  367017.93  161464.06  43.99
996.9  368393.05  162458.19  44.10
1000.7  369963.24  163474.23  44.19
1004.5  370779.08  164145.40  44.27
1008.4  370722.71  164411.01  44.35
1012.2  370981.79  164782.11  44.42
1016.0  371292.60  165207.34  44.50
1019.8  371869.58  165684.75  44.55
1023.7  372359.52  166103.20  44.61
1027.5  372576.65  166442.28  44.67
1031.3  373318.70  166927.38  44.71
1035.1  373573.84  167180.95  44.75
1038.9  373716.20  167365.00  44.78
1042.7  373634.50  167427.45  44.81
1046.5  373487.17  167445.88  44.83
1050.3  373594.31  167538.81  44.85
1054.2  373349.67  167497.67  44.86
1058.0  372875.36  167297.44  44.87
1061.8  372736.43  167272.09  44.88
1065.6  372533.47  167178.41  44.88
1069.4  372887.87  167348.52  44.88
1073.2  372864.57  167328.08  44.88
1077.0  372580.23  167157.75  44.86
1080.8  371955.21  166767.26  44.84
1084.6  370577.20  166027.63  44.80
1088.4  369580.57  165518.70  44.79
1092.2  368608.50  164986.71  44.76
1096.0  368079.83  164628.84  44.73
1099.8  367649.32  164307.06  44.69
1103.6  367074.37  163933.52  44.66
1107.4  366298.97  163421.24  44.61
1111.2  366083.20  163176.74  44.57
1114.9  365381.92  162690.50  44.53
1118.7  364651.65  162128.77  44.46
1122.5  363882.13  161472.50  44.37
1126.3  362659.97  160593.61  44.28
1130.1  362146.45  159865.64  44.14
1133.9  360605.70  158463.60  43.94
1137.7  359234.60  157004.97  43.71
1141.4  357548.21  155239.86  43.42
1145.2  356905.84  153772.25  43.08
1149.0  355859.58  152185.42  42.77
1152.8  354305.60  150487.99  42.47
1156.6  352680.53  149010.03  42.25
1160.3  350984.00  147738.09  42.09
1164.1  348523.80  146338.18  41.99
1167.9  346701.04  145331.25  41.92
1171.7  345397.50  144662.63  41.88
1175.4  344352.83  144135.08  41.86
1179.2  343480.78  143672.22  41.83
1183.0  343285.00  143450.43  41.79
1186.7  342635.77  143036.20  41.75
1190.5  341298.73  142372.06  41.71
1194.3  339948.97  141730.68  41.69
1198.0  338837.13  141254.14  41.69
1201.8  337492.08  140694.37  41.69
1205.6  336250.67  140215.05  41.70
1209.3  335181.73  139881.32  41.73
1213.1  334033.43  139528.17  41.77
1216.8  332864.86  139255.72  41.84
1220.6  331736.53  138984.27  41.90
1224.3  330471.25  138652.46  41.96
1228.1  329334.40  138405.14  42.03
1231.9  328219.30  138118.78  42.08
1235.6  326858.48  137707.57  42.13
1239.4  325583.63  137335.43  42.18
1243.1  324410.61  136941.72  42.21
1246.9  323247.73  136525.86  42.24
1250.6  322315.80  136180.61  42.25
1254.3  321298.36  135786.07  42.26
1258.1  320359.08  135411.77  42.27
1261.8  319185.87  134907.54  42.27
1265.6  317719.83  134260.75  42.26
1269.3  316074.38  133475.38  42.23
1273.1  315890.50  133291.37  42.20
1276.8  316274.00  133346.06  42.16
1280.6  316482.23  133334.56  42.13
1284.3  315372.00  132727.55  42.09
1288.0  313935.18  131912.50  42.02
1291.8  312392.22  130989.04  41.93
1295.5  310776.40  130004.70  41.83
1299.2  309417.08  129116.58  41.73
1302.9  307968.03  128131.04  41.61
1306.7  306469.68  127052.68  41.46
1310.4  305038.78  125905.89  41.28
1314.1  303739.88  124759.28  41.07
1317.9  302569.79  123565.54  40.84
1321.6  301235.56  122203.94  40.57
1325.3  299628.00  120636.38  40.26
1329.0  298284.82  119127.03  39.94
1332.8  296142.00  117189.60  39.57
1336.5  294234.47  115337.49  39.20
1340.2  293793.50  114040.33  38.82
1343.9  293216.67  112682.89  38.43
1347.6  292329.45  111211.31  38.04
1351.4  292159.50  110047.78  37.67
1355.1  292093.27  108952.17  37.30
