/*** Spectra Vista SIG Data ***/
name= 25_20220720_CECA_4_avg.sig
comm= Averaged Ref/Tar of files: 24_20220720_CECA_4_1_avg.sig,25_20220720_CECA_4_2_avg.sig
data=
337.3  3188.41  235.37  7.38
338.8  3318.90  228.13  6.87
340.3  3478.62  223.10  6.41
341.8  3646.57  219.48  6.02
343.2  3840.60  210.16  5.47
344.7  3998.44  207.97  5.20
346.2  4187.13  204.25  4.88
347.7  4365.08  201.87  4.62
349.2  4536.00  199.08  4.39
350.6  4783.43  192.72  4.03
352.1  5046.16  184.07  3.65
353.6  5317.78  183.75  3.46
355.1  5598.47  193.71  3.46
356.6  5874.92  196.96  3.35
358.0  6132.78  195.35  3.19
359.5  6396.30  185.70  2.90
361.0  6680.76  190.67  2.85
362.5  7026.00  189.87  2.70
364.0  7355.14  199.91  2.72
365.4  7692.38  201.79  2.62
366.9  8038.88  206.01  2.56
368.4  8352.97  211.45  2.53
369.9  8675.03  218.26  2.52
371.3  9044.63  229.11  2.53
372.8  9431.89  241.99  2.57
374.3  9822.82  235.73  2.40
375.8  10200.58  239.47  2.35
377.2  10571.70  242.61  2.29
378.7  10941.58  243.90  2.23
380.2  11298.00  246.20  2.18
381.7  11769.39  250.18  2.13
383.1  12188.14  251.28  2.06
384.6  12651.28  250.49  1.98
386.1  13059.83  251.47  1.93
387.6  13461.53  264.11  1.96
389.0  13889.10  268.26  1.93
390.5  14310.46  273.85  1.91
392.0  14818.62  277.10  1.87
393.4  15311.76  282.02  1.84
394.9  15803.55  284.87  1.80
396.4  16294.79  288.81  1.77
397.9  16784.38  295.54  1.76
399.3  17277.98  301.25  1.74
400.8  17777.76  304.57  1.71
402.2  18363.41  313.54  1.71
403.7  18904.90  313.66  1.66
405.2  19449.02  323.79  1.66
406.6  19981.00  328.56  1.64
408.1  20509.50  329.96  1.61
409.6  21066.52  342.21  1.62
411.0  21680.93  346.08  1.60
412.5  22277.55  353.83  1.59
414.0  22865.85  363.65  1.59
415.4  23512.13  376.68  1.60
416.9  24113.03  385.32  1.60
418.4  24744.38  399.82  1.62
419.8  25393.55  412.71  1.63
421.3  26051.24  428.82  1.65
422.7  26769.90  446.27  1.67
424.2  27480.94  467.04  1.70
425.7  28166.40  484.19  1.72
427.1  28856.89  502.48  1.74
428.6  29581.75  525.53  1.78
430.0  30243.78  544.14  1.80
431.5  31047.74  567.43  1.83
432.9  31849.10  594.09  1.87
434.4  32657.42  615.84  1.89
435.9  33404.00  635.74  1.90
437.3  34165.32  658.82  1.93
438.8  34928.48  683.15  1.96
440.2  35712.12  705.58  1.98
441.7  36585.35  731.26  2.00
443.1  37408.07  756.64  2.02
444.6  38291.30  785.75  2.05
446.0  39142.33  809.65  2.07
447.5  40006.11  837.30  2.09
448.9  40851.08  865.65  2.12
450.4  41754.04  894.66  2.14
451.8  42536.00  919.41  2.16
453.3  43373.05  947.88  2.19
454.7  44291.06  975.08  2.20
456.2  45074.11  999.06  2.22
457.6  45954.73  1024.20  2.23
459.1  46840.71  1046.71  2.23
460.5  47678.53  1066.69  2.24
462.0  48625.76  1092.69  2.25
463.4  49552.90  1115.31  2.25
464.8  50446.03  1134.05  2.25
466.3  51345.53  1157.00  2.25
467.7  52242.89  1179.49  2.26
469.2  53199.98  1202.14  2.26
470.6  54078.46  1223.02  2.26
472.0  55012.14  1246.91  2.27
473.5  55906.75  1268.29  2.27
474.9  56829.00  1293.90  2.28
476.4  57866.40  1325.08  2.29
477.8  58837.38  1351.54  2.30
479.2  59761.75  1377.92  2.31
480.7  60751.58  1405.18  2.31
482.1  61780.98  1433.72  2.32
483.6  62843.06  1461.65  2.33
485.0  63816.66  1493.13  2.34
486.4  64885.73  1525.95  2.35
487.9  65863.69  1564.74  2.38
489.3  66914.09  1603.91  2.40
490.7  67878.57  1643.87  2.42
492.2  68990.78  1690.78  2.45
493.6  69979.39  1739.17  2.49
495.0  70975.13  1794.42  2.53
496.5  72035.91  1853.24  2.57
497.9  73015.46  1916.00  2.62
499.3  74061.06  1989.79  2.69
500.7  75187.47  2076.68  2.76
502.2  76212.00  2170.95  2.85
503.6  77328.90  2281.78  2.95
505.0  78271.29  2400.79  3.07
506.5  79445.18  2546.65  3.21
507.9  80518.28  2709.02  3.36
509.3  81766.30  2903.06  3.55
510.7  82901.81  3119.87  3.76
512.2  84157.65  3367.58  4.00
513.6  85475.78  3650.64  4.27
515.0  86751.16  3967.29  4.57
516.4  87977.14  4317.84  4.91
517.8  89428.91  4717.22  5.27
519.3  90604.30  5137.65  5.67
520.7  92009.94  5598.99  6.09
522.1  93174.82  6071.67  6.52
523.5  94405.33  6561.07  6.95
524.9  95651.67  7051.00  7.37
526.3  96891.21  7532.93  7.77
527.8  98303.29  8014.48  8.15
529.2  99360.65  8463.63  8.52
530.6  100622.58  8906.98  8.85
532.0  102217.50  9346.27  9.14
533.4  103495.80  9719.32  9.39
534.8  104318.81  10013.85  9.60
536.3  105834.83  10339.66  9.77
537.7  107644.95  10670.04  9.91
539.1  109026.96  10940.14  10.03
540.5  110158.09  11170.58  10.14
541.9  111806.57  11449.34  10.24
543.3  112957.54  11671.90  10.33
544.7  114242.25  11904.64  10.42
546.1  115844.99  12172.17  10.51
547.5  116933.60  12375.68  10.58
549.0  118453.50  12613.76  10.65
550.4  119743.75  12820.23  10.71
551.8  121113.81  13001.48  10.73
553.2  122510.37  13150.71  10.73
554.6  123726.20  13235.34  10.70
556.0  125087.52  13293.25  10.63
557.4  126512.23  13313.45  10.52
558.8  127969.99  13299.95  10.39
560.2  129264.72  13229.71  10.23
561.6  130742.54  13140.47  10.05
563.0  132170.94  13013.55  9.85
564.4  133584.10  12853.72  9.62
565.8  134934.85  12655.69  9.38
567.2  136503.51  12445.23  9.12
568.6  137851.50  12186.63  8.84
570.0  139110.87  11900.45  8.55
571.4  140649.93  11628.60  8.27
572.8  142222.00  11363.08  7.99
574.2  143690.40  11106.03  7.73
575.6  145082.82  10860.65  7.49
577.0  146419.75  10635.89  7.26
578.4  147954.63  10453.20  7.07
579.8  149309.83  10277.56  6.88
581.2  150842.51  10135.95  6.72
582.5  152105.85  9994.48  6.57
583.9  153461.95  9876.04  6.44
585.3  155072.70  9788.84  6.31
586.7  156376.11  9696.39  6.20
588.1  157715.94  9624.94  6.10
589.5  159170.38  9575.65  6.02
590.9  160620.30  9542.10  5.94
592.3  162249.54  9531.07  5.87
593.7  163526.51  9517.60  5.82
595.0  164984.01  9525.44  5.77
596.4  166268.29  9527.13  5.73
597.8  167579.01  9526.20  5.68
599.2  168960.00  9524.11  5.64
600.6  170523.36  9518.37  5.58
602.0  171668.84  9478.56  5.52
603.3  173260.47  9439.19  5.45
604.7  174745.99  9373.37  5.36
606.1  176063.85  9278.07  5.27
607.5  177522.87  9171.27  5.17
608.9  179014.57  9051.28  5.06
610.2  180238.67  8907.57  4.94
611.6  181655.33  8769.22  4.83
613.0  183030.93  8627.34  4.71
614.4  184257.57  8485.98  4.61
615.8  185540.07  8355.20  4.50
617.1  186895.80  8244.32  4.41
618.5  188337.40  8150.86  4.33
619.9  189666.90  8075.00  4.26
621.3  191102.01  8022.35  4.20
622.6  192508.38  7987.23  4.15
624.0  193797.08  7967.35  4.11
625.4  195091.05  7963.95  4.08
626.8  196494.60  7975.85  4.06
628.1  197689.46  7993.67  4.04
629.5  199349.34  8034.93  4.03
630.9  200779.98  8066.22  4.02
632.2  202023.72  8078.97  4.00
633.6  203470.69  8080.39  3.97
635.0  204830.50  8053.04  3.93
636.3  206181.40  7986.84  3.87
637.7  207370.63  7885.11  3.80
639.1  208836.25  7760.17  3.72
640.4  210160.17  7609.68  3.62
641.8  211212.88  7436.93  3.52
643.2  212613.89  7269.74  3.42
644.5  213821.57  7093.52  3.32
645.9  215316.12  6939.84  3.22
647.2  216792.15  6800.69  3.14
648.6  218522.82  6699.09  3.07
650.0  219877.20  6611.66  3.01
651.3  220215.60  6510.13  2.96
652.7  221147.47  6430.08  2.91
654.0  222851.35  6377.76  2.86
655.4  224350.83  6317.79  2.82
656.8  224616.50  6207.91  2.76
658.1  225558.55  6111.92  2.71
659.5  227618.09  6034.84  2.65
660.8  229241.25  5945.15  2.59
662.2  230048.00  5830.19  2.53
663.5  231628.09  5748.88  2.48
664.9  232829.03  5678.23  2.44
666.2  233610.60  5613.22  2.40
667.6  235283.18  5595.92  2.38
668.9  236309.78  5592.85  2.37
670.3  237270.10  5605.05  2.36
671.6  238634.72  5649.89  2.37
673.0  239669.07  5717.11  2.39
674.3  240740.83  5797.15  2.41
675.7  241903.37  5899.28  2.44
677.0  242891.70  6017.65  2.48
678.4  244114.09  6162.18  2.52
679.7  245110.72  6319.71  2.58
681.1  246285.26  6514.23  2.64
682.4  247321.10  6735.45  2.72
683.8  248426.10  6988.44  2.81
685.1  249282.38  7290.93  2.92
686.4  250449.30  7668.73  3.06
687.8  251636.38  8150.28  3.24
689.1  252537.51  8764.39  3.47
690.5  253706.03  9591.98  3.78
691.8  254490.05  10684.62  4.20
693.1  255656.22  12138.46  4.75
694.5  256671.19  13964.82  5.44
695.8  257734.75  16201.68  6.29
697.1  258792.63  18847.19  7.28
698.5  259727.73  21906.15  8.43
699.8  260694.48  25351.73  9.72
701.1  261731.86  29147.52  11.14
702.5  262408.72  33182.01  12.65
703.8  263289.38  37438.07  14.22
705.1  264284.24  41857.22  15.84
706.5  265210.88  46361.22  17.48
707.8  266087.93  50919.26  19.14
709.1  266878.63  55479.54  20.79
710.5  267894.42  60099.33  22.43
711.8  268664.83  64654.07  24.06
713.1  269545.68  69220.90  25.68
714.4  270348.48  73728.90  27.27
715.8  271089.95  78161.50  28.83
717.1  272256.53  82663.29  30.36
718.4  273100.80  86975.58  31.85
719.7  274105.11  91246.15  33.29
721.0  274584.38  95229.22  34.68
722.4  275273.49  99151.92  36.02
723.7  276131.82  102994.08  37.30
725.0  277074.57  106726.12  38.52
726.3  277951.44  110263.67  39.67
727.6  278413.65  113487.86  40.76
729.0  279226.50  116666.64  41.78
730.3  279937.95  119637.68  42.74
731.6  280745.84  122480.70  43.63
732.9  281476.21  125121.53  44.45
734.2  282194.69  127608.58  45.22
735.5  283146.91  130034.10  45.92
736.8  283872.68  132208.99  46.57
738.1  284613.15  134247.44  47.17
739.5  285476.54  136196.89  47.71
740.8  286112.76  137918.26  48.20
742.1  286801.60  139548.37  48.66
743.4  287500.00  141082.38  49.07
744.7  288404.80  142601.03  49.44
746.0  289186.47  143966.76  49.78
747.3  289676.85  145077.78  50.08
748.6  290363.44  146192.07  50.35
749.9  291057.00  147228.10  50.58
751.2  291742.48  148178.10  50.79
752.5  292572.74  149150.89  50.98
753.8  293141.67  149946.40  51.15
755.1  293767.50  150698.73  51.30
756.4  294283.77  151355.84  51.43
757.7  295175.52  152136.45  51.54
759.0  296781.77  153247.66  51.64
760.3  297871.20  154041.74  51.71
761.6  299296.55  154990.60  51.78
762.9  299780.57  155430.75  51.85
764.2  300150.20  155768.17  51.90
765.5  300396.39  156031.03  51.94
766.8  300811.60  156352.08  51.98
768.1  301297.25  156685.47  52.00
769.3  301868.88  157050.95  52.03
770.6  302467.92  157425.05  52.05
771.9  303148.92  157830.18  52.06
773.2  303517.90  158067.64  52.08
774.5  304089.50  158404.23  52.09
775.8  304692.07  158753.58  52.10
777.1  305244.23  159067.11  52.11
778.4  305563.92  159259.03  52.12
779.6  306293.83  159656.94  52.13
780.9  306735.00  159908.00  52.13
782.2  307173.63  160150.99  52.14
783.5  307462.88  160330.95  52.15
784.8  307957.17  160601.77  52.15
786.0  308330.49  160812.32  52.16
787.3  308691.07  161018.61  52.16
788.6  309108.27  161237.88  52.16
789.9  309522.50  161473.19  52.17
791.2  310122.15  161795.68  52.17
792.4  310764.65  162133.05  52.17
793.7  311196.15  162372.67  52.18
795.0  311773.49  162669.58  52.18
796.2  312380.13  162998.36  52.18
797.5  313054.56  163357.98  52.18
798.8  313687.44  163697.29  52.18
800.0  314296.76  164019.72  52.19
801.3  314746.88  164254.32  52.19
802.6  315294.98  164547.46  52.19
803.8  315866.69  164856.26  52.19
805.1  316332.19  165099.94  52.19
806.4  316782.45  165352.19  52.20
807.7  317255.24  165598.24  52.20
808.9  317763.84  165866.16  52.20
810.2  318268.74  166120.55  52.20
811.4  318714.80  166368.03  52.20
812.7  319292.19  166677.02  52.20
814.0  320044.13  167083.11  52.21
815.2  320619.13  167390.86  52.21
816.5  320983.51  167593.00  52.21
817.7  321428.57  167816.93  52.21
819.0  321899.33  168068.74  52.21
820.2  322036.00  168165.49  52.22
821.5  322652.07  168502.30  52.22
822.7  322980.54  168691.21  52.23
824.0  323285.18  168849.93  52.23
825.2  323766.12  169084.11  52.22
826.5  324046.49  169236.85  52.23
827.7  324528.94  169493.95  52.23
829.0  324886.12  169687.83  52.23
830.2  325207.93  169845.68  52.23
831.5  325649.03  170060.08  52.22
832.7  325945.46  170204.45  52.22
834.0  326255.44  170361.47  52.22
835.2  326587.32  170544.17  52.22
836.4  326862.12  170709.33  52.23
837.7  327218.95  170911.70  52.23
838.9  327641.18  171134.29  52.23
840.1  328012.37  171328.19  52.23
841.4  328455.25  171557.30  52.23
842.6  328853.10  171766.74  52.23
843.8  329170.85  171945.24  52.24
845.1  329600.23  172196.96  52.24
846.3  329979.05  172413.16  52.25
847.5  330352.05  172616.70  52.25
848.8  330769.05  172835.77  52.25
850.0  331089.59  173021.40  52.26
851.2  331637.29  173281.35  52.25
852.5  332029.13  173488.14  52.25
853.7  332514.01  173740.25  52.25
854.9  332929.18  173983.39  52.26
856.1  333360.79  174205.18  52.26
857.4  333597.27  174332.21  52.26
858.6  334033.74  174562.57  52.26
859.8  334422.19  174752.99  52.26
861.0  334871.55  174987.21  52.26
862.2  335331.85  175203.26  52.25
863.5  335656.18  175387.76  52.25
864.7  336174.30  175643.60  52.25
865.9  336575.70  175834.94  52.24
867.1  336900.53  176008.80  52.24
868.3  337330.24  176223.99  52.24
869.5  337796.17  176456.15  52.24
870.8  338321.25  176731.76  52.24
872.0  338799.49  176961.58  52.23
873.2  339190.54  177152.65  52.23
874.4  339631.99  177376.35  52.23
875.6  340021.00  177556.36  52.22
876.8  340524.47  177776.41  52.21
878.0  340990.82  178018.00  52.21
879.2  341468.48  178261.09  52.20
880.4  341984.44  178493.98  52.19
881.6  342444.18  178725.50  52.19
882.8  342870.80  178914.60  52.18
884.0  343443.03  179199.53  52.18
885.2  343959.40  179424.18  52.16
886.5  344515.88  179708.86  52.16
887.7  345065.83  179921.39  52.14
888.8  345681.25  180227.27  52.14
890.0  346225.26  180498.50  52.13
891.2  346783.70  180759.79  52.12
892.4  347363.89  181019.01  52.11
893.6  347919.86  181264.63  52.10
894.8  348845.32  181683.74  52.08
896.0  349632.94  182081.22  52.08
897.2  350458.88  182468.81  52.07
898.4  351144.75  182805.23  52.06
899.6  351694.79  183053.47  52.05
900.8  352119.50  183235.68  52.04
902.0  352400.26  183323.51  52.02
903.2  352706.25  183476.50  52.02
904.3  353090.70  183626.88  52.01
905.5  353656.10  183902.88  52.00
906.7  354261.88  184173.75  51.99
907.9  354834.73  184437.40  51.98
909.1  355229.56  184557.89  51.95
910.2  355482.25  184622.32  51.94
911.4  355757.51  184747.32  51.93
912.6  355928.79  184853.24  51.94
913.8  356212.67  184939.60  51.92
915.0  356701.02  185110.45  51.90
916.2  356928.01  185181.75  51.88
917.3  357032.03  185175.30  51.87
918.5  357287.13  185257.45  51.85
919.7  357585.79  185342.68  51.83
920.8  357737.48  185359.57  51.81
922.0  357929.69  185378.78  51.79
923.2  358107.75  185445.00  51.78
924.4  358425.85  185518.70  51.76
925.5  358747.10  185594.18  51.73
926.7  359354.51  185791.24  51.70
927.9  360126.30  186096.07  51.68
929.0  361473.98  186709.53  51.65
930.2  363542.20  187640.73  51.61
931.4  365824.69  188691.48  51.58
932.5  368244.74  189857.88  51.56
933.7  369634.01  190419.17  51.52
934.9  370248.60  190631.71  51.49
936.0  370019.82  190336.54  51.44
937.2  368250.34  189290.56  51.40
938.3  366852.47  188416.26  51.36
939.5  365556.60  187581.57  51.31
940.7  365803.20  187552.73  51.27
941.8  367208.39  188157.52  51.24
943.0  368538.00  188656.36  51.19
944.2  369455.29  188915.77  51.13
945.3  369156.94  188565.10  51.08
946.5  368591.52  188053.90  51.02
947.6  368861.48  187963.00  50.96
948.8  368744.51  187677.62  50.90
949.9  368940.60  187554.44  50.84
951.1  368665.22  187105.10  50.75
952.2  368628.00  186794.06  50.67
953.4  368490.50  186388.81  50.58
954.5  368550.00  186100.20  50.50
955.7  368531.10  185762.40  50.41
956.8  368468.90  185405.92  50.32
958.0  368188.38  184967.27  50.24
959.1  368157.48  184662.40  50.16
960.3  367845.02  184339.20  50.11
961.4  367833.04  184088.24  50.05
962.6  368076.19  184052.65  50.00
963.7  367926.17  183855.90  49.97
964.9  367939.90  183714.44  49.93
966.0  367824.55  183593.56  49.91
967.2  368026.99  183576.71  49.88
968.3  367882.77  183386.09  49.85
969.5  367711.02  183310.67  49.85
970.6  367763.47  183329.38  49.85
971.8  368143.04  183359.32  49.81
972.9  367957.16  183296.89  49.81
974.0  368267.00  183397.90  49.80
975.2  368159.16  183327.07  49.80
976.3  368205.18  183254.08  49.77
977.5  368153.36  183249.20  49.78
978.6  368292.05  183295.34  49.77
979.7  368236.58  183371.99  49.80
980.9  368180.26  183324.64  49.79
982.0  368481.62  183244.91  49.73
983.2  368249.20  183280.97  49.77
984.3  368288.55  183239.89  49.75
985.4  368262.99  183386.24  49.80
986.6  368167.94  183418.67  49.82
987.7  369159.36  183958.51  49.83
988.9  369173.70  183840.00  49.80
990.0  370035.45  184156.61  49.77
993.1  312209.19  154612.27  49.52
996.9  312517.10  155253.34  49.68
1000.7  313336.86  156118.93  49.82
1004.5  313742.79  156766.51  49.97
1008.4  313594.53  157110.87  50.10
1012.2  313652.13  157524.38  50.22
1016.0  313761.30  157939.67  50.34
1019.8  313900.13  158370.72  50.45
1023.7  313853.47  158642.24  50.55
1027.5  313494.75  158735.05  50.63
1031.3  313558.88  158993.41  50.71
1035.1  313342.26  159076.50  50.77
1038.9  313267.90  159186.62  50.81
1042.7  313015.33  159228.35  50.87
1046.5  312869.09  159259.47  50.90
1050.3  312909.26  159351.15  50.93
1054.2  312629.34  159298.13  50.95
1058.0  312137.62  159087.36  50.97
1061.8  312018.31  159073.66  50.98
1065.6  311730.98  158917.10  50.98
1069.4  311709.57  158891.44  50.97
1073.2  311323.53  158667.85  50.97
1077.0  310863.84  158371.15  50.95
1080.8  310496.36  158065.11  50.91
1084.6  309751.05  157562.65  50.87
1088.4  309289.08  157236.57  50.84
1092.2  308631.38  156759.11  50.79
1096.0  308158.52  156355.51  50.74
1099.8  307732.10  155940.06  50.67
1103.6  307104.69  155412.45  50.61
1107.4  306271.57  154758.66  50.53
1111.2  306043.45  154399.80  50.45
1114.9  305435.38  153811.42  50.36
1118.7  304865.55  153167.85  50.24
1122.5  304278.44  152397.33  50.08
1126.3  303305.19  151360.31  49.90
1130.1  302910.36  150391.03  49.65
1133.9  301605.50  148710.40  49.31
1137.7  300420.15  146835.12  48.88
1141.4  298937.06  144569.84  48.36
1145.2  298331.99  142558.65  47.79
1149.0  297376.05  140474.90  47.24
1152.8  295999.35  138416.41  46.76
1156.6  294599.44  136724.32  46.41
1160.3  293155.83  135368.07  46.18
1164.1  291163.50  134060.54  46.04
1167.9  289680.21  133191.22  45.98
1171.7  288614.82  132625.69  45.95
1175.4  287585.58  132113.79  45.94
1179.2  286651.73  131631.77  45.92
1183.0  286343.00  131393.95  45.89
1186.7  285887.23  131091.27  45.85
1190.5  285063.20  130622.40  45.82
1194.3  284150.72  130139.98  45.80
1198.0  283166.95  129696.54  45.80
1201.8  281911.64  129172.83  45.82
1205.6  280841.67  128796.34  45.86
1209.3  280040.99  128611.93  45.93
1213.1  279260.70  128453.79  46.00
1216.8  278485.95  128352.05  46.09
1220.6  277590.14  128176.40  46.17
1224.3  276567.59  127935.14  46.26
1228.1  275489.70  127686.65  46.35
1231.9  274378.56  127369.66  46.42
1235.6  273075.46  126941.01  46.49
1239.4  271897.07  126578.16  46.55
1243.1  270863.28  126211.50  46.60
1246.9  269846.09  125834.36  46.63
1250.6  269044.83  125520.52  46.65
1254.3  268170.29  125153.38  46.67
1258.1  267350.54  124788.92  46.68
1261.8  266288.07  124276.59  46.67
1265.6  265078.69  123663.54  46.65
1269.3  263936.92  123036.29  46.62
1273.1  263914.72  122893.36  46.57
1276.8  264113.80  122810.23  46.50
1280.6  263912.50  122520.87  46.42
1284.3  262670.60  121698.54  46.33
1288.0  261425.87  120824.08  46.22
1291.8  260370.16  119949.35  46.07
1295.5  259278.80  119017.91  45.90
1299.2  258232.03  118044.38  45.71
1302.9  257014.62  116891.93  45.48
1306.7  255668.12  115604.71  45.22
1310.4  254399.29  114224.18  44.90
1314.1  253212.95  112798.98  44.55
1317.9  252169.38  111297.85  44.14
1321.6  251011.91  109630.67  43.68
1325.3  249636.72  107749.51  43.16
1329.0  248476.44  105890.58  42.62
1332.8  246715.70  103667.30  42.02
1336.5  245190.30  101524.43  41.41
1340.2  244865.84  99881.17  40.79
1343.9  244420.73  98206.73  40.18
1347.6  243723.75  96449.93  39.57
1351.4  243706.50  95031.61  38.99
1355.1  243760.55  93677.66  38.43
1358.8  243752.00  92235.43  37.84
