/*** Spectra Vista SIG Data ***/
name= 19_20220824_ACRU_25_avg.sig
comm= Averaged Ref/Tar of files: HR.082422.0053_moc.sig,HR.082422.0054_moc.sig,HR.082422.0055_moc.sig
data=
337.3  3473.75  325.87  9.38
338.8  3607.50  315.86  8.76
340.3  3748.00  306.09  8.17
341.8  3978.08  306.36  7.70
343.2  4173.60  290.08  6.95
344.7  4350.30  290.02  6.67
346.2  4493.50  290.04  6.45
347.7  4679.68  272.65  5.83
349.2  4914.00  268.38  5.46
350.6  5178.23  271.77  5.25
352.1  5465.93  275.08  5.03
353.6  5760.20  281.07  4.88
355.1  6027.83  277.26  4.60
356.6  6358.35  288.42  4.54
358.0  6635.20  284.97  4.29
359.5  6921.60  293.55  4.24
361.0  7241.85  285.29  3.94
362.5  7611.50  295.68  3.88
364.0  8000.33  305.87  3.82
365.4  8373.80  319.40  3.81
366.9  8757.13  321.37  3.67
368.4  9137.13  332.76  3.64
369.9  9512.80  340.52  3.58
371.3  9932.40  347.99  3.50
372.8  10354.50  358.43  3.46
374.3  10803.75  366.40  3.39
375.8  11238.15  359.33  3.20
377.2  11647.70  377.50  3.24
378.7  12105.00  381.08  3.15
380.2  12535.40  389.15  3.10
381.7  13053.08  394.57  3.02
383.1  13555.85  400.66  2.96
384.6  14107.93  412.72  2.93
386.1  14593.50  409.88  2.81
387.6  15065.05  423.12  2.81
389.0  15570.80  432.37  2.78
390.5  16089.30  443.39  2.76
392.0  16663.50  457.59  2.75
393.4  17262.68  465.07  2.69
394.9  17826.30  476.76  2.67
396.4  18371.25  495.08  2.69
397.9  18962.50  493.71  2.60
399.3  19525.58  505.66  2.59
400.8  20114.48  511.79  2.54
402.2  20793.85  525.37  2.53
403.7  21378.60  538.48  2.52
405.2  22017.75  546.10  2.48
406.6  22596.80  561.44  2.48
408.1  23232.80  572.53  2.46
409.6  23837.70  584.60  2.45
411.0  24531.15  592.82  2.42
412.5  25219.08  613.64  2.43
414.0  25896.63  623.48  2.41
415.4  26632.50  647.26  2.43
416.9  27331.95  657.92  2.41
418.4  28049.85  677.28  2.41
419.8  28774.20  695.85  2.42
421.3  29518.20  711.81  2.41
422.7  30328.20  739.50  2.44
424.2  31151.25  758.25  2.43
425.7  31931.70  775.88  2.43
427.1  32710.28  793.89  2.43
428.6  33526.50  818.92  2.44
430.0  34310.68  838.67  2.44
431.5  35208.08  860.68  2.44
432.9  36112.25  878.02  2.43
434.4  37044.45  896.75  2.42
435.9  37884.00  924.00  2.44
437.3  38761.25  946.46  2.44
438.8  39625.43  972.42  2.45
440.2  40519.33  996.25  2.46
441.7  41513.20  1021.08  2.46
443.1  42453.00  1043.22  2.46
444.6  43465.80  1070.27  2.46
446.0  44426.40  1096.82  2.47
447.5  45405.53  1125.77  2.48
448.9  46375.50  1151.11  2.48
450.4  47409.95  1179.31  2.49
451.8  48308.00  1202.07  2.49
453.3  49266.60  1231.23  2.50
454.7  50328.50  1257.33  2.50
456.2  51233.65  1278.86  2.50
457.6  52237.13  1308.03  2.50
459.1  53246.70  1336.05  2.51
460.5  54208.88  1358.01  2.51
462.0  55317.25  1384.51  2.50
463.4  56389.20  1414.30  2.51
464.8  57414.75  1442.08  2.51
466.3  58456.20  1475.90  2.52
467.7  59495.03  1498.52  2.52
469.2  60592.88  1529.01  2.52
470.6  61609.25  1553.46  2.52
472.0  62675.98  1583.91  2.53
473.5  63717.88  1613.55  2.53
474.9  64794.75  1642.08  2.53
476.4  65995.20  1678.08  2.54
477.8  67120.50  1712.45  2.55
479.2  68179.00  1740.97  2.55
480.7  69335.25  1774.64  2.56
482.1  70516.00  1814.92  2.57
483.6  71773.15  1851.53  2.58
485.0  72925.05  1887.54  2.59
486.4  74175.90  1930.79  2.60
487.9  75304.13  1971.45  2.62
489.3  76540.55  2020.76  2.64
490.7  77659.65  2066.90  2.66
492.2  78968.40  2121.70  2.69
493.6  80120.85  2172.60  2.71
495.0  81285.75  2235.68  2.75
496.5  82517.53  2302.02  2.79
497.9  83676.85  2374.90  2.84
499.3  84894.88  2452.19  2.89
500.7  86200.60  2550.08  2.96
502.2  87410.20  2646.98  3.03
503.6  88709.60  2767.67  3.12
505.0  89833.80  2901.68  3.23
506.5  91206.08  3062.86  3.36
507.9  92478.35  3248.16  3.51
509.3  93920.80  3465.17  3.69
510.7  95238.00  3714.75  3.90
512.2  96707.48  3996.55  4.13
513.6  98240.10  4326.53  4.40
515.0  99731.48  4681.92  4.69
516.4  101138.63  5077.01  5.02
517.8  102815.88  5517.70  5.37
519.3  104169.08  5967.33  5.73
520.7  105782.45  6443.33  6.09
522.1  107146.33  6905.98  6.45
523.5  108572.90  7361.90  6.78
524.9  110023.65  7800.38  7.09
526.3  111442.10  8209.16  7.37
527.8  113008.50  8601.12  7.61
529.2  114297.90  8964.34  7.84
530.6  115932.35  9322.18  8.04
532.0  117712.00  9653.93  8.20
533.4  119066.33  9914.28  8.33
534.8  120003.65  10118.45  8.43
536.3  121788.90  10376.76  8.52
537.7  123908.40  10661.28  8.60
539.1  125406.88  10882.98  8.68
540.5  126645.50  11079.17  8.75
541.9  128453.48  11327.16  8.82
543.3  129767.33  11529.86  8.89
544.7  131111.40  11738.20  8.95
546.1  132920.98  11984.95  9.02
547.5  134220.80  12178.13  9.07
549.0  136092.00  12403.23  9.11
550.4  137657.50  12581.77  9.14
551.8  139224.70  12727.18  9.14
553.2  140815.43  12840.26  9.12
554.6  142209.60  12894.27  9.07
556.0  143792.55  12917.15  8.98
557.4  145448.28  12892.14  8.86
558.8  147135.60  12815.72  8.71
560.2  148611.50  12668.91  8.52
561.6  150338.93  12491.93  8.31
563.0  151960.83  12262.04  8.07
564.4  153586.90  11997.11  7.81
565.8  155156.88  11703.79  7.54
567.2  156950.00  11413.99  7.27
568.6  158503.13  11100.48  7.00
570.0  159993.55  10790.99  6.74
571.4  161794.10  10520.71  6.50
572.8  163582.00  10278.76  6.28
574.2  165256.00  10059.47  6.09
575.6  166837.50  9864.00  5.91
577.0  168415.20  9698.79  5.76
578.4  170204.13  9568.65  5.62
579.8  171746.33  9451.96  5.50
581.2  173532.40  9370.73  5.40
582.5  174973.50  9288.63  5.31
583.9  176551.60  9233.11  5.23
585.3  178398.00  9210.08  5.16
586.7  179918.05  9184.29  5.10
588.1  181462.75  9170.95  5.05
589.5  183149.75  9174.03  5.01
590.9  184834.40  9185.51  4.97
592.3  186706.35  9210.45  4.93
593.7  188185.73  9213.88  4.90
595.0  189874.13  9219.04  4.86
596.4  191375.10  9200.98  4.81
597.8  192895.48  9166.45  4.75
599.2  194488.80  9118.12  4.69
600.6  196290.58  9055.67  4.61
602.0  197629.43  8957.16  4.53
603.3  199483.10  8866.22  4.44
604.7  201186.60  8762.94  4.36
606.1  202749.60  8640.18  4.26
607.5  204432.93  8527.67  4.17
608.9  206169.70  8416.89  4.08
610.2  207592.88  8301.35  4.00
611.6  209245.28  8202.50  3.92
613.0  210839.95  8118.49  3.85
614.4  212269.95  8034.03  3.78
615.8  213788.25  7967.21  3.73
617.1  215355.00  7922.32  3.68
618.5  217042.00  7898.27  3.64
619.9  218606.48  7884.38  3.61
621.3  220290.98  7888.25  3.58
622.6  221933.25  7914.75  3.57
624.0  223453.35  7945.94  3.56
625.4  224983.28  7985.89  3.55
626.8  226628.68  8041.06  3.55
628.1  227993.70  8091.41  3.55
629.5  229945.38  8163.35  3.55
630.9  231662.75  8227.02  3.55
632.2  233134.65  8264.56  3.54
633.6  234852.25  8294.21  3.53
635.0  236465.60  8286.96  3.50
636.3  238048.00  8250.37  3.47
637.7  239479.63  8177.83  3.41
639.1  241202.50  8087.92  3.35
640.4  242748.45  7970.84  3.28
641.8  244024.25  7836.46  3.21
643.2  245680.75  7720.11  3.14
644.5  247105.00  7596.87  3.07
645.9  248890.50  7499.93  3.01
647.2  251065.15  7440.52  2.96
648.6  253125.00  7400.03  2.92
650.0  254685.60  7357.68  2.89
651.3  255000.90  7302.48  2.86
652.7  255785.85  7256.91  2.84
654.0  257945.60  7265.41  2.82
655.4  259543.90  7243.97  2.79
656.8  259824.20  7197.41  2.77
658.1  261004.60  7187.58  2.75
659.5  263540.55  7224.00  2.74
660.8  265590.00  7269.75  2.74
662.2  266515.20  7290.45  2.74
663.5  268192.20  7348.63  2.74
664.9  269664.20  7424.86  2.75
666.2  270440.40  7502.12  2.77
667.6  272208.73  7629.20  2.80
668.9  273498.55  7773.38  2.84
670.3  274451.75  7904.34  2.88
671.6  276274.88  8084.48  2.93
673.0  277491.75  8287.29  2.99
674.3  278769.40  8493.03  3.05
675.7  280153.83  8729.19  3.12
677.0  281369.38  8979.59  3.19
678.4  282845.05  9265.92  3.28
679.7  284034.40  9576.47  3.37
681.1  285429.75  9928.60  3.48
682.4  286659.10  10331.01  3.60
683.8  288051.40  10794.38  3.75
685.1  289085.25  11344.23  3.92
686.4  290442.60  12048.68  4.15
687.8  291808.75  12930.96  4.43
689.1  292965.75  14084.99  4.81
690.5  294416.55  15595.09  5.30
691.8  295321.50  17561.22  5.95
693.1  296692.35  20095.84  6.77
694.5  297979.50  23170.12  7.78
695.8  299276.25  26787.37  8.95
697.1  300527.50  30927.11  10.29
698.5  301683.00  35555.77  11.79
699.8  302869.98  40581.45  13.40
701.1  304094.43  45953.16  15.11
702.5  304966.20  51477.14  16.88
703.8  305955.00  57147.75  18.68
705.1  307222.50  62878.95  20.47
706.5  308372.25  68571.17  22.24
707.8  309458.10  74166.99  23.97
709.1  310384.48  79603.51  25.65
710.5  311634.68  84967.46  27.27
711.8  312579.10  90066.73  28.81
713.1  313694.10  95040.37  30.30
714.4  314697.60  99787.30  31.71
715.8  315589.60  104311.97  33.05
717.1  317012.40  108813.96  34.32
718.4  318057.60  112978.88  35.52
719.7  319257.38  117019.08  36.65
721.0  319860.00  120655.50  37.72
722.4  320728.65  124184.35  38.72
723.7  321788.55  127612.37  39.66
725.0  322944.98  130908.12  40.54
726.3  323978.05  133971.34  41.35
727.6  324617.15  136711.10  42.11
729.0  325626.70  139446.66  42.82
730.3  326494.50  141956.80  43.48
731.6  327503.05  144393.50  44.09
732.9  328386.98  146641.03  44.65
734.2  329307.00  148770.19  45.18
735.5  330408.63  150867.39  45.66
736.8  331278.60  152719.64  46.10
738.1  332210.00  154491.99  46.50
739.5  333252.38  156208.37  46.87
740.8  334059.28  157682.64  47.20
742.1  334908.45  159108.35  47.51
743.4  335725.00  160447.50  47.79
744.7  336841.50  161836.65  48.05
746.0  337864.80  163065.57  48.26
747.3  338512.55  164055.13  48.46
748.6  339359.25  165062.65  48.64
749.9  340210.00  166016.07  48.80
751.2  341100.60  166891.92  48.93
752.5  342120.45  167820.24  49.05
753.8  342834.10  168566.18  49.17
755.1  343642.00  169302.47  49.27
756.4  344350.58  169920.66  49.35
757.7  345441.60  170699.12  49.41
759.0  347402.58  171876.03  49.47
760.3  348717.60  172707.04  49.53
761.6  350428.40  173719.28  49.57
762.9  351093.75  174163.01  49.61
764.2  351556.10  174511.96  49.64
765.5  351973.60  174801.30  49.66
766.8  352539.20  175158.03  49.68
768.1  353158.60  175540.84  49.71
769.3  353892.35  175943.40  49.72
770.6  354657.55  176372.89  49.73
771.9  355540.33  176831.94  49.74
773.2  356050.80  177117.55  49.75
774.5  356813.60  177517.34  49.75
775.8  357624.60  177949.69  49.76
777.1  358340.95  178314.44  49.76
778.4  358808.45  178559.73  49.76
779.6  359702.23  179035.66  49.77
780.9  360300.00  179347.00  49.78
782.2  360882.50  179653.74  49.78
783.5  361364.00  179897.13  49.78
784.8  362039.63  180244.05  49.79
786.0  362554.85  180520.48  49.79
787.3  363064.13  180781.91  49.79
788.6  363632.45  181069.40  49.79
789.9  364246.40  181382.60  49.80
791.2  365035.45  181786.96  49.80
792.4  365890.60  182211.06  49.80
793.7  366498.20  182514.30  49.80
795.0  367238.03  182918.84  49.81
796.2  368055.65  183337.62  49.81
797.5  368953.13  183773.96  49.81
798.8  369792.05  184180.96  49.81
800.0  370591.90  184593.15  49.81
801.3  371252.40  184904.20  49.81
802.6  371957.85  185289.44  49.81
803.8  372753.73  185675.49  49.81
805.1  373352.88  186004.20  49.82
806.4  373913.40  186296.30  49.82
807.7  374592.60  186629.40  49.82
808.9  375322.20  186969.09  49.82
810.2  375962.30  187306.16  49.82
811.4  376579.10  187643.94  49.83
812.7  377325.00  188012.50  49.83
814.0  378291.95  188502.66  49.83
815.2  379006.50  188878.39  49.84
816.5  379544.95  189128.49  49.83
817.7  380122.35  189424.14  49.83
819.0  380708.90  189756.29  49.84
820.2  380996.00  189902.53  49.84
821.5  381757.50  190302.77  49.85
822.7  382211.55  190521.73  49.85
824.0  382622.40  190725.21  49.85
825.2  383219.10  191028.92  49.85
826.5  383589.35  191219.50  49.85
827.7  384200.00  191538.11  49.85
829.0  384683.88  191775.10  49.85
830.2  384968.25  191959.96  49.86
831.5  385553.20  192221.61  49.86
832.7  385909.65  192398.05  49.86
834.0  386230.58  192598.04  49.87
835.2  386636.53  192786.01  49.86
836.4  386947.55  192961.62  49.87
837.7  387367.40  193206.74  49.88
838.9  387893.23  193447.27  49.87
840.1  388309.28  193678.43  49.88
841.4  388797.70  193922.79  49.88
842.6  389109.60  194125.15  49.89
843.8  389455.60  194333.23  49.90
845.1  390048.20  194618.54  49.90
846.3  390409.60  194820.16  49.90
847.5  390856.20  195038.34  49.90
848.8  391255.80  195273.58  49.91
850.0  391562.50  195434.59  49.91
851.2  392121.00  195736.91  49.92
852.5  392551.50  195937.10  49.91
853.7  393000.75  196202.40  49.92
854.9  393427.20  196427.17  49.93
856.1  393933.80  196676.78  49.93
857.4  394063.25  196753.54  49.93
858.6  394531.55  196970.58  49.93
859.8  394882.50  197147.56  49.93
861.0  395436.60  197397.72  49.92
862.2  395887.75  197664.31  49.93
863.5  396186.70  197853.93  49.94
864.7  396686.40  198132.66  49.95
865.9  397094.00  198324.35  49.94
867.1  397444.00  198455.06  49.93
868.3  397902.60  198659.39  49.93
869.5  398297.25  198891.42  49.94
870.8  398947.50  199167.75  49.92
872.0  399460.95  199441.80  49.93
873.2  399893.55  199670.65  49.93
874.4  400324.28  199872.56  49.93
875.6  400709.83  200027.84  49.92
876.8  401233.75  200275.46  49.91
878.0  401718.00  200507.91  49.91
879.2  402257.55  200756.85  49.91
880.4  402738.00  201031.71  49.92
881.6  403253.60  201249.03  49.91
882.8  403604.00  201462.45  49.92
884.0  404391.83  201754.38  49.89
885.2  404910.90  202019.87  49.89
886.5  405511.40  202308.49  49.89
887.7  406102.78  202553.25  49.88
888.8  406812.68  202861.73  49.87
890.0  407427.15  203137.30  49.86
891.2  408063.50  203447.69  49.86
892.4  408702.53  203784.28  49.86
893.6  409391.15  204066.09  49.85
894.8  410354.50  204532.10  49.84
896.0  411292.00  204961.18  49.83
897.2  412168.25  205378.88  49.83
898.4  412985.10  205766.22  49.82
899.6  413734.13  206039.53  49.80
900.8  414214.83  206267.53  49.80
902.0  414538.20  206377.85  49.79
903.2  414891.08  206566.49  49.79
904.3  415297.20  206749.45  49.78
905.5  416026.55  207052.01  49.77
906.7  416772.00  207341.80  49.75
907.9  417418.75  207657.67  49.75
909.1  417820.95  207851.72  49.75
910.2  418040.25  207946.41  49.74
911.4  418418.33  208061.88  49.73
912.6  418739.75  208170.58  49.71
913.8  419088.23  208291.33  49.70
915.0  419707.05  208533.22  49.69
916.2  419922.75  208617.83  49.68
917.3  419984.78  208651.97  49.68
918.5  420483.20  208784.48  49.65
919.7  420828.45  208927.71  49.65
920.8  421024.13  208933.50  49.63
922.0  421363.25  209028.69  49.61
923.2  421512.00  209086.15  49.60
924.4  421905.38  209209.16  49.59
925.5  422303.00  209336.95  49.57
926.7  423138.50  209604.48  49.54
927.9  423967.20  210050.78  49.54
929.0  425704.95  210772.76  49.51
930.2  428085.20  211841.13  49.49
931.4  430715.48  213054.26  49.47
932.5  433643.50  214436.97  49.45
933.7  435275.90  215147.17  49.43
934.9  436253.13  215423.25  49.38
936.0  435916.00  215151.46  49.36
937.2  433975.35  214053.70  49.32
938.3  432417.05  213144.11  49.29
939.5  430783.20  212329.08  49.29
940.7  431125.20  212353.80  49.26
941.8  432948.90  213106.29  49.22
943.0  434681.25  213779.53  49.18
944.2  435620.25  214102.33  49.15
945.3  435337.50  213840.25  49.12
946.5  434597.40  213333.03  49.09
947.6  434986.70  213342.45  49.05
948.8  435004.05  213162.33  49.00
949.9  435267.00  213086.72  48.96
951.1  435139.25  212710.24  48.88
952.2  435132.00  212404.80  48.81
953.4  435017.75  212113.47  48.76
954.5  435310.20  211842.54  48.66
955.7  435254.40  211636.74  48.62
956.8  435364.20  211370.26  48.55
958.0  435026.00  211000.90  48.50
959.1  435197.80  210736.86  48.42
960.3  434882.73  210503.78  48.40
961.4  434855.70  210360.08  48.37
962.6  435146.25  210396.61  48.35
963.7  435206.55  210210.82  48.30
964.9  435026.33  210074.46  48.29
966.0  434882.93  210077.69  48.31
967.2  435319.20  210157.74  48.28
968.3  435516.75  210061.08  48.23
969.5  435298.28  210035.38  48.25
970.6  435686.03  210143.68  48.23
971.8  435962.80  210186.37  48.21
972.9  436178.33  210210.69  48.19
974.0  436380.10  210292.41  48.19
975.2  436298.88  210371.79  48.22
976.3  436683.45  210430.27  48.19
977.5  436792.13  210403.96  48.17
978.6  437309.30  210425.93  48.12
979.7  437466.75  210635.29  48.15
980.9  437397.25  210747.31  48.18
982.0  437234.45  210810.04  48.21
983.2  437351.80  210756.56  48.19
984.3  437759.00  210631.87  48.12
985.4  438559.85  210967.73  48.10
986.6  438485.25  210951.94  48.11
987.7  439599.65  211429.60  48.10
988.9  439837.20  211484.94  48.08
990.0  440258.50  211979.01  48.15
993.1  361037.37  172570.83  47.80
996.9  362500.43  173676.73  47.91
1000.7  364098.82  174782.69  48.00
1004.5  364963.17  175531.37  48.10
1008.4  364955.33  175833.60  48.18
1012.2  365191.88  176219.57  48.25
1016.0  365598.60  176646.10  48.32
1019.8  366169.65  177166.73  48.38
1023.7  366706.21  177623.01  48.44
1027.5  367014.73  177957.41  48.49
1031.3  367792.38  178485.64  48.53
1035.1  368087.53  178739.64  48.56
1038.9  368268.63  178942.51  48.59
1042.7  368220.92  179030.05  48.62
1046.5  368083.17  179041.20  48.64
1050.3  368206.38  179150.38  48.65
1054.2  368001.08  179083.56  48.66
1058.0  367526.43  178863.64  48.67
1061.8  367367.93  178829.84  48.68
1065.6  367217.57  178713.59  48.67
1069.4  367571.87  178866.52  48.66
1073.2  367585.38  178820.45  48.65
1077.0  367355.88  178602.52  48.62
1080.8  366759.38  178178.34  48.58
1084.6  365349.72  177378.07  48.55
1088.4  364349.53  176782.64  48.52
1092.2  363372.75  176182.04  48.49
1096.0  362821.55  175778.73  48.45
1099.8  362426.78  175392.78  48.39
1103.6  361863.27  174947.63  48.35
1107.4  361108.16  174347.89  48.28
1111.2  360903.30  174015.36  48.22
1114.9  360200.17  173408.68  48.14
1118.7  359478.90  172723.61  48.05
1122.5  358696.87  171932.17  47.93
1126.3  357541.57  170886.26  47.79
1130.1  357026.47  170002.13  47.62
1133.9  355477.50  168421.95  47.38
1137.7  354146.00  166710.60  47.07
1141.4  352499.88  164617.33  46.70
1145.2  351894.18  162829.45  46.27
1149.0  350876.46  160904.21  45.86
1152.8  349346.50  158937.09  45.50
1156.6  347779.48  157309.66  45.23
1160.3  346093.00  155984.78  45.07
1164.1  343677.13  154582.12  44.98
1167.9  341885.42  153637.57  44.94
1171.7  340601.63  153030.00  44.93
1175.4  339572.43  152575.55  44.93
1179.2  338725.50  152181.81  44.93
1183.0  338528.00  152040.68  44.91
1186.7  337875.30  151684.42  44.89
1190.5  336575.60  151040.55  44.88
1194.3  335250.17  150404.01  44.86
1198.0  334180.83  149903.73  44.86
1201.8  332806.88  149310.00  44.86
1205.6  331560.67  148842.45  44.89
1209.3  330514.20  148528.98  44.94
1213.1  329351.63  148213.99  45.00
1216.8  328204.71  147971.26  45.09
1220.6  327075.47  147731.79  45.17
1224.3  325811.92  147421.55  45.25
1228.1  324697.80  147185.34  45.33
1231.9  323558.18  146895.95  45.40
1235.6  322246.35  146480.61  45.46
1239.4  321001.88  146088.88  45.51
1243.1  319849.48  145684.77  45.55
1246.9  318718.00  145251.22  45.57
1250.6  317796.60  144884.54  45.59
1254.3  316786.98  144454.99  45.60
1258.1  315884.45  144043.93  45.60
1261.8  314749.33  143491.16  45.59
1265.6  313320.90  142771.95  45.57
1269.3  311673.88  141924.72  45.54
1273.1  311456.08  141701.51  45.50
1276.8  311829.60  141725.42  45.45
1280.6  312063.23  141639.47  45.39
1284.3  311009.60  140920.26  45.31
1288.0  309582.41  140001.36  45.22
1291.8  308055.69  138964.22  45.11
1295.5  306420.40  137859.33  44.99
1299.2  305074.11  136836.92  44.85
1302.9  303675.73  135716.44  44.69
1306.7  302187.08  134481.96  44.50
1310.4  300770.67  133180.83  44.28
1314.1  299494.43  131848.79  44.02
1317.9  298372.29  130456.84  43.72
1321.6  297057.85  128875.49  43.38
1325.3  295456.35  127056.73  43.00
1329.0  294143.03  125276.03  42.59
1332.8  292014.80  123048.20  42.14
1336.5  290127.73  120895.04  41.67
1340.2  289637.83  119318.57  41.20
1343.9  289003.96  117661.32  40.71
1347.6  288018.90  115871.08  40.23
1351.4  287695.50  114376.22  39.76
1355.1  287442.10  112934.38  39.29
