/*** Spectra Vista SIG Data ***/
name= 2_20220926_ACRU_25_avg.sig
comm= Averaged Ref/Tar of files: HR.092622.0003_moc.sig,HR.092622.0004_moc.sig,HR.092622.0005_moc.sig
data=
337.3  6317.33  496.60  7.86
338.8  6541.60  485.58  7.42
340.3  6900.33  502.33  7.28
341.8  7076.55  485.59  6.86
343.2  7461.30  475.43  6.37
344.7  7900.50  436.74  5.53
346.2  8225.00  444.93  5.41
347.7  8627.35  438.72  5.09
349.2  8920.80  426.24  4.78
350.6  9350.40  431.34  4.61
352.1  9834.25  440.67  4.48
353.6  10388.80  437.70  4.21
355.1  10910.10  447.30  4.10
356.6  11583.35  456.14  3.94
358.0  12158.40  460.76  3.79
359.5  12621.83  465.73  3.69
361.0  13283.20  466.49  3.51
362.5  13899.68  495.46  3.56
364.0  14596.35  506.48  3.47
365.4  15214.38  520.58  3.42
366.9  15873.28  522.14  3.29
368.4  16569.50  553.84  3.34
369.9  17384.00  580.48  3.34
371.3  18278.70  611.29  3.34
372.8  19013.70  623.40  3.28
374.3  19830.20  624.19  3.15
375.8  20707.40  645.97  3.12
377.2  21533.85  655.87  3.05
378.7  22386.88  666.21  2.98
380.2  23251.73  687.94  2.96
381.7  24212.25  700.32  2.89
383.1  25149.83  699.99  2.78
384.6  26077.20  712.02  2.73
386.1  27047.93  738.15  2.73
387.6  27969.90  746.06  2.67
389.0  29095.88  788.87  2.71
390.5  30122.48  794.74  2.64
392.0  31153.50  826.03  2.65
393.4  32263.50  840.59  2.61
394.9  33288.60  849.30  2.55
396.4  34509.20  874.18  2.53
397.9  35621.10  895.12  2.51
399.3  36599.15  915.10  2.50
400.8  37820.48  942.90  2.49
402.2  39045.60  959.73  2.46
403.7  40283.10  986.40  2.45
405.2  41490.00  1006.30  2.43
406.6  42717.90  1025.94  2.40
408.1  43804.88  1054.92  2.41
409.6  44999.30  1077.12  2.39
411.0  46300.38  1104.17  2.38
412.5  47727.35  1124.59  2.36
414.0  49100.10  1148.62  2.34
415.4  50426.10  1177.22  2.33
416.9  51746.98  1211.52  2.34
418.4  53070.83  1246.81  2.35
419.8  54474.35  1274.62  2.34
421.3  55994.40  1310.76  2.34
422.7  57460.00  1335.90  2.32
424.2  58995.00  1375.93  2.33
425.7  60467.00  1425.23  2.36
427.1  61983.30  1461.90  2.36
428.6  63472.85  1507.54  2.38
430.0  65058.68  1560.37  2.40
431.5  66758.90  1611.54  2.41
432.9  68440.50  1671.15  2.44
434.4  70199.70  1722.65  2.45
435.9  71869.20  1766.40  2.46
437.3  73591.50  1826.22  2.48
438.8  75251.60  1886.80  2.51
440.2  76973.40  1948.42  2.53
441.7  78889.78  2014.74  2.55
443.1  80746.20  2073.99  2.57
444.6  82559.50  2140.81  2.59
446.0  84427.53  2197.05  2.60
447.5  86400.00  2257.62  2.61
448.9  88184.65  2326.81  2.64
450.4  90125.00  2398.57  2.66
451.8  91957.50  2457.46  2.67
453.3  93820.80  2517.87  2.68
454.7  95674.28  2573.01  2.69
456.2  97524.35  2631.89  2.70
457.6  99470.70  2692.52  2.71
459.1  101330.78  2760.17  2.72
460.5  103196.70  2813.20  2.73
462.0  105261.30  2877.46  2.73
463.4  107311.93  2935.94  2.74
464.8  109322.33  2988.09  2.73
466.3  111305.33  3047.36  2.74
467.7  113369.60  3112.20  2.75
469.2  115278.90  3170.60  2.75
470.6  117315.63  3230.72  2.75
472.0  119406.95  3298.27  2.76
473.5  121455.58  3353.53  2.76
474.9  123671.95  3416.20  2.76
476.4  125767.20  3478.97  2.77
477.8  127932.00  3547.20  2.77
479.2  130036.00  3619.23  2.78
480.7  132209.85  3688.97  2.79
482.1  134458.88  3754.72  2.79
483.6  136737.90  3820.97  2.79
485.0  139035.75  3896.25  2.80
486.4  141189.18  3970.07  2.81
487.9  143481.75  4052.93  2.82
489.3  145649.70  4141.39  2.84
490.7  147883.10  4238.24  2.87
492.2  150160.50  4345.43  2.89
493.6  152480.40  4453.61  2.92
495.0  154805.63  4567.62  2.95
496.5  157059.00  4689.36  2.99
497.9  159410.75  4831.32  3.03
499.3  161737.50  4981.03  3.08
500.7  164055.10  5146.83  3.14
502.2  166471.05  5336.94  3.21
503.6  168833.40  5552.45  3.29
505.0  171167.98  5791.79  3.38
506.5  173669.65  6078.70  3.50
507.9  176150.53  6406.27  3.64
509.3  178479.45  6778.53  3.80
510.7  181157.93  7209.86  3.98
512.2  183879.68  7696.59  4.19
513.6  186755.60  8259.94  4.42
515.0  189577.50  8875.73  4.68
516.4  192485.00  9555.03  4.96
517.8  195328.00  10315.03  5.28
519.3  198315.20  11128.17  5.61
520.7  201054.90  11967.88  5.95
522.1  203742.18  12848.83  6.31
523.5  206337.90  13717.03  6.65
524.9  209288.03  14614.38  6.98
526.3  212018.18  15463.74  7.29
527.8  214859.25  16299.89  7.59
529.2  217440.00  17118.72  7.87
530.6  220214.70  17910.21  8.13
532.0  223191.15  18658.48  8.36
533.4  225700.65  19298.70  8.55
534.8  228333.60  19888.09  8.71
536.3  231428.63  20489.30  8.85
537.7  234473.25  21051.77  8.98
539.1  237416.08  21590.65  9.09
540.5  240358.50  22108.31  9.20
541.9  243325.43  22618.42  9.30
543.3  245924.40  23097.70  9.39
544.7  248974.00  23620.04  9.49
546.1  251785.10  24107.67  9.57
547.5  254750.40  24605.07  9.66
549.0  257940.40  25090.30  9.73
550.4  260851.50  25518.48  9.78
551.8  263798.03  25900.64  9.82
553.2  266733.68  26224.43  9.83
554.6  269652.45  26472.11  9.82
556.0  272636.70  26646.74  9.77
557.4  275794.10  26756.21  9.70
558.8  278710.90  26761.74  9.60
560.2  281960.00  26727.62  9.48
561.6  284944.55  26586.57  9.33
563.0  287782.30  26362.34  9.16
564.4  291000.50  26108.12  8.97
565.8  294071.00  25782.19  8.77
567.2  297285.83  25418.44  8.55
568.6  300378.38  25009.96  8.33
570.0  303312.75  24573.40  8.10
571.4  306785.50  24172.86  7.88
572.8  309979.00  23765.01  7.67
574.2  312887.40  23375.33  7.47
575.6  316027.75  23048.54  7.29
577.0  319096.80  22758.28  7.13
578.4  322590.63  22538.75  6.99
579.8  325738.70  22339.90  6.86
581.2  328855.00  22178.38  6.74
582.5  331785.00  22042.71  6.64
583.9  334893.10  21961.49  6.56
585.3  337843.70  21891.09  6.48
586.7  340886.70  21861.40  6.41
588.1  343931.30  21857.18  6.36
589.5  347338.95  21895.22  6.30
590.9  350346.63  21939.42  6.26
592.3  353348.78  22009.14  6.23
593.7  356361.25  22085.71  6.20
595.0  359356.80  22161.55  6.17
596.4  362752.13  22233.51  6.13
597.8  365481.10  22240.51  6.09
599.2  368639.70  22241.85  6.03
600.6  371886.08  22211.28  5.97
602.0  374925.60  22129.03  5.90
603.3  377858.00  22005.41  5.82
604.7  380944.35  21848.17  5.74
606.1  384046.35  21651.51  5.64
607.5  387405.60  21452.28  5.54
608.9  390559.40  21223.77  5.43
610.2  393782.40  21008.37  5.34
611.6  396742.50  20770.62  5.24
613.0  399628.15  20550.83  5.14
614.4  402455.10  20342.17  5.05
615.8  405792.10  20181.69  4.97
617.1  408556.88  20045.13  4.91
618.5  411878.25  19956.52  4.85
619.9  414651.45  19896.20  4.80
621.3  417648.08  19887.73  4.76
622.6  420673.50  19910.61  4.73
624.0  423430.13  19958.79  4.71
625.4  426583.80  20064.32  4.70
626.8  429594.10  20188.60  4.70
628.1  432486.60  20329.38  4.70
629.5  435277.85  20469.29  4.70
630.9  438140.20  20601.11  4.70
632.2  441260.95  20722.66  4.70
633.6  443761.18  20761.66  4.68
635.0  446745.30  20742.22  4.64
636.3  449853.00  20655.70  4.59
637.7  452620.15  20453.30  4.52
639.1  455676.10  20177.93  4.43
640.4  458430.38  19823.00  4.32
641.8  461323.80  19437.33  4.21
643.2  463971.95  19028.17  4.10
644.5  466900.00  18642.67  3.99
645.9  469589.40  18253.39  3.89
647.2  472402.70  17938.47  3.80
648.6  475261.20  17674.32  3.72
650.0  478170.00  17447.93  3.65
651.3  480683.70  17281.91  3.60
652.7  484183.50  17157.20  3.54
654.0  486998.10  17019.65  3.49
655.4  489347.25  16883.03  3.45
656.8  491090.25  16748.57  3.41
658.1  493922.63  16634.03  3.37
659.5  497188.80  16526.26  3.32
660.8  500327.10  16430.34  3.28
662.2  503166.85  16381.00  3.26
663.5  505960.55  16337.26  3.23
664.9  507942.33  16312.46  3.21
666.2  510133.65  16348.80  3.20
667.6  512786.25  16469.74  3.21
668.9  515548.80  16662.03  3.23
670.3  518573.13  16903.37  3.26
671.6  520841.60  17186.13  3.30
673.0  523173.60  17507.57  3.35
674.3  525648.20  17890.25  3.40
675.7  528242.40  18326.78  3.47
677.0  530641.58  18846.02  3.55
678.4  532943.80  19457.82  3.65
679.7  535370.78  20175.51  3.77
681.1  537950.75  21035.12  3.91
682.4  540154.13  22041.46  4.08
683.8  542611.88  23286.88  4.29
685.1  544930.65  24806.16  4.55
686.4  547131.33  26673.85  4.88
687.8  549696.68  28958.04  5.27
689.1  552025.60  31710.24  5.74
690.5  554050.50  35009.67  6.32
691.8  556827.98  39081.19  7.02
693.1  559279.50  43925.89  7.85
694.5  561676.10  49527.50  8.82
695.8  564123.30  55874.40  9.90
697.1  566439.40  62932.16  11.11
698.5  568826.38  70706.57  12.43
699.8  571290.80  79126.11  13.85
701.1  573229.13  87969.21  15.35
702.5  575282.63  97194.70  16.90
703.8  577782.20  106706.59  18.47
705.1  579677.10  116177.88  20.04
706.5  582029.40  125716.64  21.60
707.8  583935.30  135056.70  23.13
709.1  586258.65  144322.24  24.62
710.5  588538.98  153389.45  26.06
711.8  590519.00  162173.89  27.46
713.1  592497.00  170776.34  28.82
714.4  594648.53  179174.95  30.13
715.8  596976.43  187433.68  31.40
717.1  599267.20  195444.84  32.61
718.4  601565.78  203216.10  33.78
719.7  603781.20  210732.84  34.90
721.0  605563.33  217849.67  35.97
722.4  607477.05  224740.13  37.00
723.7  609471.15  231423.60  37.97
725.0  611296.48  237759.84  38.89
726.3  613628.60  244031.99  39.77
727.6  615429.00  249816.96  40.59
729.0  617232.70  255380.07  41.38
730.3  619240.18  260732.66  42.11
731.6  620832.30  265615.57  42.78
732.9  622872.90  270437.34  43.42
734.2  624586.88  274855.82  44.01
735.5  626409.30  279096.27  44.55
736.8  628517.40  283169.47  45.05
738.1  630358.65  286940.99  45.52
739.5  632181.75  290462.21  45.95
740.8  634174.75  293848.57  46.34
742.1  635765.48  296877.29  46.70
743.4  637558.25  299812.81  47.03
744.7  639499.00  302619.33  47.32
746.0  641027.70  305062.44  47.59
747.3  642670.70  307365.63  47.83
748.6  644226.90  309517.20  48.04
749.9  646055.58  311631.95  48.24
751.2  647382.50  313387.50  48.41
752.5  648962.73  315176.00  48.57
753.8  650320.65  316734.48  48.70
755.1  652019.15  318323.05  48.82
756.4  653251.43  319582.61  48.92
757.7  655320.88  321193.74  49.01
759.0  659031.65  323519.58  49.09
760.3  661798.90  325327.63  49.16
761.6  664691.93  327146.29  49.22
762.9  666187.50  328207.63  49.27
764.2  667017.15  328904.94  49.31
765.5  667972.13  329605.86  49.34
766.8  668573.85  330117.18  49.38
768.1  669749.85  330866.58  49.40
769.3  670976.70  331679.63  49.43
770.6  672413.60  332538.48  49.45
771.9  673677.40  333267.74  49.47
773.2  675180.68  334109.49  49.48
774.5  676155.75  334684.37  49.50
775.8  677269.28  335349.36  49.51
777.1  678540.48  336055.39  49.53
778.4  679859.75  336797.82  49.54
779.6  681231.00  337548.91  49.55
780.9  682032.15  337979.71  49.55
782.2  683041.93  338549.28  49.56
783.5  684018.00  339118.24  49.58
784.8  684833.63  339621.45  49.59
786.0  685737.93  340125.45  49.60
787.3  686627.78  340602.24  49.61
788.6  687622.00  341144.91  49.61
789.9  688421.00  341581.33  49.62
791.2  689771.55  342349.11  49.63
792.4  690905.88  342996.26  49.64
793.7  692468.20  343867.71  49.66
795.0  693622.90  344462.66  49.66
796.2  695069.65  345208.56  49.67
797.5  696373.75  345885.55  49.67
798.8  697886.00  346663.85  49.67
800.0  699020.00  347290.67  49.68
801.3  700315.88  347977.35  49.69
802.6  701424.00  348578.74  49.70
803.8  702530.33  349211.09  49.71
805.1  703659.38  349769.28  49.71
806.4  704701.85  350334.93  49.71
807.7  705870.50  350955.90  49.72
808.9  707091.00  351609.78  49.73
810.2  708002.40  352092.00  49.73
811.4  709121.20  352684.78  49.74
812.7  710505.30  353405.45  49.74
814.0  711803.40  354121.46  49.75
815.2  713178.60  354882.66  49.76
816.5  714459.38  355507.42  49.76
817.7  715282.50  355985.94  49.77
819.0  715993.60  356373.39  49.77
820.2  716893.65  356851.42  49.78
821.5  717940.60  357443.00  49.79
822.7  719013.40  358025.51  49.79
824.0  719999.15  358520.85  49.79
825.2  720735.60  358920.60  49.80
826.5  721416.65  359327.20  49.81
827.7  722454.58  359906.19  49.82
829.0  723370.43  360387.48  49.82
830.2  724363.80  360886.48  49.82
831.5  725403.60  361373.51  49.82
832.7  726333.30  361902.24  49.83
834.0  726929.10  362235.63  49.83
835.2  727956.50  362780.03  49.84
836.4  728720.40  363180.46  49.84
837.7  729421.88  363609.11  49.85
838.9  730562.60  364283.79  49.86
840.1  731509.35  364808.68  49.87
841.4  732420.60  365334.36  49.88
842.6  733320.70  365800.25  49.88
843.8  734116.50  366253.31  49.89
845.1  734881.95  366719.67  49.90
846.3  735748.65  367227.40  49.91
847.5  736771.75  367701.60  49.91
848.8  737670.20  368221.36  49.92
850.0  738714.60  368841.47  49.93
851.2  739690.35  369331.24  49.93
852.5  740738.80  369989.31  49.95
853.7  741447.68  370363.46  49.95
854.9  742614.60  370963.88  49.95
856.1  743542.30  371444.69  49.96
857.4  744402.90  371899.88  49.96
858.6  745406.20  372412.75  49.96
859.8  746500.10  373027.10  49.97
861.0  747412.05  373577.00  49.98
862.2  748524.00  374101.20  49.98
863.5  749383.53  374590.85  49.99
864.7  750375.00  375075.24  49.99
865.9  751298.00  375552.08  49.99
867.1  752000.00  375879.70  49.98
868.3  753194.35  376491.23  49.99
869.5  754398.45  377174.23  50.00
870.8  755520.30  377724.04  50.00
872.0  756412.13  378206.79  50.00
873.2  757273.40  378618.99  50.00
874.4  758171.65  379000.10  49.99
875.6  759321.78  379568.21  49.99
876.8  760717.65  380275.75  49.99
878.0  761635.00  380823.67  50.00
879.2  762668.45  381299.07  50.00
880.4  763932.00  381812.65  49.98
881.6  764784.50  382271.52  49.98
882.8  766075.25  382894.30  49.98
884.0  766957.43  383343.63  49.98
885.2  768268.25  383967.34  49.98
886.5  769513.85  384630.80  49.98
887.7  770629.98  385070.46  49.97
888.8  772069.75  385766.16  49.97
890.0  773036.25  386165.50  49.95
891.2  773951.10  386645.67  49.96
892.4  775159.28  387307.05  49.96
893.6  777061.43  388142.70  49.95
894.8  778677.90  388912.96  49.95
896.0  780223.60  389656.78  49.94
897.2  782052.98  390487.11  49.93
898.4  784041.30  391429.92  49.92
899.6  785185.50  391994.71  49.92
900.8  785842.85  392278.58  49.92
902.0  786367.55  392515.20  49.91
903.2  786820.10  392610.48  49.90
904.3  787995.00  393099.11  49.89
905.5  788980.50  393652.29  49.89
906.7  790203.93  394204.60  49.89
907.9  791172.68  394656.21  49.88
909.1  792410.85  395147.28  49.87
910.2  792855.00  395262.00  49.85
911.4  792865.13  395244.66  49.85
912.6  793460.00  395464.38  49.84
913.8  794495.45  395999.90  49.84
915.0  795087.20  396113.71  49.82
916.2  795100.43  396139.58  49.82
917.3  795949.18  396359.98  49.80
918.5  796226.85  396515.35  49.80
919.7  796658.00  396417.18  49.76
920.8  796793.45  396500.86  49.76
922.0  796906.00  396463.30  49.75
923.2  797321.33  396661.61  49.75
924.4  798063.13  396796.17  49.72
925.5  798868.20  397040.98  49.70
926.7  799652.08  397297.85  49.68
927.9  801026.83  397910.36  49.68
929.0  804321.90  399222.15  49.63
930.2  808738.80  401307.36  49.62
931.4  813956.63  403645.40  49.59
932.5  818364.25  405797.79  49.59
933.7  821157.45  406892.94  49.55
934.9  822648.75  407419.33  49.53
936.0  821672.33  406704.59  49.50
937.2  818743.25  404974.06  49.46
938.3  814781.50  402847.71  49.44
939.5  812962.80  401556.70  49.39
940.7  812507.85  401321.58  49.39
941.8  815476.35  402535.43  49.36
943.0  817858.95  403277.40  49.31
944.2  819474.00  403813.03  49.28
945.3  819308.40  403276.73  49.22
946.5  817591.25  402150.33  49.19
947.6  818702.25  402317.64  49.14
948.8  817446.58  401347.54  49.10
949.9  817791.63  401109.21  49.05
951.1  818036.03  400680.57  48.98
952.2  817501.13  399877.96  48.91
953.4  817687.65  399316.73  48.83
954.5  816088.88  398000.05  48.77
955.7  815855.30  397230.53  48.69
956.8  816105.80  397003.03  48.65
958.0  814886.55  395933.43  48.59
959.1  814665.60  395297.28  48.52
960.3  814925.00  394605.00  48.42
961.4  815189.80  394554.92  48.40
962.6  814291.20  394116.21  48.40
963.7  814935.80  394079.79  48.36
964.9  815286.83  393986.62  48.32
966.0  815427.55  393785.93  48.29
967.2  815568.60  393842.24  48.29
968.3  817432.80  394412.37  48.25
969.5  818062.10  394538.80  48.23
970.6  818319.30  394804.64  48.25
971.8  818472.03  394613.94  48.21
972.9  817848.50  394821.33  48.28
974.0  818967.95  394974.53  48.23
975.2  817796.25  394395.11  48.23
976.3  819253.13  394892.14  48.20
977.5  818448.15  394709.47  48.23
978.6  817651.65  394621.61  48.26
979.7  817555.20  394272.85  48.23
980.9  817674.10  394676.60  48.27
982.0  817846.10  394562.64  48.24
983.2  818637.40  394681.60  48.21
984.3  816486.30  394050.26  48.26
985.4  815453.10  393398.83  48.24
986.6  815668.30  394037.13  48.31
987.7  814644.38  393451.47  48.30
988.9  815564.23  393978.82  48.31
990.0  816766.80  393699.64  48.20
993.1  862299.00  412881.65  47.88
996.9  862380.90  414123.47  48.02
1000.7  862014.55  415018.65  48.15
1004.5  860968.53  415528.72  48.26
1008.4  861538.08  416880.41  48.39
1012.2  862561.33  418336.70  48.50
1016.0  862301.43  419107.71  48.60
1019.8  860973.57  419314.09  48.70
1023.7  859808.69  419485.88  48.79
1027.5  857752.73  419090.86  48.86
1031.3  856493.58  418946.89  48.91
1035.1  855630.45  418934.59  48.96
1038.9  855358.38  419076.74  48.99
1042.7  854901.88  419247.99  49.04
1046.5  854070.00  419102.74  49.07
1050.3  852455.04  418489.30  49.09
1054.2  850345.65  417664.25  49.12
1058.0  849459.60  417248.69  49.12
1061.8  848236.50  416755.92  49.13
1065.6  846399.71  415818.52  49.13
1069.4  844383.38  414809.52  49.13
1073.2  842673.00  413860.75  49.11
1077.0  841106.93  412970.96  49.10
1080.8  840319.33  412345.91  49.07
1084.6  839437.50  411655.73  49.04
1088.4  838311.48  410872.80  49.01
1092.2  836892.93  409852.03  48.97
1096.0  835554.77  408784.58  48.92
1099.8  834123.75  407613.06  48.87
1103.6  832383.65  406254.33  48.81
1107.4  830881.63  404949.77  48.74
1111.2  829381.73  403589.73  48.66
1114.9  828159.00  402233.43  48.57
1118.7  827312.67  400866.65  48.45
1122.5  827163.57  399641.90  48.31
1126.3  824553.45  397067.70  48.16
1130.1  823981.78  394977.55  47.94
1133.9  820560.69  391007.36  47.65
1137.7  818043.40  386800.35  47.28
1141.4  814359.08  381475.24  46.84
1145.2  813480.00  377086.36  46.35
1149.0  811498.80  372313.50  45.88
1152.8  808239.20  367495.31  45.47
1156.6  804746.99  363478.82  45.17
1160.3  801583.05  360417.59  44.96
1164.1  796938.33  357369.24  44.84
1167.9  793798.46  355435.48  44.78
1171.7  791286.80  354052.71  44.74
1175.4  788938.80  352877.74  44.73
1179.2  786981.75  351830.36  44.71
1183.0  787113.75  351654.10  44.68
1186.7  787075.33  351338.63  44.64
1190.5  785478.00  350402.60  44.61
1194.3  782607.00  348871.34  44.58
1198.0  779550.03  347384.02  44.56
1201.8  777032.67  346325.63  44.57
1205.6  775432.96  345876.05  44.60
1209.3  774151.50  345774.24  44.66
1213.1  772737.00  345700.40  44.74
1216.8  770844.80  345534.27  44.83
1220.6  768581.83  345322.98  44.93
1224.3  766287.50  345028.97  45.03
1228.1  764139.94  344868.37  45.13
1231.9  761863.70  344492.25  45.22
1235.6  759491.43  343939.59  45.29
1239.4  757136.65  343417.74  45.36
1243.1  754928.10  342785.10  45.41
1246.9  752918.93  342167.81  45.45
1250.6  750847.78  341423.23  45.47
1254.3  748924.80  340706.55  45.49
1258.1  746802.67  339804.21  45.50
1261.8  744320.97  338664.80  45.50
1265.6  741897.43  337455.33  45.49
1269.3  739385.20  336104.40  45.46
1273.1  739807.42  335977.05  45.41
1276.8  740155.20  335705.18  45.36
1280.6  739672.79  335003.84  45.29
1284.3  737100.10  333279.43  45.21
1288.0  735031.81  331623.49  45.12
1291.8  733168.80  329895.60  45.00
1295.5  731335.87  328041.04  44.86
1299.2  728958.75  325809.47  44.70
1302.9  726122.93  323137.78  44.50
1306.7  723123.45  320145.63  44.27
1310.4  720117.23  316882.64  44.00
1314.1  717665.63  313656.64  43.71
1317.9  715114.40  310048.56  43.36
1321.6  712298.71  306035.76  42.96
1325.3  709418.25  301652.53  42.52
1329.0  706700.87  297127.03  42.04
1332.8  702851.25  291875.79  41.53
1336.5  699209.79  286604.47  40.99
1340.2  697278.35  282008.48  40.44
