/*** Spectra Vista SIG Data ***/
name= 41_20221021_ACRU_28_avg.sig
comm= Averaged Ref/Tar of files: HR.102122.0039_moc.sig,HR.102122.0040_moc.sig,HR.102122.0041_moc.sig
data=
337.3  6317.33  487.05  7.71
338.8  6445.40  467.26  7.25
340.3  6805.80  495.13  7.28
341.8  7076.55  501.15  7.08
343.2  7550.13  499.11  6.61
344.7  7900.50  474.36  6.00
346.2  8225.00  446.50  5.43
347.7  8627.35  444.75  5.16
349.2  8920.80  446.40  5.00
350.6  9423.45  459.17  4.87
352.1  9834.25  471.67  4.80
353.6  10388.80  471.77  4.54
355.1  10910.10  456.17  4.18
356.6  11583.35  477.21  4.12
358.0  12095.08  494.54  4.09
359.5  12621.83  511.03  4.05
361.0  13283.20  519.58  3.91
362.5  13842.00  521.82  3.77
364.0  14539.78  538.81  3.71
365.4  15214.38  547.98  3.60
366.9  15873.28  567.55  3.58
368.4  16462.60  595.59  3.62
369.9  17225.00  625.90  3.63
371.3  18068.60  655.31  3.63
372.8  18805.90  677.82  3.60
374.3  19672.40  681.29  3.46
375.8  20496.10  694.27  3.39
377.2  21270.60  707.02  3.32
378.7  22018.15  727.42  3.30
380.2  22777.20  743.17  3.26
381.7  23632.00  753.57  3.19
383.1  24622.58  763.26  3.10
384.6  25551.45  781.12  3.06
386.1  26467.95  793.39  3.00
387.6  27339.00  826.18  3.02
389.0  28257.08  843.79  2.99
390.5  29238.05  867.08  2.97
392.0  30222.00  882.21  2.92
393.4  31338.75  900.29  2.87
394.9  32270.60  921.05  2.85
396.4  33396.00  949.35  2.84
397.9  34418.70  968.60  2.81
399.3  35316.70  995.89  2.82
400.8  36457.58  1019.86  2.80
402.2  37657.95  1039.03  2.76
403.7  38780.70  1059.73  2.73
405.2  39922.60  1088.84  2.73
406.6  41177.70  1113.09  2.70
408.1  42175.95  1140.46  2.70
409.6  43331.08  1173.26  2.71
411.0  44514.80  1198.29  2.69
412.5  45821.50  1235.81  2.70
414.0  47153.58  1267.42  2.69
415.4  48452.40  1304.74  2.69
416.9  49683.10  1343.75  2.70
418.4  50963.98  1383.81  2.72
419.8  52247.30  1427.47  2.73
421.3  53672.85  1465.20  2.73
422.7  55094.00  1503.29  2.73
424.2  56569.65  1551.35  2.74
425.7  58000.25  1587.27  2.74
427.1  59435.20  1637.33  2.75
428.6  60860.68  1681.40  2.76
430.0  62351.58  1720.66  2.76
431.5  63982.10  1774.07  2.77
432.9  65574.63  1826.81  2.79
434.4  67233.13  1877.38  2.79
435.9  68861.10  1927.97  2.80
437.3  70503.00  1980.39  2.81
438.8  72098.60  2031.94  2.82
440.2  73714.03  2086.00  2.83
441.7  75545.45  2145.60  2.84
443.1  77309.10  2196.13  2.84
444.6  79064.65  2255.13  2.85
446.0  80816.73  2321.23  2.87
447.5  82750.00  2383.33  2.88
448.9  84420.98  2445.02  2.90
450.4  86300.00  2516.67  2.92
451.8  88012.88  2577.11  2.93
453.3  89802.08  2635.82  2.94
454.7  91555.43  2702.32  2.95
456.2  93359.70  2769.13  2.97
457.6  95212.80  2831.27  2.97
459.1  97008.98  2891.00  2.98
460.5  98806.45  2941.59  2.98
462.0  100772.10  3010.20  2.99
463.4  102687.55  3067.82  2.99
464.8  104636.70  3139.05  3.00
466.3  106540.13  3202.59  3.01
467.7  108528.00  3269.18  3.01
469.2  110337.60  3332.99  3.02
470.6  112297.50  3399.67  3.03
472.0  114325.23  3457.69  3.02
473.5  116273.33  3524.97  3.03
474.9  118409.90  3599.87  3.04
476.4  120429.60  3669.60  3.05
477.8  122472.00  3746.67  3.06
479.2  124459.03  3808.73  3.06
480.7  126558.90  3887.19  3.07
482.1  128706.33  3957.37  3.07
483.6  130878.90  4036.20  3.08
485.0  133021.13  4129.64  3.10
486.4  135068.83  4219.27  3.12
487.9  137266.75  4310.14  3.14
489.3  139367.78  4412.64  3.17
490.7  141510.30  4519.49  3.19
492.2  143662.63  4637.29  3.23
493.6  145858.20  4770.57  3.27
495.0  148104.45  4919.85  3.32
496.5  150255.00  5081.40  3.38
497.9  152515.63  5261.54  3.45
499.3  154700.50  5461.51  3.53
500.7  156923.50  5697.74  3.63
502.2  159245.45  5959.51  3.74
503.6  161501.40  6263.09  3.88
505.0  163746.83  6614.56  4.04
506.5  166161.00  7023.30  4.23
507.9  168551.65  7491.00  4.44
509.3  170764.20  8011.88  4.69
510.7  173325.75  8627.91  4.98
512.2  175906.80  9330.33  5.30
513.6  178715.35  10123.59  5.66
515.0  181417.43  10995.23  6.06
516.4  184210.20  11964.66  6.50
517.8  186935.00  13015.12  6.96
519.3  189774.40  14156.95  7.46
520.7  192410.00  15336.02  7.97
522.1  195002.28  16567.79  8.50
523.5  197539.30  17824.57  9.02
524.9  200402.78  19106.49  9.53
526.3  202996.13  20339.81  10.02
527.8  205699.25  21566.89  10.48
529.2  208224.00  22762.97  10.93
530.6  210924.00  23938.20  11.35
532.0  213695.95  25068.77  11.73
533.4  216208.20  26095.21  12.07
534.8  218691.83  27053.48  12.37
536.3  221558.33  28003.83  12.64
537.7  224433.75  28910.62  12.88
539.1  227285.50  29762.45  13.09
540.5  230105.25  30585.93  13.29
541.9  233008.30  31414.59  13.48
543.3  235554.90  32184.21  13.66
544.7  238502.00  33006.29  13.84
546.1  241282.30  33794.13  14.01
547.5  244101.60  34582.63  14.17
549.0  247043.60  35349.49  14.31
550.4  249876.90  36067.20  14.43
551.8  252849.53  36726.71  14.53
553.2  255677.78  37279.56  14.58
554.6  258504.65  37713.10  14.59
556.0  261364.95  38045.60  14.56
557.4  264411.30  38293.29  14.48
558.8  267273.95  38419.20  14.37
560.2  270420.00  38504.76  14.24
561.6  273321.13  38475.17  14.08
563.0  276075.15  38350.25  13.89
564.4  279226.50  38208.47  13.68
565.8  282210.00  37980.52  13.46
567.2  285335.68  37685.60  13.21
568.6  288325.58  37294.33  12.93
570.0  291144.75  36777.62  12.63
571.4  294509.83  36268.81  12.31
572.8  297609.80  35707.43  12.00
574.2  300424.43  35124.70  11.69
575.6  303463.63  34602.06  11.40
577.0  306431.13  34116.53  11.13
578.4  309793.75  33735.42  10.89
579.8  312846.90  33364.78  10.66
581.2  315838.75  33044.43  10.46
582.5  318712.50  32751.43  10.28
583.9  321704.40  32508.56  10.11
585.3  324561.70  32289.00  9.95
586.7  327511.80  32124.40  9.81
588.1  330463.90  32000.88  9.68
589.5  333750.60  31962.96  9.58
590.9  336671.08  31925.50  9.48
592.3  339553.80  31937.21  9.41
593.7  342471.68  31995.48  9.34
595.0  345384.00  32076.06  9.29
596.4  348623.13  32214.31  9.24
597.8  351249.40  32280.99  9.19
599.2  354316.95  32356.25  9.13
600.6  357461.78  32399.87  9.06
602.0  360374.40  32355.66  8.98
603.3  363220.00  32232.57  8.87
604.7  366205.90  32039.46  8.75
606.1  369140.93  31767.48  8.61
607.5  372386.15  31451.51  8.45
608.9  375413.50  31048.97  8.27
610.2  378563.63  30621.64  8.09
611.6  381452.50  30153.09  7.90
613.0  384213.05  29665.75  7.72
614.4  386928.80  29196.25  7.55
615.8  390140.40  28787.78  7.38
617.1  392779.10  28386.28  7.23
618.5  396017.10  28083.90  7.09
619.9  398693.40  27815.06  6.98
621.3  401565.78  27635.77  6.88
622.6  404469.00  27520.07  6.80
624.0  407106.75  27460.97  6.75
625.4  410132.78  27479.96  6.70
626.8  413005.45  27556.10  6.67
628.1  415790.20  27670.10  6.65
629.5  418458.43  27801.60  6.64
630.9  421229.30  27939.88  6.63
632.2  424224.23  28061.03  6.61
633.6  426593.70  28085.69  6.58
635.0  429433.43  28038.17  6.53
636.3  432369.78  27876.48  6.45
637.7  435057.88  27561.36  6.34
639.1  437928.15  27149.94  6.20
640.4  440612.13  26625.75  6.04
641.8  443368.80  26040.86  5.87
643.2  445867.75  25376.15  5.69
644.5  448700.00  24703.33  5.51
645.9  451313.45  24017.80  5.32
647.2  453566.58  23387.10  5.16
648.6  456171.60  22862.44  5.01
650.0  458877.60  22419.09  4.89
651.3  461696.65  22075.34  4.78
652.7  465510.00  21796.29  4.68
654.0  468274.15  21469.80  4.58
655.4  470522.85  21106.90  4.49
656.8  472265.85  20683.60  4.38
658.1  474880.35  20243.70  4.26
659.5  477878.40  19781.49  4.14
660.8  480610.20  19294.60  4.01
662.2  483249.65  18805.24  3.89
663.5  486063.23  18355.88  3.78
664.9  487922.60  17953.86  3.68
666.2  490165.98  17630.11  3.60
667.6  492693.75  17409.43  3.53
668.9  495244.80  17284.11  3.49
670.3  498164.63  17223.50  3.46
671.6  500277.60  17226.51  3.44
673.0  502482.40  17299.20  3.44
674.3  504896.70  17419.97  3.45
675.7  507346.20  17596.80  3.47
677.0  509571.30  17839.06  3.50
678.4  511759.40  18133.94  3.54
679.7  514047.15  18518.68  3.60
681.1  516534.30  18993.85  3.68
682.4  518627.63  19577.25  3.77
683.8  520958.25  20323.86  3.90
685.1  523153.80  21338.20  4.08
686.4  525375.50  22702.61  4.32
687.8  527719.05  24580.80  4.66
689.1  530120.50  27181.60  5.13
690.5  532111.30  30652.03  5.76
691.8  534679.20  35280.14  6.60
693.1  537094.50  41155.14  7.66
694.5  539432.80  48248.96  8.94
695.8  541792.60  56410.46  10.41
697.1  544021.30  65454.28  12.03
698.5  546272.25  75205.34  13.77
699.8  548618.80  85406.17  15.57
701.1  550482.98  95786.15  17.40
702.5  552554.13  106190.26  19.22
703.8  554949.93  116507.12  20.99
705.1  556721.30  126392.51  22.70
706.5  558941.20  136026.75  24.34
707.8  560787.85  145186.84  25.89
709.1  562982.13  154049.99  27.36
710.5  565090.35  162552.55  28.77
711.8  566955.00  170644.48  30.10
713.1  568847.00  178462.29  31.37
714.4  570941.75  186036.00  32.58
715.8  573155.95  193414.95  33.75
717.1  575405.25  200511.89  34.85
718.4  577591.43  207332.59  35.90
719.7  579767.18  213882.60  36.89
721.0  581406.95  220025.09  37.84
722.4  583207.65  225944.87  38.74
723.7  585134.40  231653.29  39.59
725.0  586802.40  236979.18  40.38
726.3  589009.20  242283.35  41.13
727.6  590693.25  247113.07  41.83
729.0  592474.05  251718.23  42.49
730.3  594400.88  256128.16  43.09
731.6  595823.00  260086.46  43.65
732.9  597755.60  264007.00  44.17
734.2  599358.38  267569.89  44.64
735.5  601073.55  270969.70  45.08
736.8  603065.58  274256.40  45.48
738.1  604824.90  277254.52  45.84
739.5  606500.10  280041.10  46.17
740.8  608341.53  282731.43  46.48
742.1  609847.33  285131.77  46.75
743.4  611530.50  287475.17  47.01
744.7  613382.00  289744.00  47.24
746.0  614885.45  291693.96  47.44
747.3  616379.40  293542.40  47.62
748.6  617898.15  295278.42  47.79
749.9  619603.23  297008.59  47.94
751.2  620875.50  298407.65  48.06
752.5  622353.78  299825.24  48.18
753.8  623573.55  301070.74  48.28
755.1  625084.18  302354.82  48.37
756.4  626140.30  303359.85  48.45
757.7  628102.75  304731.56  48.52
759.0  631550.68  306791.69  48.58
760.3  634168.10  308386.83  48.63
761.6  636860.13  310002.14  48.68
762.9  638181.50  310917.36  48.72
764.2  638955.45  311486.37  48.75
765.5  639710.75  312059.92  48.78
766.8  640244.90  312471.38  48.80
768.1  641261.25  313109.40  48.83
769.3  642492.35  313814.30  48.84
770.6  643777.00  314586.22  48.87
771.9  644873.18  315223.07  48.88
773.2  646281.68  315967.69  48.89
774.5  647117.70  316474.52  48.91
775.8  648097.55  317038.64  48.92
777.1  649229.63  317672.70  48.93
778.4  650471.00  318320.50  48.94
779.6  651665.40  318963.71  48.95
780.9  652317.30  319335.36  48.95
782.2  653192.53  319837.56  48.97
783.5  654083.25  320299.83  48.97
784.8  654827.25  320717.75  48.98
786.0  655530.55  321119.36  48.99
787.3  656283.68  321532.33  48.99
788.6  657120.63  321979.75  49.00
789.9  657817.50  322338.84  49.00
791.2  659123.55  322983.71  49.00
792.4  660144.38  323537.37  49.01
793.7  661605.93  324305.07  49.02
795.0  662571.10  324824.32  49.02
796.2  663844.90  325466.46  49.03
797.5  664968.13  326033.27  49.03
798.8  666365.00  326697.92  49.03
800.0  667380.00  327240.00  49.03
801.3  668563.88  327807.00  49.03
802.6  669600.00  328333.71  49.03
803.8  670640.25  328860.10  49.04
805.1  671523.75  329355.86  49.05
806.4  672452.28  329821.47  49.05
807.7  673448.83  330341.92  49.05
808.9  674567.88  330908.68  49.05
810.2  675368.40  331349.80  49.06
811.4  676419.20  331853.07  49.06
812.7  677766.80  332533.42  49.06
814.0  678978.30  333125.10  49.06
815.2  680358.60  333795.03  49.06
816.5  681375.63  334368.33  49.07
817.7  682172.25  334761.36  49.07
819.0  682858.40  335125.87  49.08
820.2  683658.45  335541.99  49.08
821.5  684752.20  336073.32  49.08
822.7  685699.35  336584.73  49.09
824.0  686660.00  337065.73  49.09
825.2  687283.35  337437.84  49.10
826.5  688011.70  337833.53  49.10
827.7  689087.25  338336.48  49.10
829.0  689988.53  338797.96  49.10
830.2  691053.00  339285.94  49.10
831.5  691918.88  339757.78  49.10
832.7  692916.75  340253.40  49.10
834.0  693497.70  340575.11  49.11
835.2  694406.30  341093.70  49.12
836.4  695266.80  341469.18  49.11
837.7  696076.88  341888.04  49.12
838.9  697424.35  342526.89  49.11
840.1  698233.80  342989.27  49.12
841.4  699292.10  343509.65  49.12
842.6  700117.60  343984.33  49.13
843.8  700910.60  344400.33  49.14
845.1  701728.50  344844.97  49.14
846.3  702763.95  345339.30  49.14
847.5  703582.75  345816.10  49.15
848.8  704594.65  346296.53  49.15
850.0  705783.80  346934.76  49.16
851.2  706723.30  347338.88  49.15
852.5  707819.90  347939.28  49.16
853.7  708700.73  348330.79  49.15
854.9  709821.45  348935.04  49.16
856.1  710851.85  349429.21  49.16
857.4  711932.55  349915.62  49.15
858.6  712814.20  350402.80  49.16
859.8  714097.30  350964.95  49.15
861.0  715036.70  351464.10  49.15
862.2  716163.00  351977.80  49.15
863.5  717098.45  352447.10  49.15
864.7  718175.00  352913.10  49.14
865.9  719024.75  353413.55  49.15
867.1  719981.25  353786.90  49.14
868.3  721156.15  354355.49  49.14
869.5  722309.15  354910.23  49.14
870.8  723370.50  355453.16  49.14
872.0  724377.65  355904.55  49.13
873.2  725358.85  356371.76  49.13
874.4  726235.45  356770.00  49.13
875.6  727518.55  357362.47  49.12
876.8  729027.75  358024.23  49.11
878.0  730035.25  358500.90  49.11
879.2  731006.80  358988.27  49.11
880.4  732060.00  359492.76  49.11
881.6  733051.40  359961.61  49.10
882.8  734275.90  360570.78  49.11
884.0  735495.15  360960.63  49.08
885.2  736903.25  361577.05  49.07
886.5  738260.08  362180.55  49.06
887.7  739139.18  362621.33  49.06
888.8  740497.45  363297.46  49.06
890.0  741247.50  363685.00  49.06
891.2  742292.85  364167.42  49.06
892.4  743986.65  364787.18  49.03
893.6  745618.53  365646.96  49.04
894.8  747172.95  366372.38  49.03
896.0  748635.60  367060.08  49.03
897.2  750377.93  367919.36  49.03
898.4  752264.10  368794.00  49.02
899.6  753736.70  369267.24  48.99
900.8  754350.35  369512.00  48.98
902.0  754836.15  369773.64  48.99
903.2  754837.30  369901.46  49.00
904.3  755966.25  370325.89  48.99
905.5  757350.00  370889.36  48.97
906.7  758532.43  371439.90  48.97
907.9  759727.75  371786.78  48.94
909.1  760733.05  372236.33  48.93
910.2  760961.25  372420.00  48.94
911.4  761054.85  372475.20  48.94
912.6  761450.00  372641.67  48.94
913.8  762755.00  373058.67  48.91
915.0  762914.60  373149.90  48.91
916.2  763225.58  373174.26  48.89
917.3  763864.80  373449.90  48.89
918.5  763993.05  373535.77  48.89
919.7  764077.00  373555.43  48.89
920.8  764634.68  373553.09  48.85
922.0  764329.78  373504.82  48.87
923.2  764861.10  373623.82  48.85
924.4  765421.38  373733.55  48.83
925.5  766318.60  374133.34  48.82
926.7  767199.13  374442.52  48.81
927.9  768650.43  375026.63  48.79
929.0  771654.60  376395.68  48.78
930.2  775716.80  378366.36  48.78
931.4  780846.53  380649.36  48.75
932.5  785504.50  382752.75  48.73
933.7  788349.38  383928.80  48.70
934.9  789626.25  384522.50  48.70
936.0  788516.55  383831.64  48.68
937.2  785264.28  382174.89  48.67
938.3  781306.50  380052.83  48.64
939.5  779032.80  378820.37  48.63
940.7  779084.08  378671.52  48.60
941.8  782069.60  379848.98  48.57
943.0  784110.60  380703.27  48.55
944.2  785802.00  381372.00  48.53
945.3  785139.60  380808.80  48.50
946.5  783352.50  379761.67  48.48
947.6  784254.75  379979.62  48.45
948.8  782818.90  379181.38  48.44
949.9  783337.45  379090.22  48.39
951.1  783397.38  378685.22  48.34
952.2  782670.25  378124.76  48.31
953.4  782697.45  377632.33  48.25
954.5  781011.00  376538.75  48.21
955.7  780607.60  376057.34  48.17
956.8  780641.98  375862.34  48.15
958.0  780172.65  375071.19  48.08
959.1  779284.80  374500.80  48.06
960.3  779312.50  374096.43  48.00
961.4  779767.30  374061.60  47.97
962.6  779558.40  373561.37  47.92
963.7  779353.40  373426.93  47.91
964.9  779355.50  373483.35  47.92
966.0  779613.10  373468.83  47.90
967.2  779830.80  373481.60  47.89
968.3  781175.70  373976.55  47.87
969.5  781804.50  373906.50  47.83
970.6  782027.60  373955.03  47.82
971.8  782068.53  373858.17  47.80
972.9  782372.50  374187.33  47.83
974.0  783245.60  374549.16  47.82
975.2  781818.75  374007.86  47.84
976.3  782841.88  374377.00  47.82
977.5  782362.73  373869.86  47.79
978.6  782702.33  374031.31  47.79
979.7  782196.80  373870.93  47.80
980.9  782840.45  374178.00  47.80
982.0  782711.90  373928.27  47.77
983.2  783270.60  374273.87  47.78
984.3  781083.10  373419.47  47.81
985.4  781328.80  373069.93  47.75
986.6  781890.63  373282.03  47.74
987.7  781528.75  373165.78  47.75
988.9  781874.83  373658.23  47.79
990.0  781255.20  373717.32  47.84
993.1  861244.20  407931.35  47.37
996.9  860672.60  408483.37  47.46
1000.7  860179.28  408963.81  47.54
1004.5  859166.27  409114.53  47.62
1008.4  860141.18  410289.49  47.70
1012.2  861495.92  411540.02  47.77
1016.0  861415.60  412161.72  47.85
1019.8  860064.98  412107.44  47.92
1023.7  858527.82  411819.61  47.97
1027.5  855973.67  410999.06  48.02
1031.3  854094.43  410363.78  48.05
1035.1  852743.40  409961.10  48.08
1038.9  852097.62  409819.09  48.10
1042.7  851753.20  409798.48  48.11
1046.5  851019.75  409553.13  48.12
1050.3  849472.69  408825.41  48.13
1054.2  847493.08  407987.80  48.14
1058.0  846586.80  407566.29  48.14
1061.8  845405.00  407032.94  48.15
1065.6  843499.00  405993.16  48.13
1069.4  841069.22  404726.03  48.12
1073.2  838942.00  403633.29  48.11
1077.0  837598.67  402853.11  48.10
1080.8  837334.67  402464.86  48.06
1084.6  837199.00  402154.76  48.04
1088.4  836636.07  401726.62  48.02
1092.2  835384.90  400837.13  47.98
1096.0  834065.13  399850.89  47.94
1099.8  832469.50  398719.70  47.90
1103.6  830561.97  397450.03  47.85
1107.4  829012.38  396263.19  47.80
1111.2  827642.47  395168.49  47.75
1114.9  826744.50  394258.93  47.69
1118.7  826457.50  393490.11  47.61
1122.5  826560.15  392755.29  47.52
1126.3  824194.35  390752.10  47.41
1130.1  823626.13  389284.33  47.26
1133.9  820211.54  386018.58  47.06
1137.7  817523.20  382759.86  46.82
1141.4  813677.18  378608.74  46.53
1145.2  812745.61  375516.25  46.20
1149.0  810659.55  372091.48  45.90
1152.8  807185.65  368227.60  45.62
1156.6  803534.61  364746.31  45.39
1160.3  800261.85  361898.70  45.22
1164.1  795511.80  358804.48  45.10
1167.9  792441.17  356750.54  45.02
1171.7  789947.63  355101.09  44.95
1175.4  787502.63  353587.80  44.90
1179.2  785544.00  352248.75  44.84
1183.0  785874.63  351934.59  44.78
1186.7  786109.33  351631.67  44.73
1190.5  784895.46  350720.35  44.68
1194.3  782187.93  349142.40  44.64
1198.0  779030.78  347504.35  44.61
1201.8  776519.33  346272.67  44.59
1205.6  774923.38  345672.21  44.61
1209.3  773799.75  345440.03  44.64
1213.1  772588.63  345176.77  44.68
1216.8  770701.20  344810.95  44.74
1220.6  768394.50  344258.45  44.80
1224.3  766012.50  343651.79  44.86
1228.1  763740.87  343141.16  44.93
1231.9  761166.90  342414.99  44.99
1235.6  758584.75  341575.93  45.03
1239.4  756238.20  340867.04  45.07
1243.1  754039.80  340073.87  45.10
1246.9  752039.20  339292.58  45.12
1250.6  749938.82  338466.13  45.13
1254.3  747945.60  337649.14  45.14
1258.1  745826.67  336714.19  45.15
1261.8  743311.80  335550.80  45.14
1265.6  741142.34  334494.25  45.13
1269.3  739150.40  333404.82  45.11
1273.1  739769.03  333420.66  45.07
1276.8  739662.07  333043.83  45.03
1280.6  738762.19  332314.80  44.98
1284.3  736032.83  330711.09  44.93
1288.0  734275.64  329429.41  44.86
1291.8  732979.80  328185.00  44.77
1295.5  731486.10  326778.96  44.67
1299.2  729069.90  324896.74  44.56
1302.9  726086.53  322586.13  44.43
1306.7  722906.10  320027.18  44.27
1310.4  719829.10  317286.25  44.08
1314.1  717309.38  314655.27  43.87
1317.9  714757.98  311783.12  43.62
1321.6  711906.65  308580.46  43.35
1325.3  709096.28  305165.86  43.04
1329.0  706449.33  301721.93  42.71
1332.8  702815.00  297607.32  42.35
