/*** Spectra Vista SIG Data ***/
name= 34_20220721_LIST_48_avg.sig
comm= Averaged Ref/Tar of files: HR.072122.0024_moc.sig,HR.072122.0025_moc.sig,HR.072122.0026_moc.sig
data=
337.3  3374.50  297.75  8.82
338.8  3463.20  275.77  7.96
340.3  3607.45  274.85  7.62
341.8  3840.90  268.25  6.98
343.2  3996.00  260.48  6.52
344.7  4222.35  259.96  6.16
346.2  4370.95  254.44  5.82
347.7  4522.38  255.43  5.65
349.2  4725.00  240.48  5.09
350.6  4957.88  242.04  4.88
352.1  5251.58  235.44  4.48
353.6  5517.30  241.25  4.37
355.1  5825.78  238.61  4.10
356.6  6096.15  239.73  3.93
358.0  6380.00  240.62  3.77
359.5  6643.50  244.26  3.68
361.0  6942.60  244.53  3.52
362.5  7289.48  256.50  3.52
364.0  7656.23  261.63  3.42
365.4  8036.60  269.22  3.35
366.9  8370.38  274.67  3.28
368.4  8700.73  273.79  3.15
369.9  9026.35  283.63  3.14
371.3  9425.10  300.57  3.19
372.8  9850.05  320.62  3.26
374.3  10266.25  321.99  3.14
375.8  10672.20  319.29  2.99
377.2  11055.90  318.70  2.88
378.7  11432.50  315.11  2.76
380.2  11836.00  325.87  2.75
381.7  12323.40  329.96  2.68
383.1  12774.30  338.80  2.65
384.6  13298.68  341.68  2.57
386.1  13755.73  346.95  2.52
387.6  14202.65  358.31  2.52
389.0  14659.60  367.03  2.50
390.5  15106.95  363.61  2.41
392.0  15658.40  370.80  2.37
393.4  16237.95  383.87  2.36
394.9  16756.20  390.75  2.33
396.4  17284.50  402.66  2.33
397.9  17809.38  408.05  2.29
399.3  18335.30  414.85  2.26
400.8  18868.23  423.01  2.24
402.2  19468.15  435.35  2.24
403.7  20078.55  446.65  2.22
405.2  20668.28  456.36  2.21
406.6  21228.00  468.42  2.21
408.1  21786.40  475.68  2.18
409.6  22367.05  492.93  2.20
411.0  23015.30  502.64  2.18
412.5  23636.38  524.39  2.22
414.0  24287.00  537.12  2.21
415.4  24982.88  554.61  2.22
416.9  25635.75  573.84  2.24
418.4  26275.73  589.77  2.24
419.8  26972.40  606.32  2.25
421.3  27664.40  631.85  2.28
422.7  28431.60  652.25  2.29
424.2  29176.88  672.43  2.30
425.7  29926.80  693.91  2.32
427.1  30653.03  716.19  2.34
428.6  31403.00  745.18  2.37
430.0  32110.30  767.42  2.39
431.5  32954.40  791.45  2.40
432.9  33797.55  818.73  2.42
434.4  34652.18  838.22  2.42
435.9  35448.00  860.53  2.43
437.3  36258.75  883.93  2.44
438.8  37059.75  911.46  2.46
440.2  37878.23  938.37  2.48
441.7  38819.80  966.08  2.49
443.1  39683.75  991.86  2.50
444.6  40623.10  1021.80  2.52
446.0  41507.03  1051.10  2.53
447.5  42419.85  1081.02  2.55
448.9  43318.20  1111.86  2.57
450.4  44276.05  1145.03  2.59
451.8  45110.00  1173.71  2.60
453.3  45997.85  1204.89  2.62
454.7  46968.88  1235.19  2.63
456.2  47808.38  1261.54  2.64
457.6  48745.80  1289.82  2.65
459.1  49675.60  1315.24  2.65
460.5  50570.88  1342.09  2.65
462.0  51584.35  1370.02  2.66
463.4  52566.90  1401.58  2.67
464.8  53529.75  1430.84  2.67
466.3  54487.13  1457.80  2.68
467.7  55441.43  1484.71  2.68
469.2  56454.83  1514.74  2.68
470.6  57380.20  1536.40  2.68
472.0  58369.03  1569.16  2.69
473.5  59325.00  1601.64  2.70
474.9  60320.25  1630.20  2.70
476.4  61416.00  1665.19  2.71
477.8  62466.00  1698.02  2.72
479.2  63437.50  1728.95  2.73
480.7  64500.60  1762.09  2.73
482.1  65588.55  1800.61  2.75
483.6  66730.10  1838.04  2.75
485.0  67771.95  1879.54  2.77
486.4  68923.35  1919.77  2.79
487.9  69951.38  1965.04  2.81
489.3  71092.30  2010.73  2.83
490.7  72123.05  2058.41  2.85
492.2  73308.90  2114.56  2.88
493.6  74378.05  2170.99  2.92
495.0  75435.75  2228.85  2.95
496.5  76574.15  2303.56  3.01
497.9  77630.75  2382.66  3.07
499.3  78746.05  2469.87  3.14
500.7  79945.05  2570.87  3.22
502.2  81030.00  2685.01  3.31
503.6  82227.20  2810.15  3.42
505.0  83241.30  2957.35  3.55
506.5  84498.23  3128.92  3.70
507.9  85673.68  3323.62  3.88
509.3  87009.20  3557.92  4.09
510.7  88218.00  3813.92  4.32
512.2  89556.83  4109.52  4.59
513.6  90964.65  4448.77  4.89
515.0  92306.03  4831.62  5.23
516.4  93611.70  5256.09  5.61
517.8  95146.00  5738.79  6.03
519.3  96399.68  6248.23  6.48
520.7  97872.30  6813.31  6.96
522.1  99110.70  7384.12  7.45
523.5  100441.40  7983.10  7.95
524.9  101821.05  8588.15  8.43
526.3  103147.80  9175.53  8.90
527.8  104558.85  9763.95  9.34
529.2  105670.80  10313.64  9.76
530.6  107132.30  10875.21  10.15
532.0  108724.00  11412.53  10.50
533.4  110038.95  11881.87  10.80
534.8  110997.43  12267.51  11.05
536.3  112591.20  12681.31  11.26
537.7  114458.40  13096.56  11.44
539.1  115793.38  13432.61  11.60
540.5  116945.25  13727.13  11.74
541.9  118586.03  14073.70  11.87
543.3  119847.55  14367.77  11.99
544.7  121068.00  14651.06  12.10
546.1  122773.48  14991.03  12.21
547.5  123961.60  15251.84  12.30
549.0  125653.00  15562.80  12.39
550.4  127085.63  15823.56  12.45
551.8  128541.83  16049.92  12.49
553.2  130005.23  16230.86  12.48
554.6  131279.20  16338.30  12.45
556.0  132738.75  16406.43  12.36
557.4  134266.30  16436.22  12.24
558.8  135823.05  16426.93  12.09
560.2  137199.00  16351.59  11.92
561.6  138777.60  16262.40  11.72
563.0  140281.20  16124.72  11.49
564.4  141792.00  15948.59  11.25
565.8  143246.25  15731.88  10.98
567.2  144899.25  15501.91  10.70
568.6  146323.13  15214.44  10.40
570.0  147679.60  14886.28  10.08
571.4  149329.70  14572.74  9.76
572.8  150988.50  14262.46  9.45
574.2  152532.80  13957.33  9.15
575.6  154001.25  13669.93  8.88
577.0  155442.80  13405.89  8.62
578.4  157100.13  13191.53  8.40
579.8  158527.13  12982.05  8.19
581.2  160163.28  12816.06  8.00
582.5  161506.80  12648.26  7.83
583.9  162958.00  12510.02  7.68
585.3  164660.40  12409.50  7.54
586.7  166053.23  12299.86  7.41
588.1  167482.63  12216.23  7.29
589.5  169037.75  12161.57  7.19
590.9  170586.80  12131.45  7.11
592.3  172324.05  12131.67  7.04
593.7  173672.85  12126.47  6.98
595.0  175227.98  12139.05  6.93
596.4  176599.15  12145.62  6.88
597.8  178016.13  12147.30  6.82
599.2  179480.40  12146.51  6.77
600.6  181140.05  12141.74  6.70
602.0  182365.20  12085.82  6.63
603.3  184063.20  12036.27  6.54
604.7  185651.80  11948.04  6.44
606.1  187072.80  11822.53  6.32
607.5  188614.13  11681.35  6.19
608.9  190222.95  11528.49  6.06
610.2  191532.60  11347.02  5.92
611.6  193029.38  11169.68  5.79
613.0  194511.45  10998.79  5.65
614.4  195828.45  10821.32  5.53
615.8  197203.50  10658.98  5.41
617.1  198670.50  10521.28  5.30
618.5  200199.60  10412.15  5.20
619.9  201621.83  10321.85  5.12
621.3  203180.85  10263.06  5.05
622.6  204655.00  10225.63  5.00
624.0  206041.20  10200.53  4.95
625.4  207411.60  10196.81  4.92
626.8  208936.00  10220.21  4.89
628.1  210211.10  10243.38  4.87
629.5  211999.23  10305.62  4.86
630.9  213562.53  10350.97  4.85
632.2  214886.53  10378.68  4.83
633.6  216442.88  10393.41  4.80
635.0  217906.80  10370.78  4.76
636.3  219346.70  10306.85  4.70
637.7  220645.13  10196.31  4.62
639.1  222232.50  10064.33  4.53
640.4  223641.78  9892.61  4.42
641.8  224773.25  9691.03  4.31
643.2  226285.85  9496.94  4.20
644.5  227577.50  9280.73  4.08
645.9  229241.25  9081.97  3.96
647.2  231227.15  8927.83  3.86
648.6  233138.25  8801.61  3.78
650.0  234554.40  8676.21  3.70
651.3  234823.60  8532.64  3.63
652.7  235478.80  8393.27  3.56
654.0  237358.50  8300.27  3.50
655.4  238909.75  8199.43  3.43
656.8  239394.20  8061.31  3.37
658.1  240597.30  7921.22  3.29
659.5  242726.40  7800.63  3.21
660.8  244350.00  7665.00  3.14
662.2  245168.00  7519.57  3.07
663.5  246684.55  7386.29  2.99
664.9  248050.40  7292.58  2.94
666.2  248795.40  7194.91  2.89
667.6  250419.53  7161.86  2.86
668.9  251559.20  7145.36  2.84
670.3  252434.75  7145.08  2.83
671.6  254061.38  7200.53  2.83
673.0  255167.63  7260.79  2.85
674.3  256337.90  7343.94  2.86
675.7  257615.25  7453.36  2.89
677.0  258727.68  7582.89  2.93
678.4  260027.15  7741.89  2.98
679.7  261084.35  7920.19  3.03
681.1  262317.23  8136.21  3.10
682.4  263409.90  8396.32  3.19
683.8  264647.50  8709.08  3.29
685.1  265632.75  9079.68  3.42
686.4  266910.60  9579.41  3.59
687.8  268157.00  10216.78  3.81
689.1  269158.25  11025.83  4.10
690.5  270457.35  12099.23  4.47
691.8  271295.73  13484.57  4.97
693.1  272502.15  15311.83  5.62
694.5  273659.75  17557.80  6.42
695.8  274797.25  20267.00  7.38
697.1  275934.75  23436.40  8.49
698.5  276962.70  27063.59  9.77
699.8  278018.18  31112.69  11.19
701.1  279129.25  35534.96  12.73
702.5  279890.60  40192.69  14.36
703.8  280777.50  45053.57  16.05
705.1  281904.68  50079.94  17.76
706.5  282909.50  55157.15  19.50
707.8  283845.00  60252.62  21.23
709.1  284710.73  65308.07  22.94
710.5  285849.30  70375.20  24.62
711.8  286688.80  75319.63  26.27
713.1  287670.00  80235.82  27.89
714.4  288539.70  85040.31  29.47
715.8  289320.20  89723.73  31.01
717.1  290617.05  94442.16  32.50
718.4  291513.60  98927.36  33.94
719.7  292624.50  103331.92  35.31
721.0  293130.00  107410.29  36.64
722.4  293894.15  111420.19  37.91
723.7  294812.40  115339.41  39.12
725.0  295834.05  119132.67  40.27
726.3  296747.83  122698.07  41.35
727.6  297295.63  125949.65  42.37
729.0  298231.33  129169.06  43.31
730.3  298979.63  132152.54  44.20
731.6  299885.10  135011.24  45.02
732.9  300666.45  137664.31  45.79
734.2  301444.00  140167.63  46.50
735.5  302437.40  142607.21  47.15
736.8  303217.80  144796.17  47.75
738.1  304055.80  146860.72  48.30
739.5  304967.63  148844.78  48.81
740.8  305643.80  150584.65  49.27
742.1  306392.43  152260.07  49.69
743.4  307175.00  153833.81  50.08
744.7  308142.00  155418.94  50.44
746.0  309016.50  156841.17  50.75
747.3  309567.20  157997.32  51.04
748.6  310287.50  159153.64  51.29
749.9  311064.00  160255.09  51.52
751.2  311838.75  161291.21  51.72
752.5  312754.00  162345.18  51.91
753.8  313369.35  163187.28  52.08
755.1  314080.00  164008.99  52.22
756.4  314661.15  164709.70  52.35
757.7  315611.80  165549.43  52.45
759.0  317374.95  166766.02  52.55
760.3  318542.40  167637.99  52.63
761.6  320077.80  168680.99  52.70
762.9  320598.75  169173.62  52.77
764.2  320997.70  169556.08  52.82
765.5  321300.23  169881.21  52.87
766.8  321748.80  170253.35  52.91
768.1  322306.20  170650.33  52.95
769.3  322952.00  171071.87  52.97
770.6  323605.10  171513.98  53.00
771.9  324350.60  171976.44  53.02
773.2  324754.00  172257.63  53.04
774.5  325410.80  172656.84  53.06
775.8  326120.40  173090.66  53.08
777.1  326713.20  173457.49  53.09
778.4  327088.30  173703.34  53.11
779.6  327896.48  174162.46  53.12
780.9  328350.00  174465.14  53.13
782.2  328847.75  174745.32  53.14
783.5  329186.50  174964.27  53.15
784.8  329796.68  175302.07  53.15
786.0  330221.15  175566.74  53.17
787.3  330644.88  175826.54  53.18
788.6  331107.30  176097.12  53.18
789.9  331595.60  176377.49  53.19
791.2  332265.00  176748.85  53.20
792.4  332981.55  177146.72  53.20
793.7  333499.00  177431.62  53.20
795.0  334157.18  177806.75  53.21
796.2  334823.18  178203.38  53.22
797.5  335582.40  178620.11  53.23
798.8  336257.85  179014.12  53.24
800.0  336986.05  179398.36  53.24
801.3  337498.90  179675.54  53.24
802.6  338143.50  180023.25  53.24
803.8  338850.13  180396.47  53.24
805.1  339377.50  180696.03  53.24
806.4  339813.90  180969.92  53.26
807.7  340349.85  181289.07  53.27
808.9  340968.30  181610.87  53.26
810.2  341553.80  181923.22  53.26
811.4  342093.10  182210.58  53.26
812.7  342712.50  182561.79  53.27
814.0  343520.20  183015.60  53.28
815.2  344187.00  183381.11  53.28
816.5  344625.80  183611.20  53.28
817.7  345113.90  183886.90  53.28
819.0  345644.75  184171.72  53.28
820.2  345840.00  184282.06  53.29
821.5  346528.65  184673.25  53.29
822.7  346897.05  184892.75  53.30
824.0  347233.50  185077.54  53.30
825.2  347775.53  185365.84  53.30
826.5  348085.83  185526.91  53.30
827.7  348661.50  185821.07  53.30
829.0  349114.63  186021.84  53.28
830.2  349413.70  186178.78  53.28
831.5  349896.55  186424.27  53.28
832.7  350160.30  186597.93  53.29
834.0  350488.60  186767.64  53.29
835.2  350814.48  186975.99  53.30
836.4  351149.70  187137.57  53.29
837.7  351541.20  187363.72  53.30
838.9  352039.40  187613.77  53.29
840.1  352397.25  187828.88  53.30
841.4  352836.90  188102.73  53.31
842.6  353158.00  188312.40  53.32
843.8  353533.80  188514.53  53.32
845.1  354082.10  188815.52  53.33
846.3  354409.70  189031.10  53.34
847.5  354803.40  189267.92  53.34
848.8  355226.40  189496.46  53.35
850.0  355538.75  189666.01  53.35
851.2  356081.40  189977.76  53.35
852.5  356479.20  190211.65  53.36
853.7  356982.75  190490.23  53.36
854.9  357402.70  190734.38  53.37
856.1  357780.80  190979.66  53.38
857.4  357980.35  191099.84  53.38
858.6  358490.30  191337.36  53.37
859.8  358946.25  191576.75  53.37
861.0  359353.80  191819.83  53.38
862.2  359852.73  192063.60  53.37
863.5  360130.55  192257.06  53.39
864.7  360676.80  192557.33  53.39
865.9  361128.00  192767.97  53.38
867.1  361407.10  192952.42  53.39
868.3  361824.90  193195.69  53.39
869.5  362363.50  193449.30  53.39
870.8  362839.50  193728.60  53.39
872.0  363350.18  194001.80  53.39
873.2  363866.40  194218.38  53.38
874.4  364232.70  194463.53  53.39
875.6  364651.53  194646.44  53.38
876.8  365183.20  194913.38  53.37
878.0  365710.35  195168.38  53.37
879.2  366222.15  195436.55  53.37
880.4  366695.63  195690.46  53.37
881.6  367055.50  195941.75  53.38
882.8  367566.40  196165.85  53.37
884.0  368203.48  196485.67  53.36
885.2  368778.50  196743.67  53.35
886.5  369349.45  197047.30  53.35
887.7  369912.73  197305.65  53.34
888.8  370576.50  197611.24  53.33
890.0  371094.30  197908.16  53.33
891.2  371707.90  198221.01  53.33
892.4  372402.98  198533.47  53.31
893.6  372874.50  198820.52  53.32
894.8  373893.75  199275.94  53.30
896.0  374867.25  199726.92  53.28
897.2  375596.00  200141.31  53.29
898.4  376361.70  200552.82  53.29
899.6  377066.25  200842.81  53.26
900.8  377421.50  201066.56  53.27
902.0  377747.40  201171.93  53.26
903.2  378101.10  201319.04  53.24
904.3  378523.80  201470.42  53.23
905.5  379140.80  201823.07  53.23
906.7  379771.00  202142.42  53.23
907.9  380455.60  202444.67  53.21
909.1  380803.28  202612.41  53.21
910.2  380973.23  202662.39  53.20
911.4  381241.58  202778.33  53.19
912.6  381545.45  202886.63  53.17
913.8  381874.28  202995.00  53.16
915.0  382347.00  203209.16  53.15
916.2  382658.25  203331.14  53.14
917.3  382855.50  203367.36  53.12
918.5  383144.50  203468.97  53.11
919.7  383468.25  203561.72  53.08
920.8  383511.08  203528.25  53.07
922.0  383768.00  203564.90  53.04
923.2  384111.00  203629.40  53.01
924.4  384405.75  203711.72  52.99
925.5  384702.60  203779.74  52.97
926.7  385409.13  204057.27  52.95
927.9  386371.20  204381.77  52.90
929.0  387740.25  205057.03  52.89
930.2  389809.70  206031.55  52.85
931.4  392256.00  207125.18  52.80
932.5  394819.10  208333.76  52.77
933.7  396400.60  208979.77  52.72
934.9  397241.25  209191.83  52.66
936.0  396854.25  208870.16  52.63
937.2  394929.15  207798.90  52.62
938.3  393303.95  206804.35  52.58
939.5  392036.40  205866.45  52.51
940.7  392447.70  205854.34  52.45
941.8  394004.55  206490.26  52.41
943.0  395604.75  207076.43  52.34
944.2  396533.15  207295.57  52.28
945.3  396249.75  206897.79  52.21
946.5  395566.20  206304.20  52.15
947.6  395893.20  206137.62  52.07
948.8  395616.98  205825.42  52.03
949.9  395984.40  205585.52  51.92
951.1  395836.35  205058.77  51.80
952.2  395760.00  204637.26  51.71
953.4  395640.25  204178.75  51.61
954.5  395717.40  203812.66  51.50
955.7  395841.60  203404.32  51.39
956.8  395706.40  202896.03  51.27
958.0  395377.50  202425.69  51.20
959.1  395244.48  202021.73  51.11
960.3  395097.05  201712.17  51.05
961.4  395216.75  201503.02  50.99
962.6  395587.50  201508.73  50.94
963.7  395463.90  201222.57  50.88
964.9  395364.38  201063.85  50.86
966.0  395277.98  201047.17  50.86
967.2  395432.55  201065.95  50.85
968.3  395356.95  200866.19  50.81
969.5  395319.05  200809.40  50.80
970.6  395553.25  200826.11  50.77
971.8  395839.85  200951.25  50.77
972.9  395589.08  200989.64  50.81
974.0  395968.50  201058.57  50.78
975.2  396046.13  201094.81  50.78
976.3  396170.13  201047.16  50.75
977.5  395949.23  201059.44  50.78
978.6  396099.00  201177.90  50.79
979.7  396693.15  201368.19  50.76
980.9  396363.08  201481.88  50.83
982.0  396918.65  201478.44  50.76
983.2  396988.73  201489.36  50.75
984.3  396430.20  201516.74  50.83
985.4  396902.45  201630.63  50.80
986.6  396110.63  201830.72  50.95
987.7  397205.03  202413.37  50.96
988.9  397783.80  202460.37  50.90
990.0  398779.60  203035.23  50.91
993.1  336642.95  170243.80  50.57
996.9  337682.08  171391.21  50.76
1000.7  338938.54  172626.69  50.93
1004.5  339626.50  173531.49  51.09
1008.4  339547.71  174075.26  51.27
1012.2  339706.75  174694.12  51.42
1016.0  339931.80  175325.14  51.58
1019.8  340297.65  175993.13  51.72
1023.7  340640.28  176537.15  51.83
1027.5  340712.25  176950.97  51.94
1031.3  341224.83  177504.38  52.02
1035.1  341329.16  177821.79  52.10
1038.9  341391.78  178077.30  52.16
1042.7  341217.83  178226.83  52.23
1046.5  341127.50  178350.38  52.28
1050.3  341203.74  178517.22  52.32
1054.2  340949.00  178521.67  52.36
1058.0  340477.84  178346.99  52.38
1061.8  340315.44  178364.72  52.41
1065.6  340097.47  178265.00  52.42
1069.4  340283.07  178364.46  52.42
1073.2  340121.77  178225.40  52.40
1077.0  339792.93  177971.04  52.38
1080.8  339239.58  177573.21  52.34
1084.6  338033.85  176832.25  52.31
1088.4  337237.78  176309.59  52.28
1092.2  336375.00  175704.75  52.23
1096.0  335894.52  175244.47  52.17
1099.8  335491.00  174800.79  52.10
1103.6  334939.25  174247.66  52.02
1107.4  334154.82  173537.17  51.93
1111.2  333895.80  173089.39  51.84
1114.9  333222.17  172372.50  51.73
1118.7  332526.15  171540.84  51.59
1122.5  331749.60  170568.79  51.41
1126.3  330669.97  169272.80  51.19
1130.1  330186.14  168009.35  50.88
1133.9  328774.60  165900.60  50.46
1137.7  327520.80  163521.76  49.93
1141.4  325970.88  160681.24  49.29
1145.2  325332.34  158100.19  48.60
1149.0  324349.38  155482.71  47.94
1152.8  322930.70  152981.57  47.37
1156.6  321469.87  150995.53  46.97
1160.3  319934.67  149476.19  46.72
1164.1  317674.77  148027.59  46.60
1167.9  316010.42  147100.75  46.55
1171.7  314850.38  146539.13  46.54
1175.4  313866.07  146113.53  46.55
1179.2  313028.28  145713.54  46.55
1183.0  312826.00  145553.38  46.53
1186.7  312211.20  145197.60  46.51
1190.5  311075.33  144622.28  46.49
1194.3  309913.50  144066.92  46.49
1198.0  308845.08  143644.25  46.51
1201.8  307578.88  143136.72  46.54
1205.6  306435.67  142786.57  46.60
1209.3  305481.25  142589.37  46.68
1213.1  304468.73  142395.46  46.77
1216.8  303476.53  142257.53  46.88
1220.6  302435.47  142090.67  46.98
1224.3  301290.17  141857.19  47.08
1228.1  300215.00  141658.80  47.19
1231.9  299149.10  141415.54  47.27
1235.6  297867.98  141047.66  47.35
1239.4  296696.25  140727.84  47.43
1243.1  295609.26  140383.59  47.49
1246.9  294523.08  140010.86  47.54
1250.6  293622.47  139687.86  47.57
1254.3  292690.93  139309.24  47.60
1258.1  291855.32  138940.13  47.61
1261.8  290732.67  138410.86  47.61
1265.6  289401.70  137724.41  47.59
1269.3  287961.95  136928.09  47.55
1273.1  287789.20  136698.44  47.50
1276.8  288131.60  136623.72  47.42
1280.6  288233.37  136395.12  47.32
1284.3  287147.60  135543.66  47.20
1288.0  285804.61  134506.53  47.06
1291.8  284440.31  133362.65  46.89
1295.5  283010.93  132136.61  46.69
1299.2  281768.40  130900.59  46.46
1302.9  280450.53  129506.80  46.18
1306.7  279051.73  127974.82  45.86
1310.4  277735.21  126310.91  45.48
1314.1  276502.05  124581.03  45.06
1317.9  275422.92  122748.63  44.57
1321.6  274164.01  120699.96  44.02
1325.3  272679.75  118396.13  43.42
1329.0  271432.00  116118.40  42.78
1332.8  269500.00  113414.40  42.08
1336.5  267746.80  110783.66  41.38
1340.2  267327.67  108725.50  40.67
1343.9  266708.54  106608.25  39.97
1347.6  265678.20  104377.99  39.29
1351.4  265236.00  102448.36  38.63
