/*** Spectra Vista SIG Data ***/
name= 62_20220722_CECA_17_avg.sig
comm= Averaged Ref/Tar of files: HR.072222.0060_moc.sig,HR.072222.0061_moc.sig,HR.072222.0062_moc.sig
data=
337.3  3051.94  277.90  9.11
338.8  3150.55  269.36  8.55
340.3  3279.50  268.61  8.19
341.8  3452.24  280.45  8.12
343.2  3618.60  284.16  7.85
344.7  3795.85  261.59  6.89
346.2  3942.03  261.44  6.63
347.7  4129.13  246.44  5.97
349.2  4271.40  246.96  5.78
350.6  4498.81  249.73  5.55
352.1  4733.56  257.22  5.43
353.6  5014.15  254.47  5.07
355.1  5270.14  264.91  5.03
356.6  5522.59  257.83  4.67
358.0  5773.90  259.45  4.49
359.5  6025.50  263.68  4.38
361.0  6299.21  279.30  4.43
362.5  6616.15  288.85  4.37
364.0  6939.35  302.04  4.35
365.4  7277.90  303.48  4.17
366.9  7610.69  305.72  4.02
368.4  7937.03  312.75  3.94
369.9  8269.65  331.51  4.01
371.3  8637.45  345.32  4.00
372.8  9000.45  357.54  3.97
374.3  9392.81  365.50  3.89
375.8  9769.38  370.11  3.79
377.2  10154.75  369.43  3.64
378.7  10544.80  373.01  3.54
380.2  10921.40  383.77  3.51
381.7  11404.55  392.76  3.44
383.1  11858.00  406.05  3.42
384.6  12341.06  413.62  3.35
386.1  12796.34  421.59  3.29
387.6  13232.45  424.01  3.20
389.0  13694.80  435.95  3.18
390.5  14164.43  438.96  3.10
392.0  14692.98  451.41  3.07
393.4  15226.36  465.94  3.06
394.9  15738.30  480.24  3.05
396.4  16249.50  493.35  3.04
397.9  16758.75  505.67  3.02
399.3  17271.65  520.01  3.01
400.8  17783.99  521.76  2.93
402.2  18375.68  527.01  2.87
403.7  18947.03  539.28  2.85
405.2  19484.53  558.73  2.87
406.6  20021.60  572.27  2.86
408.1  20588.60  584.59  2.84
409.6  21137.85  597.04  2.82
411.0  21744.98  606.34  2.79
412.5  22345.23  621.97  2.78
414.0  22932.06  646.57  2.82
415.4  23591.63  673.10  2.85
416.9  24199.76  693.90  2.87
418.4  24828.41  719.61  2.90
419.8  25489.10  742.56  2.91
421.3  26149.28  772.42  2.95
422.7  26865.60  805.04  3.00
424.2  27582.19  839.25  3.04
425.7  28272.35  875.85  3.10
427.1  28967.66  915.74  3.16
428.6  29698.00  948.60  3.19
430.0  30365.18  979.29  3.23
431.5  31155.94  1014.90  3.26
432.9  31958.98  1050.89  3.29
434.4  32782.76  1090.61  3.33
435.9  33544.00  1127.47  3.36
437.3  34313.13  1162.33  3.39
438.8  35077.80  1198.22  3.42
440.2  35856.98  1230.72  3.43
441.7  36742.80  1272.11  3.46
443.1  37570.38  1307.33  3.48
444.6  38461.60  1348.43  3.51
446.0  39314.25  1385.73  3.52
447.5  40190.29  1426.92  3.55
448.9  41041.35  1463.72  3.57
450.4  41951.53  1502.20  3.58
451.8  42744.00  1537.47  3.60
453.3  43585.51  1572.49  3.61
454.7  44518.33  1612.62  3.62
456.2  45315.46  1643.43  3.63
457.6  46210.28  1677.96  3.63
459.1  47097.21  1712.71  3.64
460.5  47942.69  1745.88  3.64
462.0  48906.40  1781.69  3.64
463.4  49847.45  1812.05  3.64
464.8  50754.75  1846.30  3.64
466.3  51668.10  1875.61  3.63
467.7  52577.16  1910.45  3.63
469.2  53541.30  1946.10  3.63
470.6  54436.73  1983.86  3.64
472.0  55385.13  2013.66  3.64
473.5  56295.19  2047.18  3.64
474.9  57235.13  2078.60  3.63
476.4  58291.20  2123.52  3.64
477.8  59276.00  2161.47  3.65
479.2  60211.25  2198.20  3.65
480.7  61222.01  2236.87  3.65
482.1  62257.83  2279.25  3.66
483.6  63348.80  2323.56  3.67
485.0  64341.38  2362.32  3.67
486.4  65438.63  2403.66  3.67
487.9  66434.06  2449.20  3.69
489.3  67506.76  2503.25  3.71
490.7  68493.34  2550.37  3.72
492.2  69619.20  2608.76  3.75
493.6  70620.33  2658.49  3.76
495.0  71640.56  2716.35  3.79
496.5  72721.96  2778.47  3.82
497.9  73741.88  2848.91  3.86
499.3  74805.81  2919.35  3.90
500.7  75952.93  3004.23  3.96
502.2  77000.40  3095.20  4.02
503.6  78131.90  3198.37  4.09
505.0  79110.00  3306.99  4.18
506.5  80309.51  3437.65  4.28
507.9  81418.90  3583.70  4.40
509.3  82680.20  3753.28  4.54
510.7  83815.88  3946.80  4.71
512.2  85105.76  4163.01  4.89
513.6  86451.58  4414.06  5.11
515.0  87754.03  4703.73  5.36
516.4  89011.91  5019.84  5.64
517.8  90477.69  5390.10  5.96
519.3  91677.51  5780.13  6.30
520.7  93088.28  6219.47  6.68
522.1  94289.33  6667.01  7.07
523.5  95534.70  7140.89  7.47
524.9  96813.00  7620.42  7.87
526.3  98032.03  8089.57  8.25
527.8  99376.20  8565.48  8.62
529.2  100515.40  9023.44  8.98
530.6  102045.90  9498.47  9.31
532.0  103656.00  9947.47  9.60
533.4  104819.36  10315.19  9.84
534.8  105634.69  10609.98  10.04
536.3  107205.45  10952.96  10.22
537.7  109103.40  11306.40  10.36
539.1  110444.33  11587.14  10.49
540.5  111522.75  11821.85  10.60
541.9  113116.54  12101.56  10.70
543.3  114268.40  12335.86  10.80
544.7  115447.80  12562.80  10.88
546.1  117051.41  12838.47  10.97
547.5  118232.80  13053.23  11.04
549.0  119867.00  13301.20  11.10
550.4  121183.44  13503.67  11.14
551.8  122558.36  13676.89  11.16
553.2  123945.44  13814.43  11.15
554.6  125158.80  13891.63  11.10
556.0  126544.28  13938.00  11.01
557.4  127999.03  13952.52  10.90
558.8  129462.98  13928.34  10.76
560.2  130766.50  13844.40  10.59
561.6  132272.40  13751.27  10.40
563.0  133713.38  13609.12  10.18
564.4  135150.78  13436.48  9.94
565.8  136525.94  13224.58  9.69
567.2  138099.88  13001.77  9.41
568.6  139466.44  12739.70  9.13
570.0  140770.84  12451.50  8.85
571.4  142340.58  12181.52  8.56
572.8  143924.13  11923.03  8.28
574.2  145392.80  11676.37  8.03
575.6  146767.50  11440.50  7.79
577.0  148148.65  11235.21  7.58
578.4  149712.06  11068.63  7.39
579.8  151079.85  10905.84  7.22
581.2  152639.53  10783.27  7.06
582.5  153919.35  10656.36  6.92
583.9  155293.90  10555.49  6.80
585.3  156927.04  10486.05  6.68
586.7  158267.04  10413.65  6.58
588.1  159619.56  10354.75  6.49
589.5  161099.75  10324.30  6.41
590.9  162582.60  10303.57  6.34
592.3  164223.03  10309.41  6.28
593.7  165535.50  10303.93  6.22
595.0  167013.56  10318.14  6.18
596.4  168330.58  10322.01  6.13
597.8  169667.74  10324.02  6.08
599.2  171065.40  10325.92  6.04
600.6  172645.36  10324.21  5.98
602.0  173826.90  10283.55  5.92
603.3  175452.18  10254.64  5.84
604.7  176961.34  10196.08  5.76
606.1  178309.80  10114.48  5.67
607.5  179785.68  10027.86  5.58
608.9  181322.28  9932.41  5.48
610.2  182574.00  9818.55  5.38
611.6  184026.11  9710.44  5.28
613.0  185422.40  9610.21  5.18
614.4  186669.23  9502.12  5.09
615.8  187989.75  9406.80  5.00
617.1  189372.75  9331.56  4.93
618.5  190853.40  9276.64  4.86
619.9  192211.61  9229.62  4.80
621.3  193683.60  9205.80  4.75
622.6  195131.38  9200.83  4.72
624.0  196454.48  9195.84  4.68
625.4  197802.83  9208.54  4.66
626.8  199245.64  9240.75  4.64
628.1  200459.88  9269.88  4.62
629.5  202166.85  9326.71  4.61
630.9  203640.11  9371.63  4.60
632.2  204913.71  9399.62  4.59
633.6  206381.94  9421.03  4.56
635.0  207776.00  9425.60  4.54
636.3  209157.00  9399.67  4.49
637.7  210402.56  9352.38  4.44
639.1  211907.50  9286.67  4.38
640.4  213257.71  9193.36  4.31
641.8  214372.36  9078.87  4.24
643.2  215831.35  8976.45  4.16
644.5  217074.63  8867.07  4.08
645.9  218604.83  8767.44  4.01
647.2  220297.18  8703.29  3.95
648.6  221980.50  8645.40  3.89
650.0  223290.00  8602.56  3.85
651.3  223776.30  8527.42  3.81
652.7  224864.28  8482.40  3.77
654.0  226858.85  8469.95  3.73
655.4  228182.73  8435.86  3.70
656.8  228316.60  8353.60  3.66
658.1  229372.15  8299.12  3.62
659.5  231630.79  8286.53  3.58
660.8  233381.25  8268.00  3.54
662.2  234180.80  8210.35  3.51
663.5  235609.55  8186.64  3.47
664.9  236801.50  8165.21  3.45
666.2  237473.40  8145.92  3.43
667.6  239000.29  8170.95  3.42
668.9  240161.55  8217.12  3.42
670.3  241135.38  8263.83  3.43
671.6  242567.44  8351.45  3.44
673.0  243640.50  8445.85  3.47
674.3  244779.60  8560.07  3.50
675.7  245992.76  8685.78  3.53
677.0  247010.38  8812.94  3.57
678.4  248254.79  8977.39  3.62
679.7  249256.93  9147.72  3.67
681.1  250462.95  9342.14  3.73
682.4  251520.10  9553.09  3.80
683.8  252669.30  9791.77  3.88
685.1  253574.63  10062.45  3.97
686.4  254778.30  10389.60  4.08
687.8  255941.75  10789.77  4.22
689.1  256920.75  11285.20  4.39
690.5  258187.20  11943.84  4.63
691.8  258934.48  12822.74  4.95
693.1  260157.90  14024.88  5.39
694.5  261238.25  15579.20  5.96
695.8  262353.00  17559.97  6.69
697.1  263445.00  20004.83  7.59
698.5  264420.95  22936.08  8.67
699.8  265433.55  26357.42  9.93
701.1  266499.28  30248.45  11.35
702.5  267194.95  34507.51  12.91
703.8  268087.50  39108.00  14.59
705.1  269156.06  43994.86  16.35
706.5  270122.19  49054.95  18.16
707.8  271027.28  54230.04  20.01
709.1  271840.36  59444.03  21.87
710.5  272911.96  64739.52  23.72
711.8  273710.20  69959.56  25.56
713.1  274624.50  75195.60  27.38
714.4  275471.90  80345.41  29.17
715.8  276230.10  85388.19  30.91
717.1  277441.73  90463.86  32.61
718.4  278320.00  95298.56  34.24
719.7  279375.49  100061.70  35.82
721.0  279877.50  104493.00  37.34
722.4  280589.65  108829.31  38.79
723.7  281505.53  113056.72  40.16
725.0  282483.11  117142.83  41.47
726.3  283383.79  120987.72  42.69
727.6  283897.35  124493.64  43.85
729.0  284762.89  127945.95  44.93
730.3  285486.98  131156.54  45.94
731.6  286330.78  134232.96  46.88
732.9  287097.13  137092.85  47.75
734.2  287874.81  139788.73  48.56
735.5  288839.95  142407.80  49.30
736.8  289578.45  144750.12  49.99
738.1  290373.05  146965.88  50.61
739.5  291284.58  149104.95  51.19
740.8  291962.28  150978.12  51.71
742.1  292691.85  152752.74  52.19
743.4  293412.50  154420.00  52.63
744.7  294346.10  156085.00  53.03
746.0  295175.40  157572.22  53.38
747.3  295732.65  158806.34  53.70
748.6  296459.75  160031.10  53.98
749.9  297167.00  161165.33  54.23
751.2  297861.58  162227.63  54.46
752.5  298711.45  163305.01  54.67
753.8  299301.89  164185.58  54.86
755.1  299962.00  165044.53  55.02
756.4  300517.76  165782.84  55.17
757.7  301453.08  166660.97  55.29
759.0  303134.78  167920.42  55.39
760.3  304246.80  168798.08  55.48
761.6  305740.40  169856.96  55.56
762.9  306287.50  170372.53  55.63
764.2  306660.00  170754.03  55.68
765.5  306963.46  171071.85  55.73
766.8  307414.40  171439.79  55.77
768.1  307948.60  171830.88  55.80
769.3  308532.53  172230.01  55.82
770.6  309196.88  172656.47  55.84
771.9  309925.00  173118.47  55.86
773.2  310326.80  173387.68  55.87
774.5  310924.90  173765.97  55.89
775.8  311623.28  174177.07  55.89
777.1  312196.50  174530.77  55.90
778.4  312552.35  174737.42  55.91
779.6  313301.50  175175.37  55.91
780.9  313800.00  175456.00  55.91
782.2  314267.25  175744.43  55.92
783.5  314607.50  175944.33  55.93
784.8  315139.39  176253.24  55.93
786.0  315565.08  176500.05  55.93
787.3  315977.53  176717.44  55.93
788.6  316404.15  176963.97  55.93
789.9  316880.20  177237.39  55.93
791.2  317524.81  177585.87  55.93
792.4  318208.75  177972.67  55.93
793.7  318686.10  178244.67  55.93
795.0  319308.00  178600.51  55.93
796.2  319952.41  178955.68  55.93
797.5  320668.01  179347.68  55.93
798.8  321322.45  179713.25  55.93
800.0  321984.71  180096.91  55.93
801.3  322499.35  180370.04  55.93
802.6  323088.41  180700.17  55.93
803.8  323701.31  181057.12  55.93
805.1  324214.63  181327.42  55.93
806.4  324669.15  181584.60  55.93
807.7  325209.94  181894.41  55.93
808.9  325719.38  182208.10  55.94
810.2  326267.73  182494.25  55.93
811.4  326754.85  182781.15  55.94
812.7  327335.94  183115.83  55.94
814.0  328150.68  183561.92  55.94
815.2  328760.38  183905.97  55.94
816.5  329174.29  184138.63  55.94
817.7  329645.05  184414.97  55.94
819.0  330111.38  184691.47  55.95
820.2  330264.00  184805.87  55.96
821.5  330923.48  185178.43  55.96
822.7  331254.54  185386.03  55.96
824.0  331581.60  185558.40  55.96
825.2  332056.46  185828.04  55.96
826.5  332366.89  186005.06  55.96
827.7  332861.28  186311.39  55.97
829.0  333254.64  186519.30  55.97
830.2  333564.98  186690.23  55.97
831.5  333999.00  186945.83  55.97
832.7  334297.16  187091.66  55.97
834.0  334634.89  187272.09  55.96
835.2  334978.19  187465.23  55.96
836.4  335251.40  187621.28  55.96
837.7  335606.40  187857.20  55.98
838.9  336012.58  188092.14  55.98
840.1  336402.11  188318.70  55.98
841.4  336848.00  188559.01  55.98
842.6  337205.20  188743.97  55.97
843.8  337536.00  188934.21  55.97
845.1  337998.25  189223.63  55.98
846.3  338363.00  189451.23  55.99
847.5  338725.80  189691.32  56.00
848.8  339096.60  189907.28  56.00
850.0  339469.03  190096.81  56.00
851.2  339996.83  190383.84  56.00
852.5  340372.05  190593.77  56.00
853.7  340833.38  190843.20  55.99
854.9  341274.30  191108.32  56.00
856.1  341645.85  191343.10  56.01
857.4  341838.00  191447.37  56.01
858.6  342323.23  191679.95  55.99
859.8  342712.50  191891.25  55.99
861.0  343137.60  192142.08  56.00
862.2  343612.09  192376.33  55.99
863.5  343969.93  192586.77  55.99
864.7  344450.70  192874.00  55.99
865.9  344869.90  193071.36  55.98
867.1  345205.33  193225.01  55.97
868.3  345582.45  193462.30  55.98
869.5  346023.10  193704.35  55.98
870.8  346545.00  193983.60  55.98
872.0  347034.60  194250.71  55.97
873.2  347454.90  194447.62  55.96
874.4  347884.88  194678.64  55.96
875.6  348257.76  194874.37  55.96
876.8  348770.93  195108.48  55.94
878.0  349257.88  195383.01  55.94
879.2  349692.15  195638.06  55.95
880.4  350263.31  195872.05  55.92
881.6  350732.53  196101.23  55.91
882.8  351131.20  196309.33  55.91
884.0  351710.94  196606.05  55.90
885.2  352203.20  196892.35  55.90
886.5  352823.35  197187.77  55.89
887.7  353258.10  197442.83  55.89
888.8  353918.81  197738.16  55.87
890.0  354545.75  198003.25  55.85
891.2  355076.15  198281.69  55.84
892.4  355678.58  198602.25  55.84
893.6  356254.13  198904.94  55.83
894.8  357178.50  199383.93  55.82
896.0  358044.38  199810.10  55.81
897.2  358821.13  200196.97  55.79
898.4  359584.50  200576.20  55.78
899.6  360134.63  200838.85  55.77
900.8  360553.50  201010.33  55.75
902.0  360849.30  201137.30  55.74
903.2  361225.46  201321.11  55.73
904.3  361568.40  201497.68  55.73
905.5  362206.89  201806.04  55.72
906.7  362802.75  202075.40  55.70
907.9  363355.83  202341.58  55.69
909.1  363754.13  202472.28  55.66
910.2  363979.24  202601.49  55.66
911.4  364332.15  202721.22  55.64
912.6  364589.23  202826.43  55.63
913.8  364869.23  202959.79  55.63
915.0  365291.33  203168.70  55.62
916.2  365483.63  203239.40  55.61
917.3  365575.61  203247.45  55.60
918.5  365906.25  203354.97  55.58
919.7  366235.20  203481.54  55.56
920.8  366417.36  203510.51  55.54
922.0  366520.00  203526.40  55.53
923.2  366775.50  203603.40  55.51
924.4  367108.88  203706.45  55.49
925.5  367515.85  203771.72  55.45
926.7  368181.75  204070.83  55.43
927.9  369019.20  204464.40  55.41
929.0  370450.13  205166.34  55.38
930.2  372548.20  206217.39  55.35
931.4  374788.35  207466.65  55.36
932.5  377442.05  208754.21  55.31
933.7  378874.85  209416.78  55.27
934.9  379596.88  209703.67  55.24
936.0  379292.88  209423.50  55.21
937.2  377474.18  208334.64  55.19
938.3  376003.93  207399.72  55.16
939.5  374608.80  206559.36  55.14
940.7  374913.90  206600.88  55.11
941.8  376374.34  207235.40  55.06
943.0  377859.00  207882.20  55.02
944.2  378816.10  208221.00  54.97
945.3  378558.38  207875.20  54.91
946.5  377833.28  207365.76  54.88
947.6  378062.75  207430.75  54.87
948.8  378154.73  207192.83  54.79
949.9  378415.80  207085.76  54.72
951.1  378190.15  206701.17  54.66
952.2  378012.00  206393.60  54.60
953.4  377816.75  205951.23  54.51
954.5  377921.70  205770.24  54.45
955.7  377955.90  205574.88  54.39
956.8  377838.60  205232.75  54.32
958.0  377657.50  204872.73  54.25
959.1  377637.93  204597.14  54.18
960.3  377273.99  204217.80  54.13
961.4  377273.68  204121.05  54.10
962.6  377606.25  204139.13  54.06
963.7  377555.18  203946.85  54.02
964.9  377667.11  203899.24  53.99
966.0  377532.90  203819.76  53.99
967.2  377734.50  203747.70  53.94
968.3  377447.85  203584.86  53.94
969.5  377426.25  203381.49  53.89
970.6  377507.94  203416.39  53.88
971.8  377874.35  203529.15  53.86
972.9  377792.25  203445.81  53.85
974.0  378206.95  203535.41  53.82
975.2  378307.63  203446.95  53.78
976.3  378423.14  203450.99  53.76
977.5  378364.09  203407.73  53.76
978.6  378494.60  203357.49  53.73
979.7  378429.98  203358.33  53.74
980.9  378326.08  203276.99  53.73
982.0  378680.55  203242.83  53.67
983.2  378595.43  203075.66  53.64
984.3  378484.80  203091.17  53.66
985.4  378677.34  203118.40  53.64
986.6  378608.06  203070.67  53.64
987.7  379594.95  203407.24  53.59
988.9  379514.70  203418.96  53.60
990.0  380587.10  203561.95  53.49
993.1  324996.58  173863.62  53.50
996.9  325758.18  174599.96  53.60
1000.7  326894.40  175509.36  53.69
1004.5  327534.00  176122.74  53.77
1008.4  327337.50  176339.16  53.87
1012.2  327462.50  176626.36  53.94
1016.0  327580.20  176939.48  54.01
1019.8  327846.75  177280.95  54.07
1023.7  328005.71  177496.54  54.11
1027.5  327937.78  177612.25  54.16
1031.3  328318.63  177940.80  54.20
1035.1  328370.70  178095.86  54.24
1038.9  328462.02  178232.01  54.26
1042.7  328380.83  178277.77  54.29
1046.5  328260.83  178281.45  54.31
1050.3  328348.34  178332.67  54.31
1054.2  328118.58  178247.83  54.32
1058.0  327682.95  178012.68  54.32
1061.8  327568.98  177966.27  54.33
1065.6  327423.40  177844.53  54.32
1069.4  327554.20  177853.95  54.30
1073.2  327279.71  177653.42  54.28
1077.0  326942.23  177361.96  54.25
1080.8  326461.46  176947.47  54.20
1084.6  325433.50  176245.18  54.16
1088.4  324743.07  175784.35  54.13
1092.2  324002.25  175240.93  54.09
1096.0  323471.10  174823.47  54.05
1099.8  323115.87  174431.81  53.98
1103.6  322555.88  173943.48  53.93
1107.4  321802.36  173311.14  53.86
1111.2  321624.70  173010.24  53.79
1114.9  321076.58  172470.42  53.72
1118.7  320547.15  171871.43  53.62
1122.5  319928.27  171144.50  53.49
1126.3  318940.30  170156.33  53.35
1130.1  318521.03  169287.46  53.15
1133.9  317119.60  167665.50  52.87
1137.7  315878.70  165930.21  52.53
1141.4  314309.23  163803.99  52.12
1145.2  313705.28  162023.60  51.65
1149.0  312746.88  160150.63  51.21
1152.8  311318.55  158214.23  50.82
1156.6  309887.78  156582.80  50.53
1160.3  308352.00  155208.43  50.33
1164.1  306212.40  153774.35  50.22
1167.9  304606.25  152765.18  50.15
1171.7  303486.75  152084.25  50.11
1175.4  302477.47  151506.54  50.09
1179.2  301620.30  150967.43  50.05
1183.0  301371.33  150709.34  50.01
1186.7  300875.63  150314.93  49.96
1190.5  299884.07  149704.38  49.92
1194.3  298811.43  149078.31  49.89
1198.0  297774.95  148515.75  49.88
1201.8  296474.05  147860.53  49.87
1205.6  295380.67  147387.24  49.90
1209.3  294516.95  147127.95  49.96
1213.1  293631.23  146888.38  50.02
1216.8  292728.79  146704.76  50.12
1220.6  291737.60  146484.80  50.21
1224.3  290646.00  146192.32  50.30
1228.1  289583.80  145932.34  50.39
1231.9  288514.13  145592.89  50.46
1235.6  287269.50  145138.06  50.52
1239.4  286135.88  144729.55  50.58
1243.1  285070.83  144290.51  50.62
1246.9  283990.11  143825.92  50.64
1250.6  283149.40  143438.49  50.66
1254.3  282217.47  142989.11  50.67
1258.1  281391.02  142554.07  50.66
1261.8  280287.60  141969.07  50.65
1265.6  279005.78  141259.27  50.63
1269.3  277654.63  140482.34  50.60
1273.1  277541.86  140304.83  50.55
1276.8  277848.80  140297.31  50.49
1280.6  277840.53  140101.00  50.42
1284.3  276700.80  139306.29  50.35
1288.0  275409.94  138392.92  50.25
1291.8  274191.82  137443.94  50.13
1295.5  272895.33  136444.21  50.00
1299.2  271777.97  135468.55  49.85
1302.9  270508.03  134347.61  49.66
1306.7  269152.10  133121.92  49.46
1310.4  267858.47  131798.48  49.20
1314.1  266656.87  130456.83  48.92
1317.9  265613.54  129060.09  48.59
1321.6  264395.77  127479.79  48.22
1325.3  262966.20  125686.73  47.80
1329.0  261772.93  123954.38  47.35
1332.8  259921.20  121785.40  46.85
1336.5  258312.00  119716.84  46.35
1340.2  257985.00  118241.50  45.83
1343.9  257629.17  116736.99  45.31
1347.6  257118.90  115164.30  44.79
1351.4  257393.00  113980.36  44.28
1355.1  257816.53  112891.59  43.79
