/*** Spectra Vista SIG Data ***/
name= 50_20220722_QUPA_22_avg.sig
comm= Averaged Ref/Tar of files: HR.072222.0027_moc.sig,HR.072222.0028_moc.sig,HR.072222.0029_moc.sig
data=
337.3  3242.17  264.66  8.16
338.8  3367.00  256.53  7.62
340.3  3498.13  254.33  7.27
341.8  3688.48  248.22  6.73
343.2  3877.60  241.03  6.22
344.7  4037.53  243.71  6.04
346.2  4248.40  241.21  5.68
347.7  4430.62  232.20  5.24
349.2  4611.60  226.80  4.92
350.6  4872.18  227.35  4.67
352.1  5144.40  221.16  4.30
353.6  5390.07  224.73  4.17
355.1  5679.85  227.71  4.01
356.6  5965.05  240.35  4.03
358.0  6231.13  240.01  3.85
359.5  6509.60  247.20  3.80
361.0  6802.95  245.10  3.60
362.5  7143.10  248.14  3.47
364.0  7512.85  253.98  3.38
365.4  7849.27  256.91  3.27
366.9  8213.83  260.46  3.17
368.4  8546.17  272.75  3.19
369.9  8864.20  285.69  3.22
371.3  9273.80  300.06  3.24
372.8  9664.20  308.49  3.19
374.3  10069.17  307.14  3.05
375.8  10474.57  310.57  2.96
377.2  10885.53  317.68  2.92
378.7  11280.07  322.80  2.86
380.2  11656.67  322.80  2.77
381.7  12143.23  337.17  2.78
383.1  12594.63  336.23  2.67
384.6  13091.87  344.25  2.63
386.1  13548.53  350.04  2.58
387.6  13978.07  364.47  2.61
389.0  14454.13  367.54  2.54
390.5  14921.10  374.23  2.51
392.0  15482.07  380.38  2.46
393.4  16010.23  395.37  2.47
394.9  16512.60  407.66  2.47
396.4  17043.00  418.93  2.46
397.9  17561.67  427.08  2.43
399.3  18082.05  436.55  2.41
400.8  18643.90  443.90  2.38
402.2  19263.57  458.27  2.38
403.7  19821.75  465.45  2.35
405.2  20407.85  484.78  2.38
406.6  20941.87  494.93  2.36
408.1  21515.20  503.66  2.34
409.6  22096.33  518.44  2.35
411.0  22730.63  530.70  2.33
412.5  23365.65  545.42  2.33
414.0  24001.75  554.97  2.31
415.4  24671.50  569.75  2.31
416.9  25314.50  591.10  2.34
418.4  25970.70  606.49  2.34
419.8  26644.80  624.00  2.34
421.3  27343.55  641.70  2.35
422.7  28095.20  659.54  2.35
424.2  28845.00  676.61  2.35
425.7  29568.20  695.47  2.35
427.1  30278.50  715.89  2.36
428.6  31041.33  732.19  2.36
430.0  31746.10  750.08  2.36
431.5  32576.30  773.26  2.37
432.9  33421.53  793.89  2.38
434.4  34274.95  814.48  2.38
435.9  35056.00  833.33  2.38
437.3  35850.83  855.12  2.39
438.8  36634.40  873.97  2.39
440.2  37469.48  895.77  2.39
441.7  38386.53  921.41  2.40
443.1  39255.33  945.17  2.41
444.6  40173.33  971.90  2.42
446.0  41061.55  997.22  2.43
447.5  41963.17  1025.38  2.44
448.9  42853.80  1049.20  2.45
450.4  43805.53  1079.17  2.46
451.8  44624.67  1104.38  2.47
453.3  45501.00  1131.92  2.49
454.7  46472.62  1164.42  2.51
456.2  47301.42  1187.73  2.51
457.6  48223.65  1214.98  2.52
459.1  49142.60  1242.40  2.53
460.5  50031.42  1264.89  2.53
462.0  51025.32  1290.67  2.53
463.4  52005.20  1315.20  2.53
464.8  52947.00  1346.53  2.54
466.3  53893.40  1371.78  2.55
467.7  54836.20  1400.80  2.55
469.2  55849.60  1427.61  2.56
470.6  56771.37  1451.83  2.56
472.0  57754.42  1474.52  2.55
473.5  58703.50  1508.01  2.57
474.9  59679.00  1537.64  2.58
476.4  60768.00  1571.66  2.59
477.8  61799.00  1606.05  2.60
479.2  62765.67  1633.67  2.60
480.7  63815.45  1668.07  2.61
482.1  64880.50  1699.60  2.62
483.6  66017.23  1735.38  2.63
485.0  67048.20  1774.22  2.65
486.4  68181.30  1812.51  2.66
487.9  69205.50  1853.90  2.68
489.3  70326.60  1900.23  2.70
490.7  71347.53  1945.10  2.73
492.2  72520.00  1995.00  2.75
493.6  73562.53  2052.40  2.79
495.0  74616.75  2112.96  2.83
496.5  75732.78  2178.89  2.88
497.9  76789.38  2248.77  2.93
499.3  77894.90  2328.43  2.99
500.7  79080.70  2426.32  3.07
502.2  80163.73  2529.28  3.16
503.6  81341.47  2653.03  3.26
505.0  82352.53  2790.48  3.39
506.5  83577.25  2956.41  3.54
507.9  84729.82  3142.90  3.71
509.3  86057.07  3361.72  3.91
510.7  87252.75  3613.07  4.14
512.2  88567.70  3898.60  4.40
513.6  89964.93  4232.57  4.70
515.0  91305.53  4611.61  5.05
516.4  92600.55  5026.05  5.43
517.8  94119.58  5502.02  5.85
519.3  95362.82  5995.95  6.29
520.7  96823.23  6537.93  6.75
522.1  98048.60  7093.98  7.24
523.5  99357.20  7667.51  7.72
524.9  100709.70  8237.14  8.18
526.3  102018.93  8786.30  8.61
527.8  103435.20  9332.87  9.02
529.2  104528.47  9845.35  9.42
530.6  105985.93  10366.84  9.78
532.0  107594.67  10852.00  10.09
533.4  108844.35  11260.78  10.35
534.8  109741.05  11585.10  10.56
536.3  111361.40  11954.00  10.73
537.7  113248.80  12332.40  10.89
539.1  114606.07  12632.54  11.02
540.5  115776.40  12892.35  11.14
541.9  117451.70  13202.58  11.24
543.3  118674.62  13463.38  11.34
544.7  119920.40  13727.77  11.45
546.1  121604.63  14043.28  11.55
547.5  122804.27  14294.40  11.64
549.0  124490.67  14586.00  11.72
550.4  125877.92  14826.43  11.78
551.8  127331.45  15035.71  11.81
553.2  128786.63  15206.71  11.81
554.6  130048.53  15302.86  11.77
556.0  131479.50  15367.29  11.69
557.4  132979.12  15389.17  11.57
558.8  134515.50  15368.27  11.42
560.2  135877.92  15288.80  11.25
561.6  137450.15  15190.71  11.05
563.0  138926.43  15047.09  10.83
564.4  140413.47  14865.45  10.59
565.8  141836.67  14636.19  10.32
567.2  143469.50  14394.76  10.03
568.6  144891.25  14095.04  9.73
570.0  146238.22  13762.65  9.41
571.4  147871.10  13444.17  9.09
572.8  149505.17  13134.92  8.79
574.2  151035.73  12827.73  8.49
575.6  152467.50  12538.93  8.22
577.0  153906.00  12278.26  7.98
578.4  155519.00  12064.00  7.76
579.8  156932.10  11856.41  7.56
581.2  158546.63  11691.85  7.37
582.5  159876.60  11526.17  7.21
583.9  161306.00  11390.93  7.06
585.3  162998.85  11293.54  6.93
586.7  164365.72  11194.70  6.81
588.1  165773.00  11116.89  6.71
589.5  167310.50  11067.00  6.61
590.9  168846.67  11041.91  6.54
592.3  170546.13  11041.61  6.47
593.7  171898.35  11040.53  6.42
595.0  173428.20  11055.15  6.37
596.4  174781.83  11065.47  6.33
597.8  176181.27  11072.66  6.28
599.2  177628.00  11075.43  6.24
600.6  179265.67  11072.44  6.18
602.0  180476.75  11020.01  6.11
603.3  182157.17  10963.89  6.02
604.7  183728.18  10874.88  5.92
606.1  185122.40  10748.23  5.81
607.5  186659.98  10609.53  5.68
608.9  188241.90  10458.55  5.56
610.2  189538.65  10277.55  5.42
611.6  191028.65  10106.63  5.29
613.0  192474.00  9934.72  5.16
614.4  193776.90  9760.97  5.04
615.8  195146.25  9610.72  4.92
617.1  196588.00  9482.20  4.82
618.5  198112.80  9383.20  4.74
619.9  199517.40  9298.99  4.66
621.3  201040.20  9243.13  4.60
622.6  202509.83  9206.64  4.55
624.0  203867.90  9186.13  4.51
625.4  205238.00  9187.04  4.48
626.8  206717.12  9209.20  4.45
628.1  207950.42  9232.80  4.44
629.5  209691.23  9293.35  4.43
630.9  211197.25  9342.87  4.42
632.2  212493.05  9370.20  4.41
633.6  214016.83  9400.81  4.39
635.0  215458.67  9399.39  4.36
636.3  216884.33  9371.66  4.32
637.7  218172.08  9301.42  4.26
639.1  219695.00  9208.33  4.19
640.4  221067.12  9076.53  4.11
641.8  222206.45  8917.59  4.01
643.2  223690.25  8760.15  3.92
644.5  224973.83  8580.98  3.81
645.9  226541.40  8427.26  3.72
647.2  228187.87  8289.45  3.63
648.6  229891.50  8177.14  3.56
650.0  231249.60  8072.23  3.49
651.3  231704.18  7953.97  3.43
652.7  232774.27  7856.76  3.38
654.0  234663.93  7788.18  3.32
655.4  236055.28  7700.12  3.26
656.8  236367.53  7568.83  3.20
658.1  237623.60  7449.92  3.14
659.5  239866.90  7359.45  3.07
660.8  241485.00  7260.00  3.01
662.2  242353.07  7142.40  2.95
663.5  243856.73  7056.36  2.89
664.9  245089.00  6994.13  2.85
666.2  245813.20  6939.09  2.82
667.6  247450.30  6944.14  2.81
668.9  248555.87  6948.43  2.80
670.3  249690.08  6974.61  2.79
671.6  251118.75  7042.07  2.80
673.0  252210.25  7126.36  2.83
674.3  253413.33  7219.33  2.85
675.7  254657.20  7333.10  2.88
677.0  255695.57  7463.33  2.92
678.4  256973.02  7620.65  2.97
679.7  258000.85  7788.46  3.02
681.1  259219.37  7989.05  3.08
682.4  260323.27  8214.88  3.16
683.8  261501.93  8482.19  3.24
685.1  262432.00  8797.32  3.35
686.4  263676.80  9199.26  3.49
687.8  264878.83  9711.60  3.67
689.1  265857.83  10370.62  3.90
690.5  267157.00  11268.66  4.22
691.8  267916.98  12461.85  4.65
693.1  269187.70  14058.10  5.22
694.5  270300.33  16081.00  5.95
695.8  271453.00  18551.00  6.83
697.1  272590.50  21480.33  7.88
698.5  273595.53  24861.90  9.09
699.8  274624.48  28646.08  10.43
701.1  275728.00  32792.37  11.89
702.5  276463.00  37162.40  13.44
703.8  277380.00  41740.71  15.05
705.1  278458.70  46456.06  16.68
706.5  279463.75  51211.05  18.32
707.8  280388.20  55985.68  19.97
709.1  281235.47  60700.61  21.58
710.5  282336.83  65425.01  23.17
711.8  283150.53  70011.38  24.73
713.1  284087.13  74564.83  26.25
714.4  284949.40  79003.59  27.73
715.8  285722.47  83325.54  29.16
717.1  286974.00  87669.47  30.55
718.4  287869.87  91773.87  31.88
719.7  288938.60  95803.43  33.16
721.0  289455.00  99514.28  34.38
722.4  290188.43  103150.14  35.55
723.7  291112.90  106692.29  36.65
725.0  292092.00  110105.87  37.70
726.3  292996.92  113320.69  38.68
727.6  293529.50  116229.25  39.60
729.0  294402.85  119103.02  40.46
730.3  295134.45  121764.97  41.26
731.6  295980.47  124322.11  42.00
732.9  296740.73  126695.80  42.70
734.2  297501.42  128934.27  43.34
735.5  298469.52  131126.11  43.93
736.8  299220.40  133083.40  44.48
738.1  300024.67  134937.12  44.98
739.5  300930.40  136722.29  45.43
740.8  301597.27  138286.08  45.85
742.1  302337.58  139792.35  46.24
743.4  303050.00  141180.95  46.59
744.7  303979.73  142586.41  46.91
746.0  304825.30  143838.31  47.19
747.3  305347.07  144860.45  47.44
748.6  306030.17  145884.79  47.67
749.9  306748.00  146857.90  47.88
751.2  307471.70  147762.44  48.06
752.5  308343.37  148701.35  48.23
753.8  308953.98  149456.93  48.38
755.1  309625.33  150188.38  48.51
756.4  310176.13  150805.90  48.62
757.7  311126.90  151570.25  48.72
759.0  312846.77  152669.46  48.80
760.3  313966.40  153456.91  48.88
761.6  315458.27  154399.07  48.94
762.9  315971.00  154841.74  49.01
764.2  316361.93  155172.01  49.05
765.5  316660.93  155445.23  49.09
766.8  317079.47  155767.92  49.13
768.1  317602.53  156114.76  49.15
769.3  318177.77  156477.93  49.18
770.6  318816.33  156874.03  49.21
771.9  319523.28  157291.63  49.23
773.2  319916.53  157530.74  49.24
774.5  320491.60  157874.73  49.26
775.8  321177.43  158240.88  49.27
777.1  321738.27  158559.34  49.28
778.4  322066.43  158766.09  49.30
779.6  322813.50  159170.30  49.31
780.9  323260.00  159442.86  49.32
782.2  323735.50  159691.19  49.33
783.5  324052.33  159875.19  49.34
784.8  324566.70  160157.89  49.35
786.0  324956.80  160366.13  49.35
787.3  325346.58  160597.44  49.36
788.6  325739.48  160834.46  49.38
789.9  326207.47  161082.80  49.38
791.2  326835.83  161410.68  49.39
792.4  327485.72  161747.08  49.39
793.7  327943.47  161990.00  49.40
795.0  328553.50  162308.46  49.40
796.2  329176.05  162637.20  49.41
797.5  329887.50  163005.76  49.41
798.8  330527.92  163346.71  49.42
800.0  331182.92  163683.70  49.42
801.3  331638.67  163924.94  49.43
802.6  332226.60  164220.17  49.43
803.8  332864.95  164540.09  49.43
805.1  333357.50  164790.33  49.43
806.4  333781.40  165034.69  49.44
807.7  334322.10  165306.92  49.45
808.9  334892.10  165585.72  49.44
810.2  335410.37  165853.87  49.45
811.4  335904.33  166117.11  49.45
812.7  336510.42  166419.34  49.45
814.0  337320.27  166818.18  49.45
815.2  337924.50  167127.24  49.46
816.5  338340.92  167344.58  49.46
817.7  338800.67  167596.55  49.47
819.0  339286.57  167853.56  49.47
820.2  339504.00  167937.52  49.47
821.5  340143.70  168283.72  49.47
822.7  340528.37  168461.81  49.47
824.0  340853.40  168636.60  49.47
825.2  341332.65  168872.08  49.47
826.5  341609.15  169032.89  49.48
827.7  342162.12  169304.13  49.48
829.0  342569.23  169498.04  49.48
830.2  342853.33  169651.18  49.48
831.5  343360.33  169898.65  49.48
832.7  343675.85  170036.15  49.48
834.0  343971.25  170214.66  49.49
835.2  344283.87  170396.10  49.49
836.4  344605.43  170547.25  49.49
837.7  344964.93  170760.97  49.50
838.9  345356.97  170984.27  49.51
840.1  345748.95  171185.72  49.51
841.4  346179.60  171409.90  49.51
842.6  346530.27  171588.93  49.52
843.8  346833.87  171787.30  49.53
845.1  347276.63  172041.52  49.54
846.3  347698.53  172252.33  49.54
847.5  348104.40  172468.80  49.55
848.8  348469.60  172663.32  49.55
850.0  348835.20  172866.27  49.56
851.2  349313.40  173133.90  49.56
852.5  349706.27  173340.55  49.57
853.7  350175.00  173577.43  49.57
854.9  350594.40  173798.93  49.57
856.1  351041.17  174025.37  49.57
857.4  351197.85  174129.38  49.58
858.6  351625.30  174384.08  49.59
859.8  352008.75  174573.93  49.59
861.0  352497.60  174811.37  49.59
862.2  352958.45  175047.57  49.59
863.5  353331.12  175232.48  49.59
864.7  353852.40  175491.48  49.59
865.9  354228.40  175691.64  49.60
867.1  354486.43  175841.43  49.60
868.3  354938.70  176047.20  49.60
869.5  355454.13  176286.11  49.59
870.8  355929.00  176540.14  49.60
872.0  356416.70  176779.68  49.60
873.2  356780.80  176983.70  49.61
874.4  357230.25  177204.86  49.61
875.6  357551.55  177381.61  49.61
876.8  358032.23  177606.66  49.61
878.0  358552.37  177864.80  49.61
879.2  359031.60  178091.07  49.60
880.4  359531.75  178336.29  49.60
881.6  360007.58  178557.96  49.60
882.8  360433.07  178740.95  49.59
884.0  361075.47  179037.10  49.58
885.2  361499.40  179275.50  49.59
886.5  362093.37  179561.62  49.59
887.7  362560.68  179741.34  49.58
888.8  363152.80  180046.46  49.58
890.0  363759.93  180330.33  49.57
891.2  364368.07  180617.90  49.57
892.4  365022.70  180900.45  49.56
893.6  365487.67  181156.35  49.57
894.8  366367.00  181563.64  49.56
896.0  367225.00  181958.33  49.55
897.2  368006.17  182347.90  49.55
898.4  368757.40  182698.06  49.54
899.6  369310.25  182948.61  49.54
900.8  369690.33  183118.21  49.53
902.0  369975.70  183241.00  49.53
903.2  370359.65  183386.58  49.52
904.3  370670.00  183573.40  49.52
905.5  371316.55  183843.26  49.51
906.7  371901.67  184118.62  49.51
907.9  372471.87  184349.67  49.49
909.1  372745.80  184515.62  49.50
910.2  372959.80  184618.94  49.50
911.4  373206.60  184753.03  49.50
912.6  373482.63  184837.04  49.49
913.8  373700.35  184954.86  49.49
915.0  374266.90  185128.30  49.46
916.2  374504.00  185211.93  49.46
917.3  374633.10  185248.71  49.45
918.5  374861.47  185373.91  49.45
919.7  375180.60  185472.97  49.44
920.8  375307.87  185512.87  49.43
922.0  375503.33  185518.67  49.41
923.2  375648.00  185601.00  49.41
924.4  375918.75  185672.89  49.39
925.5  376191.07  185797.28  49.39
926.7  376914.08  186050.22  49.36
927.9  377791.60  186451.37  49.35
929.0  379156.50  187076.70  49.34
930.2  381354.07  188096.74  49.32
931.4  383675.40  189138.02  49.30
932.5  386261.03  190305.16  49.27
933.7  387690.83  190901.70  49.24
934.9  388392.08  191197.50  49.23
936.0  388100.92  190978.98  49.21
937.2  386160.30  189999.63  49.20
938.3  384556.43  189150.12  49.19
939.5  383181.60  188359.89  49.16
940.7  383451.60  188369.66  49.12
941.8  384999.40  188991.20  49.09
943.0  386343.50  189578.22  49.07
944.2  387339.77  189903.82  49.03
945.3  387049.00  189625.43  48.99
946.5  386308.80  189169.07  48.97
947.6  386612.47  189119.91  48.92
948.8  386627.15  188924.92  48.86
949.9  386640.80  188902.40  48.86
951.1  386478.52  188608.09  48.80
952.2  386240.00  188340.57  48.76
953.4  386175.83  188005.36  48.68
954.5  386100.00  187754.91  48.63
955.7  386274.00  187537.20  48.55
956.8  386118.80  187290.24  48.51
958.0  385705.33  187009.29  48.49
959.1  385538.30  186728.32  48.43
960.3  385131.47  186454.97  48.41
961.4  385131.10  186277.38  48.37
962.6  385358.17  186228.67  48.33
963.7  385487.35  186073.17  48.27
964.9  385407.05  186021.48  48.27
966.0  385076.70  185925.28  48.28
967.2  385306.80  185886.13  48.24
968.3  384955.20  185706.77  48.24
969.5  385067.97  185557.92  48.19
970.6  384966.67  185553.93  48.20
971.8  385260.17  185586.47  48.17
972.9  385077.50  185431.92  48.15
974.0  385213.80  185545.73  48.17
975.2  385243.83  185442.05  48.14
976.3  385055.85  185442.79  48.16
977.5  384982.15  185233.72  48.11
978.6  384896.20  185151.04  48.10
979.7  385084.00  185139.65  48.08
980.9  384789.33  185093.97  48.10
982.0  384599.93  184940.73  48.09
983.2  384215.60  184760.21  48.09
984.3  384285.33  184684.84  48.06
985.4  384559.52  184482.77  47.97
986.6  384442.25  184646.92  48.03
987.7  385247.57  184983.43  48.02
988.9  384685.20  184890.51  48.06
990.0  385681.00  185251.63  48.03
993.1  337429.87  161160.54  47.76
996.9  337820.73  161675.80  47.86
1000.7  338623.25  162429.26  47.97
1004.5  339050.67  162944.38  48.06
1008.4  338768.33  163134.32  48.16
1012.2  338710.13  163344.80  48.23
1016.0  338661.60  163567.97  48.30
1019.8  338680.65  163807.88  48.37
1023.7  338553.49  163924.26  48.42
1027.5  338164.53  163945.83  48.48
1031.3  338307.20  164200.99  48.54
1035.1  338165.28  164315.18  48.59
1038.9  338142.93  164434.94  48.63
1042.7  338008.58  164486.80  48.66
1046.5  337910.83  164500.33  48.68
1050.3  337926.88  164572.52  48.70
1054.2  337610.00  164516.42  48.73
1058.0  337134.76  164327.75  48.74
1061.8  337016.36  164315.77  48.76
1065.6  336793.80  164200.82  48.75
1069.4  336739.07  164192.67  48.76
1073.2  336325.50  163985.17  48.76
1077.0  335859.65  163704.88  48.74
1080.8  335372.92  163362.35  48.71
1084.6  334407.85  162785.82  48.68
1088.4  333830.13  162439.86  48.66
1092.2  333099.00  161990.68  48.63
1096.0  332571.98  161632.37  48.60
1099.8  332141.77  161298.43  48.56
1103.6  331493.20  160871.70  48.53
1107.4  330657.27  160300.41  48.48
1111.2  330433.30  160034.77  48.43
1114.9  329822.50  159549.33  48.37
1118.7  329286.38  159040.67  48.30
1122.5  328659.93  158425.06  48.20
1126.3  327630.92  157546.95  48.09
1130.1  327203.88  156777.81  47.91
1133.9  325770.20  155300.10  47.67
1137.7  324488.20  153708.03  47.37
1141.4  322815.68  151781.75  47.02
1145.2  322124.88  150167.43  46.62
1149.0  321101.67  148473.75  46.24
1152.8  319591.90  146710.80  45.91
1156.6  318104.97  145227.13  45.65
1160.3  316576.67  143969.90  45.48
1164.1  314379.03  142644.32  45.37
1167.9  312752.08  141713.54  45.31
1171.7  311566.50  141048.00  45.27
1175.4  310491.67  140466.10  45.24
1179.2  309491.10  139907.48  45.21
1183.0  309205.00  139629.95  45.16
1186.7  308723.33  139285.73  45.12
1190.5  307794.73  138769.04  45.08
1194.3  306734.90  138239.48  45.07
1198.0  305649.58  137748.88  45.07
1201.8  304267.70  137151.51  45.08
1205.6  303130.33  136708.71  45.10
1209.3  302266.82  136471.88  45.15
1213.1  301455.90  136264.53  45.20
1216.8  300621.66  136124.96  45.28
1220.6  299663.47  135927.73  45.36
1224.3  298578.92  135660.05  45.44
1228.1  297460.20  135423.08  45.53
1231.9  296295.35  135099.24  45.60
1235.6  294950.10  134674.05  45.66
1239.4  293734.88  134304.88  45.72
1243.1  292593.03  133912.35  45.77
1246.9  291485.08  133500.85  45.80
1250.6  290573.80  133149.87  45.82
1254.3  289577.20  132750.69  45.84
1258.1  288649.08  132356.53  45.85
1261.8  287448.93  131820.93  45.86
1265.6  286154.05  131182.48  45.84
1269.3  284864.68  130513.51  45.82
1273.1  284832.92  130401.51  45.78
1276.8  285048.40  130394.06  45.74
1280.6  284861.83  130178.13  45.70
1284.3  283556.00  129414.74  45.64
1288.0  282198.96  128580.63  45.56
1291.8  281062.04  127773.19  45.46
1295.5  279816.53  126900.19  45.35
1299.2  278698.09  126041.73  45.23
1302.9  277375.69  125016.06  45.07
1306.7  275963.92  123896.15  44.90
1310.4  274622.73  122683.35  44.67
1314.1  273367.42  121455.09  44.43
1317.9  272244.38  120165.39  44.14
1321.6  270958.57  118720.71  43.82
1325.3  269482.50  117065.03  43.44
1329.0  268268.35  115469.95  43.04
1332.8  266358.40  113487.00  42.61
1336.5  264708.73  111594.97  42.16
1340.2  264370.17  110248.67  41.70
1343.9  263986.25  108876.46  41.24
1347.6  263422.50  107437.09  40.79
1351.4  263639.50  106363.21  40.34
1355.1  264028.60  105382.15  39.91
