/*** Spectra Vista SIG Data ***/
name= 20_20220824_QURU_46_avg.sig
comm= Averaged Ref/Tar of files: HR.082422.0056_moc.sig,HR.082422.0057_moc.sig,HR.082422.0058_moc.sig
data=
337.3  3573.00  337.45  9.44
338.8  3703.70  320.67  8.66
340.3  3888.55  318.58  8.19
341.8  4069.53  317.03  7.79
343.2  4306.80  319.68  7.42
344.7  4435.60  307.08  6.92
346.2  4616.05  294.12  6.37
347.7  4797.65  288.38  6.01
349.2  5027.40  277.20  5.51
350.6  5288.40  288.90  5.46
352.1  5608.83  295.33  5.27
353.6  5899.00  296.11  5.02
355.1  6162.53  296.34  4.81
356.6  6489.45  297.16  4.58
358.0  6762.80  301.99  4.47
359.5  7076.10  309.00  4.37
361.0  7391.48  315.21  4.26
362.5  7757.88  316.17  4.08
364.0  8143.70  324.98  3.99
365.4  8542.40  333.45  3.90
366.9  8895.25  338.87  3.81
368.4  9273.50  352.76  3.80
369.9  9647.93  360.33  3.73
371.3  10092.60  377.36  3.74
372.8  10513.80  389.40  3.70
374.3  10965.00  390.58  3.56
375.8  11399.85  398.86  3.50
377.2  11809.10  408.88  3.46
378.7  12266.40  412.47  3.36
380.2  12669.90  423.23  3.34
381.7  13215.23  428.80  3.24
383.1  13744.50  441.98  3.22
384.6  14269.78  449.58  3.15
386.1  14755.65  457.62  3.10
387.6  15226.75  470.73  3.09
389.0  15731.60  485.97  3.09
390.5  16248.60  495.60  3.05
392.0  16848.65  507.84  3.01
393.4  17446.60  518.49  2.97
394.9  18009.00  528.96  2.94
396.4  18578.25  541.65  2.92
397.9  19167.50  560.33  2.92
399.3  19728.18  577.41  2.93
400.8  20313.88  591.55  2.91
402.2  20990.25  599.02  2.85
403.7  21619.35  613.11  2.84
405.2  22230.83  631.33  2.84
406.6  22852.00  652.69  2.86
408.1  23481.40  665.95  2.84
409.6  24101.10  684.84  2.84
411.0  24787.35  705.97  2.85
412.5  25468.98  724.71  2.85
414.0  26141.13  741.65  2.84
415.4  26890.88  763.20  2.84
416.9  27582.53  783.85  2.84
418.4  28292.63  801.78  2.83
419.8  29047.20  825.07  2.84
421.3  29785.58  848.47  2.85
422.7  30606.60  876.96  2.87
424.2  31421.25  900.00  2.86
425.7  32208.80  925.84  2.87
427.1  32995.13  949.50  2.88
428.6  33821.00  967.20  2.86
430.0  34599.00  991.43  2.87
431.5  35491.65  1014.90  2.86
432.9  36405.25  1046.99  2.88
434.4  37330.95  1073.42  2.88
435.9  38192.00  1099.47  2.88
437.3  39077.50  1123.83  2.88
438.8  39924.08  1151.16  2.88
440.2  40829.25  1178.61  2.89
441.7  41821.40  1209.57  2.89
443.1  42784.25  1238.43  2.89
444.6  43793.30  1271.57  2.90
446.0  44750.78  1307.88  2.92
447.5  45741.58  1339.03  2.93
448.9  46710.90  1369.12  2.93
450.4  47759.60  1403.78  2.94
451.8  48659.00  1440.40  2.96
453.3  49619.63  1471.37  2.97
454.7  50671.05  1507.22  2.97
456.2  51577.50  1535.86  2.98
457.6  52595.55  1569.99  2.99
459.1  53606.48  1599.00  2.98
460.5  54583.38  1629.97  2.99
462.0  55682.43  1660.87  2.98
463.4  56745.40  1698.80  2.99
464.8  57775.50  1731.60  3.00
466.3  58834.88  1765.28  3.00
467.7  59875.05  1797.85  3.00
469.2  60972.90  1829.75  3.00
470.6  61988.60  1856.47  2.99
472.0  63056.00  1895.43  3.01
473.5  64085.13  1926.65  3.01
474.9  65165.25  1964.60  3.01
476.4  66369.60  2008.32  3.03
477.8  67497.50  2041.60  3.02
479.2  68570.50  2074.47  3.03
480.7  69726.08  2117.21  3.04
482.1  70891.70  2157.87  3.04
483.6  72148.85  2200.25  3.05
485.0  73286.93  2236.87  3.05
486.4  74554.20  2283.38  3.06
487.9  75684.38  2324.40  3.07
489.3  76908.68  2373.67  3.09
490.7  78042.50  2418.83  3.10
492.2  79321.20  2471.56  3.12
493.6  80472.45  2525.66  3.14
495.0  81651.38  2575.95  3.15
496.5  82884.40  2635.63  3.18
497.9  84029.05  2698.24  3.21
499.3  85247.08  2766.73  3.25
500.7  86552.20  2847.96  3.29
502.2  87760.60  2921.95  3.33
503.6  89060.00  3015.39  3.39
505.0  90156.10  3115.57  3.46
506.5  91531.13  3226.86  3.53
507.9  92789.68  3350.45  3.61
509.3  94246.40  3494.77  3.71
510.7  95574.38  3644.55  3.81
512.2  97040.40  3829.12  3.95
513.6  98570.15  4040.96  4.10
515.0  100044.43  4278.88  4.28
516.4  101450.48  4537.89  4.47
517.8  103112.50  4843.93  4.70
519.3  104478.73  5162.71  4.94
520.7  106091.55  5526.33  5.21
522.1  107453.78  5901.18  5.49
523.5  108864.80  6299.48  5.79
524.9  110316.60  6701.58  6.07
526.3  111714.75  7098.47  6.35
527.8  113275.80  7510.14  6.63
529.2  114595.90  7908.92  6.90
530.6  116264.70  8309.71  7.15
532.0  118048.00  8689.33  7.36
533.4  119405.70  9011.99  7.55
534.8  120387.18  9285.71  7.71
536.3  122163.00  9590.72  7.85
537.7  124236.00  9890.16  7.96
539.1  125715.00  10136.08  8.06
540.5  126958.80  10366.21  8.17
541.9  128771.40  10617.91  8.25
543.3  130114.58  10828.03  8.32
544.7  131464.80  11048.88  8.40
546.1  133315.60  11309.58  8.48
547.5  134601.60  11512.11  8.55
549.0  136510.00  11758.27  8.61
550.4  138071.88  11960.92  8.66
551.8  139635.18  12136.03  8.69
553.2  141234.43  12282.29  8.70
554.6  142646.40  12376.00  8.68
556.0  144237.60  12443.46  8.63
557.4  145881.93  12475.35  8.55
558.8  147570.30  12477.96  8.46
560.2  149088.75  12430.63  8.34
561.6  150818.48  12365.44  8.20
563.0  152453.15  12259.94  8.04
564.4  154093.30  12128.28  7.87
565.8  155677.50  11963.75  7.68
567.2  157476.75  11796.33  7.49
568.6  159046.88  11594.20  7.29
570.0  160542.30  11367.17  7.08
571.4  162357.65  11160.50  6.87
572.8  164160.50  10960.35  6.68
574.2  165860.80  10763.95  6.49
575.6  167445.00  10582.50  6.32
577.0  169025.40  10421.61  6.17
578.4  170807.00  10301.20  6.03
579.8  172365.98  10179.09  5.91
581.2  174157.45  10094.94  5.80
582.5  175628.70  10002.72  5.70
583.9  177212.40  9932.45  5.60
585.3  179077.73  9891.39  5.52
586.7  180591.45  9844.47  5.45
588.1  182141.75  9813.17  5.39
589.5  183848.00  9801.63  5.33
590.9  185541.20  9804.27  5.28
592.3  187409.15  9830.83  5.25
593.7  188895.53  9847.63  5.21
595.0  190605.15  9882.09  5.18
596.4  192100.30  9909.34  5.16
597.8  193614.60  9935.26  5.13
599.2  195214.80  9954.56  5.10
600.6  197036.78  9981.31  5.07
602.0  198381.23  9968.51  5.02
603.3  200241.90  9972.80  4.98
604.7  201966.08  9948.11  4.93
606.1  203508.60  9899.20  4.86
607.5  205184.88  9845.90  4.80
608.9  206928.40  9786.29  4.73
610.2  208372.50  9707.04  4.66
611.6  210018.83  9635.95  4.59
613.0  211620.25  9562.05  4.52
614.4  213055.65  9482.72  4.45
615.8  214548.75  9418.50  4.39
617.1  216134.10  9368.80  4.33
618.5  217826.40  9337.81  4.29
619.9  219397.50  9317.18  4.25
621.3  221089.95  9318.36  4.21
622.6  222741.50  9328.93  4.19
624.0  224241.30  9344.16  4.17
625.4  225767.03  9375.74  4.15
626.8  227424.93  9419.11  4.14
628.1  228804.95  9458.09  4.13
629.5  230771.63  9529.42  4.13
630.9  232467.95  9590.83  4.13
632.2  233949.45  9635.01  4.12
633.6  235674.25  9679.05  4.11
635.0  237291.20  9700.80  4.09
636.3  238878.40  9701.84  4.06
637.7  240313.63  9674.40  4.03
639.1  242042.50  9639.00  3.98
640.4  243561.50  9586.92  3.94
641.8  244826.38  9511.42  3.88
643.2  246509.90  9442.70  3.83
644.5  247926.25  9361.03  3.78
645.9  249720.75  9301.26  3.72
647.2  251961.68  9278.08  3.68
648.6  254036.25  9266.40  3.65
650.0  255614.40  9262.08  3.62
651.3  255913.90  9215.21  3.60
652.7  256615.65  9158.53  3.57
654.0  258770.00  9153.89  3.54
655.4  260409.35  9134.29  3.51
656.8  260800.30  9095.13  3.49
658.1  262048.80  9061.84  3.46
659.5  264443.55  9036.02  3.42
660.8  266377.50  9000.00  3.38
662.2  267276.80  8954.03  3.35
663.5  268945.30  8924.97  3.32
664.9  270459.80  8890.09  3.29
666.2  271284.00  8865.20  3.27
667.6  273057.08  8894.28  3.26
668.9  274309.45  8922.90  3.25
670.3  275212.50  8947.02  3.25
671.6  277071.38  9018.15  3.25
673.0  278332.50  9100.75  3.27
674.3  279631.30  9190.65  3.29
675.7  281036.83  9297.99  3.31
677.0  282228.35  9423.76  3.34
678.4  283704.03  9567.66  3.37
679.7  284893.38  9720.37  3.41
681.1  286246.53  9898.43  3.46
682.4  287498.90  10101.17  3.51
683.8  288891.20  10342.80  3.58
685.1  289948.13  10596.40  3.65
686.4  291330.60  10910.56  3.75
687.8  292698.75  11279.27  3.85
689.1  293855.75  11739.10  3.99
690.5  295310.55  12331.24  4.18
691.8  296153.08  13104.42  4.42
693.1  297530.40  14145.68  4.75
694.5  298798.50  15497.30  5.19
695.8  300140.75  17202.03  5.73
697.1  301414.75  19316.27  6.41
698.5  302568.30  21855.56  7.22
699.8  303754.30  24830.64  8.17
701.1  304978.75  28207.70  9.25
702.5  305845.65  31909.75  10.43
703.8  306855.00  35922.00  11.71
705.1  308119.50  40167.66  13.04
706.5  309289.63  44579.95  14.41
707.8  310352.10  49104.44  15.82
709.1  311322.13  53690.14  17.25
710.5  312550.00  58390.29  18.68
711.8  313493.40  63064.40  20.12
713.1  314630.70  67794.97  21.55
714.4  315611.90  72504.73  22.97
715.8  316526.20  77172.87  24.38
717.1  317951.10  81932.12  25.77
718.4  318998.40  86535.68  27.13
719.7  320223.80  91125.64  28.46
721.0  320805.00  95451.00  29.75
722.4  321675.75  99755.19  31.01
723.7  322717.20  103984.64  32.22
725.0  323853.98  108128.58  33.39
726.3  324891.05  112076.84  34.50
727.6  325530.15  115731.88  35.55
729.0  326543.70  119356.72  36.55
730.3  327415.50  122763.16  37.49
731.6  328429.05  126044.03  38.38
732.9  329317.98  129120.39  39.21
734.2  330218.63  132037.58  39.98
735.5  331349.63  134876.67  40.71
736.8  332202.90  137463.16  41.38
738.1  333118.20  139910.60  42.00
739.5  334171.03  142258.59  42.57
740.8  334964.85  144343.76  43.09
742.1  335825.13  146337.67  43.58
743.4  336650.00  148200.00  44.02
744.7  337772.98  150066.50  44.43
746.0  338752.05  151745.10  44.80
747.3  339354.88  153153.40  45.13
748.6  340157.50  154544.63  45.43
749.9  341042.00  155847.47  45.70
751.2  341911.25  157056.90  45.93
752.5  342931.10  158277.23  46.15
753.8  343668.50  159293.91  46.35
755.1  344500.00  160281.33  46.53
756.4  345181.78  161131.58  46.68
757.7  346276.00  162123.92  46.82
759.0  348241.78  163455.18  46.94
760.3  349562.40  164433.28  47.04
761.6  351306.20  165569.04  47.13
762.9  351949.75  166149.60  47.21
764.2  352416.90  166618.60  47.28
765.5  352784.35  167021.71  47.34
766.8  353300.80  167464.96  47.40
768.1  353953.20  167936.43  47.45
769.3  354666.55  168406.93  47.48
770.6  355440.15  168892.53  47.52
771.9  356301.05  169406.88  47.55
773.2  356817.60  169737.33  47.57
774.5  357528.60  170170.00  47.60
775.8  358345.85  170645.83  47.62
777.1  359069.70  171044.43  47.64
778.4  359514.65  171316.27  47.65
779.6  360415.63  171802.57  47.67
780.9  360990.00  172128.00  47.68
782.2  361578.25  172449.20  47.69
783.5  362035.00  172707.27  47.70
784.8  362656.13  173059.77  47.72
786.0  363209.00  173347.67  47.73
787.3  363725.10  173620.30  47.73
788.6  364268.95  173917.26  47.74
789.9  364858.20  174227.76  47.75
791.2  365654.38  174623.72  47.76
792.4  366484.15  175048.89  47.76
793.7  367066.00  175354.45  47.77
795.0  367846.88  175732.15  47.77
796.2  368637.48  176140.10  47.78
797.5  369508.73  176574.31  47.79
798.8  370355.65  176989.19  47.79
800.0  371162.70  177399.88  47.80
801.3  371793.90  177698.64  47.79
802.6  372507.98  178084.02  47.81
803.8  373274.18  178464.78  47.81
805.1  373917.25  178783.97  47.81
806.4  374484.90  179070.00  47.82
807.7  375169.73  179411.49  47.82
808.9  375867.50  179756.85  47.82
810.2  376516.00  180094.88  47.83
811.4  377140.50  180417.92  47.84
812.7  377893.75  180792.08  47.84
814.0  378868.05  181279.47  47.85
815.2  379591.00  181657.03  47.86
816.5  380179.08  181934.69  47.85
817.7  380722.25  182226.77  47.86
819.0  381317.20  182547.93  47.87
820.2  381568.00  182682.13  47.88
821.5  382382.60  183112.63  47.89
822.7  382845.40  183357.71  47.89
824.0  383265.00  183593.88  47.90
825.2  383824.58  183909.15  47.91
826.5  384251.20  184126.67  47.92
827.7  384920.38  184448.02  47.92
829.0  385317.30  184693.74  47.93
830.2  385710.00  184910.03  47.94
831.5  386255.30  185193.92  47.95
832.7  386622.60  185407.74  47.96
834.0  387058.18  185616.89  47.96
835.2  387476.93  185847.46  47.96
836.4  387854.50  186042.12  47.97
837.7  388234.60  186325.15  47.99
838.9  388719.35  186594.10  48.00
840.1  389149.65  186839.64  48.01
841.4  389708.10  187147.89  48.02
842.6  390092.20  187372.19  48.03
843.8  390510.40  187598.13  48.04
845.1  391057.15  187910.01  48.05
846.3  391491.40  188153.07  48.06
847.5  391891.50  188432.72  48.08
848.8  392430.00  188679.52  48.08
850.0  392752.85  188902.28  48.10
851.2  393390.00  189216.36  48.10
852.5  393901.80  189470.67  48.10
853.7  394436.25  189747.00  48.11
854.9  394947.50  190024.28  48.11
856.1  395339.75  190298.68  48.14
857.4  395623.23  190443.56  48.14
858.6  396110.50  190718.85  48.15
859.8  396616.88  190966.25  48.15
861.0  397191.60  191234.16  48.15
862.2  397664.63  191513.96  48.16
863.5  398125.98  191724.87  48.16
864.7  398646.60  192031.84  48.17
865.9  399149.20  192288.43  48.17
867.1  399446.05  192473.63  48.19
868.3  399998.40  192723.78  48.18
869.5  400566.75  192988.19  48.18
870.8  401242.50  193290.00  48.17
872.0  401858.03  193601.18  48.18
873.2  402238.05  193864.10  48.20
874.4  402772.50  194099.49  48.19
875.6  403182.85  194299.99  48.19
876.8  403814.55  194560.06  48.18
878.0  404330.80  194860.45  48.19
879.2  404902.35  195142.16  48.19
880.4  405497.63  195426.05  48.19
881.6  406129.15  195717.83  48.19
882.8  406600.00  195955.52  48.19
884.0  407248.80  196294.38  48.20
885.2  407892.70  196564.93  48.19
886.5  408621.15  196903.45  48.19
887.7  409253.65  197190.76  48.18
888.8  410007.30  197531.27  48.18
890.0  410755.35  197855.33  48.17
891.2  411436.70  198181.75  48.17
892.4  412123.43  198513.56  48.17
893.6  412763.40  198815.01  48.17
894.8  413775.75  199318.77  48.17
896.0  414865.00  199796.87  48.16
897.2  415896.00  200250.70  48.15
898.4  416770.20  200658.04  48.15
899.6  417369.75  200963.50  48.15
900.8  417904.70  201221.18  48.15
902.0  418281.45  201351.20  48.14
903.2  418797.98  201552.63  48.13
904.3  419260.80  201776.60  48.13
905.5  420050.45  202104.10  48.11
906.7  420744.50  202484.00  48.13
907.9  421449.00  202802.18  48.12
909.1  421908.08  203001.66  48.12
910.2  422185.13  203138.35  48.12
911.4  422735.63  203312.85  48.09
912.6  422994.00  203442.29  48.10
913.8  423524.33  203616.99  48.08
915.0  424080.30  203901.74  48.08
916.2  424359.00  204067.50  48.09
917.3  424609.88  204121.08  48.07
918.5  425036.70  204274.35  48.06
919.7  425432.70  204428.70  48.05
920.8  425680.00  204521.50  48.05
922.0  425944.75  204622.37  48.04
923.2  426426.00  204731.80  48.01
924.4  426748.50  204887.25  48.01
925.5  427213.50  205043.77  48.00
926.7  427979.25  205399.67  47.99
927.9  429028.20  205833.28  47.98
929.0  430708.05  206559.36  47.96
930.2  433188.60  207678.36  47.94
931.4  435925.13  208937.61  47.93
932.5  438966.20  210319.71  47.91
933.7  440533.63  211010.03  47.90
934.9  441433.13  211365.58  47.88
936.0  441168.00  211152.28  47.86
937.2  439269.75  210165.62  47.84
938.3  437765.85  209338.66  47.82
939.5  436366.80  208544.64  47.79
940.7  436626.00  208640.76  47.78
941.8  438387.08  209363.89  47.76
943.0  440058.75  210057.10  47.73
944.2  441282.40  210461.51  47.69
945.3  441080.25  210246.40  47.67
946.5  440414.55  209842.74  47.65
947.6  440707.70  209897.13  47.63
948.8  440824.80  209753.96  47.58
949.9  441189.00  209691.44  47.53
951.1  440954.48  209401.57  47.49
952.2  441048.00  209195.20  47.43
953.4  440820.75  208935.63  47.40
954.5  441207.00  208802.88  47.33
955.7  441252.00  208630.80  47.28
956.8  441029.60  208399.56  47.25
958.0  440785.00  208121.40  47.22
959.1  440840.93  207907.77  47.16
960.3  440862.08  207682.76  47.11
961.4  440954.00  207592.39  47.08
962.6  441379.75  207655.47  47.05
963.7  441094.35  207643.08  47.07
964.9  441301.95  207580.94  47.04
966.0  441312.30  207523.08  47.02
967.2  441394.65  207586.68  47.03
968.3  441486.45  207492.30  47.00
969.5  441448.93  207444.65  46.99
970.6  441749.25  207574.03  46.99
971.8  442250.73  207641.26  46.95
972.9  441798.38  207567.18  46.98
974.0  442246.30  207706.93  46.97
975.2  442098.00  207676.90  46.98
976.3  442061.33  207657.68  46.97
977.5  442464.75  207794.56  46.96
978.6  442510.60  207785.27  46.96
979.7  442563.45  207775.47  46.95
980.9  442357.43  207665.99  46.95
982.0  442513.90  207722.36  46.94
983.2  442461.05  207639.92  46.93
984.3  442653.20  207731.60  46.93
985.4  442609.88  207901.28  46.97
986.6  443398.25  207901.78  46.89
987.7  444165.23  208538.07  46.95
988.9  443973.60  208290.72  46.92
990.0  445352.40  208607.33  46.84
993.1  363791.58  169625.51  46.63
996.9  365204.10  170727.67  46.75
1000.7  366747.27  171860.98  46.86
1004.5  367496.83  172552.57  46.95
1008.4  367345.42  172843.11  47.05
1012.2  367469.88  173195.80  47.13
1016.0  367657.20  173604.43  47.22
1019.8  368110.05  174087.38  47.29
1023.7  368565.35  174569.61  47.36
1027.5  368844.78  174982.51  47.44
1031.3  369645.93  175572.37  47.50
1035.1  370006.06  175908.07  47.54
1038.9  370303.27  176173.93  47.58
1042.7  370295.58  176286.46  47.61
1046.5  370141.83  176319.28  47.64
1050.3  370254.43  176433.17  47.65
1054.2  370010.67  176414.92  47.68
1058.0  369532.28  176210.88  47.68
1061.8  369407.36  176192.47  47.70
1065.6  369259.83  176119.75  47.70
1069.4  369668.73  176347.75  47.70
1073.2  369720.78  176386.58  47.71
1077.0  369427.60  176208.15  47.70
1080.8  368692.71  175769.34  47.67
1084.6  367192.93  174928.60  47.64
1088.4  366113.13  174332.47  47.62
1092.2  365157.00  173761.71  47.59
1096.0  364641.73  173403.66  47.55
1099.8  364271.70  173081.57  47.51
1103.6  363768.40  172702.74  47.48
1107.4  363023.48  172173.05  47.43
1111.2  362842.30  171933.90  47.39
1114.9  362174.17  171416.83  47.33
1118.7  361439.10  170844.65  47.27
1122.5  360658.13  170142.76  47.18
1126.3  359487.63  169192.83  47.06
1130.1  358979.45  168390.14  46.91
1133.9  357420.00  166877.40  46.69
1137.7  356124.90  165291.38  46.41
1141.4  354468.73  163367.67  46.09
1145.2  353848.73  161765.86  45.72
1149.0  352859.79  160055.00  45.36
1152.8  351285.95  158238.78  45.05
1156.6  349705.77  156662.92  44.80
1160.3  348088.33  155316.19  44.62
1164.1  345664.27  153826.28  44.50
1167.9  343850.00  152748.07  44.42
1171.7  342538.88  151999.88  44.37
1175.4  341517.40  151426.20  44.34
1179.2  340646.35  150917.24  44.30
1183.0  340421.33  150655.24  44.26
1186.7  339737.07  150183.63  44.21
1190.5  338367.13  149425.18  44.16
1194.3  337023.73  148732.81  44.13
1198.0  335961.18  148215.77  44.12
1201.8  334631.40  147628.85  44.12
1205.6  333369.67  147109.67  44.13
1209.3  332297.55  146750.52  44.16
1213.1  331194.00  146380.57  44.20
1216.8  330093.96  146119.99  44.27
1220.6  329067.20  145912.80  44.34
1224.3  327880.50  145638.59  44.42
1228.1  326812.40  145458.43  44.51
1231.9  325765.08  145220.54  44.58
1235.6  324448.88  144855.68  44.65
1239.4  323236.88  144511.37  44.71
1243.1  322074.87  144132.87  44.75
1246.9  320937.38  143734.96  44.79
1250.6  320002.40  143394.94  44.81
1254.3  318980.75  143004.27  44.83
1258.1  318104.15  142639.63  44.84
1261.8  316915.20  142133.75  44.85
1265.6  315434.45  141438.47  44.84
1269.3  313687.95  140588.72  44.82
1273.1  313482.29  140383.13  44.78
1276.8  313912.40  140470.69  44.75
1280.6  314190.90  140500.82  44.72
1284.3  313125.20  139884.97  44.67
1288.0  311628.86  139012.43  44.61
1291.8  310004.69  137996.16  44.51
1295.5  308308.00  136907.47  44.41
1299.2  306983.11  135952.62  44.29
1302.9  305611.17  134918.43  44.15
1306.7  304157.70  133786.92  43.99
1310.4  302773.75  132575.50  43.79
1314.1  301518.25  131361.14  43.57
1317.9  300395.00  130096.43  43.31
1321.6  299078.34  128643.03  43.01
1325.3  297450.83  126963.45  42.68
1329.0  296114.58  125345.17  42.33
1332.8  293970.60  123272.60  41.93
1336.5  292097.13  121298.03  41.53
1340.2  291639.83  119901.17  41.11
1343.9  291072.29  118444.67  40.69
1347.6  290181.90  116870.42  40.27
1351.4  289943.00  115616.71  39.88
1355.1  289791.33  114429.96  39.49
