/*** Spectra Vista SIG Data ***/
name= 56_20220722_QUPH_5_avg.sig
comm= Averaged Ref/Tar of files: HR.072222.0043_moc.sig,HR.072222.0044_moc.sig
data=
337.3  3010.58  262.30  8.71
338.8  3142.53  267.99  8.53
340.3  3310.73  261.02  7.88
341.8  3475.10  254.76  7.33
343.2  3640.80  253.71  6.97
344.7  3781.63  243.71  6.44
346.2  3948.83  239.27  6.06
347.7  4116.02  235.95  5.73
349.2  4284.00  237.60  5.55
350.6  4504.93  246.59  5.47
352.1  4739.52  244.97  5.17
353.6  4996.80  247.86  4.96
355.1  5253.30  245.35  4.67
356.6  5506.20  238.79  4.34
358.0  5763.27  246.09  4.27
359.5  6015.20  256.03  4.26
361.0  6284.25  260.78  4.15
362.5  6616.15  267.66  4.05
364.0  6920.23  278.56  4.03
365.4  7249.80  285.02  3.93
366.9  7587.67  292.04  3.85
368.4  7909.75  292.24  3.69
369.9  8251.63  312.72  3.79
371.3  8633.00  328.03  3.80
372.8  8991.60  341.36  3.80
374.3  9370.42  345.54  3.69
375.8  9737.93  346.50  3.56
377.2  10114.40  349.70  3.46
378.7  10491.00  361.23  3.44
380.2  10867.60  357.39  3.29
381.7  11350.50  374.49  3.30
383.1  11804.10  381.15  3.23
384.6  12282.62  393.07  3.20
386.1  12737.78  405.38  3.18
387.6  13169.57  411.95  3.13
389.0  13650.13  424.97  3.11
390.5  14124.60  432.39  3.06
392.0  14653.30  438.32  2.99
393.4  15186.95  450.43  2.97
394.9  15694.80  466.07  2.97
396.4  16197.75  480.54  2.97
397.9  16724.58  497.86  2.98
399.3  17237.88  517.36  3.00
400.8  17746.60  523.43  2.95
402.2  18330.67  540.10  2.95
403.7  18858.75  550.29  2.92
405.2  19429.28  574.96  2.96
406.6  19952.00  593.26  2.97
408.1  20490.67  613.43  2.99
409.6  21057.37  627.15  2.98
411.0  21663.13  640.50  2.96
412.5  22268.87  654.50  2.94
414.0  22860.75  675.29  2.95
415.4  23505.50  698.47  2.97
416.9  24119.45  718.68  2.98
418.4  24750.60  739.00  2.99
419.8  25407.20  759.20  2.99
421.3  26060.15  779.21  2.99
422.7  26761.20  800.40  2.99
424.2  27483.75  824.46  3.00
425.7  28177.27  842.94  2.99
427.1  28875.35  865.86  3.00
428.6  29594.67  890.15  3.01
430.0  30279.18  908.34  3.00
431.5  31063.90  931.75  3.00
432.9  31849.10  956.44  3.00
434.4  32661.00  982.29  3.01
435.9  33422.67  1008.00  3.02
437.3  34191.67  1029.29  3.01
438.8  34960.15  1051.09  3.01
440.2  35735.70  1079.93  3.02
441.7  36617.73  1108.38  3.03
443.1  37453.33  1141.40  3.05
444.6  38321.87  1177.13  3.07
446.0  39175.85  1217.80  3.11
447.5  40041.65  1253.73  3.13
448.9  40893.00  1291.85  3.16
450.4  41811.23  1332.00  3.19
451.8  42596.67  1374.29  3.23
453.3  43435.15  1413.97  3.26
454.7  44364.62  1454.90  3.28
456.2  45150.15  1490.65  3.30
457.6  46037.70  1524.73  3.31
459.1  46912.88  1564.74  3.34
460.5  47766.58  1597.36  3.34
462.0  48735.08  1636.53  3.36
463.4  49667.07  1675.32  3.37
464.8  50569.75  1708.61  3.38
466.3  51462.40  1745.12  3.39
467.7  52368.38  1779.49  3.40
469.2  53344.25  1817.69  3.41
470.6  54223.63  1856.61  3.42
472.0  55174.00  1898.12  3.44
473.5  56085.67  1937.15  3.45
474.9  57019.00  1978.71  3.47
476.4  58080.00  2026.29  3.49
477.8  59053.67  2073.50  3.51
479.2  59981.67  2129.43  3.55
480.7  60978.35  2181.59  3.58
482.1  62009.77  2239.75  3.61
483.6  63088.70  2307.88  3.66
485.0  64085.65  2371.84  3.70
486.4  65164.60  2444.40  3.75
487.9  66144.00  2528.04  3.82
489.3  67214.72  2618.95  3.90
490.7  68186.57  2717.82  3.99
492.2  69305.60  2830.80  4.08
493.6  70320.00  2950.93  4.20
495.0  71331.00  3085.88  4.33
496.5  72396.67  3241.08  4.48
497.9  73404.35  3415.09  4.65
499.3  74460.95  3607.96  4.85
500.7  75603.77  3834.12  5.07
502.2  76650.00  4081.75  5.33
503.6  77769.33  4361.23  5.61
505.0  78738.87  4671.26  5.93
506.5  79922.90  5034.06  6.30
507.9  81023.57  5434.42  6.71
509.3  82278.13  5894.63  7.16
510.7  83430.75  6386.95  7.66
512.2  84698.05  6935.60  8.19
513.6  86023.47  7525.55  8.75
515.0  87303.57  8152.96  9.34
516.4  88546.50  8810.78  9.95
517.8  90004.50  9518.24  10.58
519.3  91206.00  10212.42  11.20
520.7  92608.23  10930.90  11.80
522.1  93781.57  11615.23  12.39
523.5  95020.40  12285.62  12.93
524.9  96329.40  12935.64  13.43
526.3  97580.00  13530.00  13.87
527.8  98901.00  14105.38  14.26
529.2  99949.20  14614.77  14.62
530.6  101439.00  15135.35  14.92
532.0  103030.67  15614.00  15.15
533.4  104183.60  15993.29  15.35
534.8  104944.78  16279.98  15.51
536.3  106476.60  16668.65  15.65
537.7  108351.60  17092.80  15.78
539.1  109700.72  17413.47  15.87
540.5  110771.63  17691.13  15.97
541.9  112364.90  18039.30  16.05
543.3  113535.32  18328.19  16.14
544.7  114706.80  18612.94  16.23
546.1  116312.90  18967.78  16.31
547.5  117502.93  19236.80  16.37
549.0  119122.67  19559.57  16.42
550.4  120480.42  19824.73  16.45
551.8  121886.52  20062.16  16.46
553.2  123283.77  20263.14  16.44
554.6  124494.93  20388.46  16.38
556.0  125897.40  20495.96  16.28
557.4  127348.55  20562.98  16.15
558.8  128823.00  20580.24  15.98
560.2  130130.17  20520.27  15.77
561.6  131646.90  20443.43  15.53
563.0  133095.35  20302.05  15.25
564.4  134533.60  20115.84  14.95
565.8  135915.00  19877.86  14.63
567.2  137478.17  19631.04  14.28
568.6  138844.75  19317.11  13.91
570.0  140150.75  18977.35  13.54
571.4  141727.30  18663.45  13.17
572.8  143319.67  18362.61  12.81
574.2  144786.13  18067.20  12.48
575.6  146175.00  17789.47  12.17
577.0  147547.87  17535.99  11.88
578.4  149118.67  17335.50  11.63
579.8  150490.80  17137.10  11.39
581.2  152056.92  16988.80  11.17
582.5  153340.20  16834.63  10.98
583.9  154713.73  16712.17  10.80
585.3  156336.75  16640.49  10.64
586.7  157679.82  16558.43  10.50
588.1  159031.50  16498.66  10.37
589.5  160524.00  16472.75  10.26
590.9  162018.40  16465.43  10.16
592.3  163652.00  16494.29  10.08
593.7  164960.90  16504.66  10.01
595.0  166425.75  16533.26  9.93
596.4  167745.67  16535.30  9.86
597.8  169085.90  16530.54  9.78
599.2  170491.20  16507.55  9.68
600.6  172087.93  16469.70  9.57
602.0  173263.05  16367.00  9.45
603.3  174885.33  16261.94  9.30
604.7  176389.27  16116.97  9.14
606.1  177744.00  15927.17  8.96
607.5  179233.32  15727.30  8.77
608.9  180767.30  15517.22  8.58
610.2  182025.90  15272.55  8.39
611.6  183474.60  15045.35  8.20
613.0  184873.30  14827.77  8.02
614.4  186123.60  14616.52  7.85
615.8  187453.50  14426.52  7.70
617.1  188836.20  14273.70  7.56
618.5  190308.27  14153.03  7.44
619.9  191676.80  14061.49  7.34
621.3  193140.90  14006.83  7.25
622.6  194579.83  13986.43  7.19
624.0  195895.70  13984.46  7.14
625.4  197222.85  14011.21  7.10
626.8  198648.45  14068.60  7.08
628.1  199848.73  14125.03  7.07
629.5  201527.88  14225.67  7.06
630.9  202977.50  14316.27  7.05
632.2  204220.57  14375.40  7.04
633.6  205682.67  14429.04  7.02
635.0  207065.07  14433.26  6.97
636.3  208430.40  14383.72  6.90
637.7  209681.50  14252.47  6.80
639.1  211166.67  14075.00  6.67
640.4  212500.63  13829.43  6.51
641.8  213602.92  13511.35  6.33
643.2  215050.27  13178.85  6.13
644.5  216286.83  12814.11  5.92
645.9  217796.10  12461.66  5.72
647.2  219387.93  12142.60  5.53
648.6  220968.00  11854.93  5.36
650.0  222220.80  11580.69  5.21
651.3  222665.48  11285.34  5.07
652.7  223815.50  11031.07  4.93
654.0  225809.27  10805.53  4.79
655.4  227142.67  10538.32  4.64
656.8  227257.27  10231.22  4.50
658.1  228331.73  9975.03  4.37
659.5  230611.15  9762.08  4.23
660.8  232365.00  9530.36  4.10
662.2  233169.07  9302.40  3.99
663.5  234612.80  9119.47  3.89
664.9  235777.53  8972.60  3.81
666.2  236415.20  8854.63  3.75
667.6  237939.85  8808.81  3.70
668.9  239050.32  8804.06  3.68
670.3  240128.50  8822.15  3.67
671.6  241531.25  8900.58  3.69
673.0  242593.25  9008.04  3.71
674.3  243748.27  9146.24  3.75
675.7  244944.20  9321.96  3.81
677.0  245945.83  9524.24  3.87
678.4  247164.55  9782.25  3.96
679.7  248177.70  10090.60  4.07
681.1  249388.63  10479.32  4.20
682.4  250451.93  10952.13  4.37
683.8  251586.40  11555.15  4.59
685.1  252490.50  12317.30  4.88
686.4  253657.20  13335.86  5.26
687.8  254821.83  14646.86  5.75
689.1  255800.83  16331.50  6.38
690.5  257069.70  18467.49  7.18
691.8  257803.23  21075.13  8.17
693.1  259010.30  24235.50  9.36
694.5  260062.83  27859.00  10.71
695.8  261170.00  31885.75  12.21
697.1  262292.33  36237.50  13.82
698.5  263259.47  40847.03  15.52
699.8  264269.57  45644.78  17.27
701.1  265312.62  50549.06  19.05
702.5  266029.87  55379.58  20.82
703.8  266925.00  60165.00  22.54
705.1  267993.70  64833.88  24.19
706.5  268962.42  69308.16  25.77
707.8  269868.80  73560.24  27.26
709.1  270683.18  77557.05  28.65
710.5  271739.90  81403.33  29.96
711.8  272506.00  84947.08  31.17
713.1  273427.73  88323.93  32.30
714.4  274275.13  91465.04  33.35
715.8  275033.33  94389.53  34.32
717.1  276246.00  97279.98  35.21
718.4  277117.87  99875.20  36.04
719.7  278120.63  102363.99  36.81
721.0  278610.00  104515.71  37.51
722.4  279334.37  106593.85  38.16
723.7  280240.90  108603.52  38.75
725.0  281199.15  110524.66  39.30
726.3  282086.57  112285.96  39.81
727.6  282588.72  113805.45  40.27
729.0  283429.42  115358.60  40.70
730.3  284113.15  116756.49  41.10
731.6  284945.63  118121.22  41.45
732.9  285692.87  119357.53  41.78
734.2  286452.83  120531.52  42.08
735.5  287397.08  121718.35  42.35
736.8  288113.00  122749.07  42.60
738.1  288855.40  123733.72  42.84
739.5  289745.43  124715.37  43.04
740.8  290404.03  125542.77  43.23
742.1  291089.73  126352.50  43.41
743.4  291783.33  127117.86  43.57
744.7  292684.55  127950.14  43.72
746.0  293485.40  128680.22  43.85
747.3  293979.93  129254.96  43.97
748.6  294648.67  129868.29  44.08
749.9  295325.33  130449.43  44.17
751.2  296000.57  131000.29  44.26
752.5  296837.37  131590.54  44.33
753.8  297428.83  132043.80  44.40
755.1  298081.33  132496.00  44.45
756.4  298625.92  132895.52  44.50
757.7  299497.45  133425.78  44.55
759.0  301150.42  134290.73  44.59
760.3  302244.80  134877.60  44.63
761.6  303701.07  135614.40  44.65
762.9  304218.83  135909.11  44.67
764.2  304561.80  136133.21  44.70
765.5  304823.98  136325.69  44.72
766.8  305220.27  136563.43  44.74
768.1  305692.67  136839.52  44.76
769.3  306251.40  137120.30  44.77
770.6  306891.00  137430.15  44.78
771.9  307558.30  137759.65  44.79
773.2  307950.67  137955.03  44.80
774.5  308498.67  138244.23  44.81
775.8  309137.37  138562.43  44.82
777.1  309650.73  138833.13  44.84
778.4  309962.95  138995.30  44.84
779.6  310665.88  139342.31  44.85
780.9  311120.00  139560.00  44.86
782.2  311554.83  139780.93  44.87
783.5  311852.33  139934.00  44.87
784.8  312318.90  140187.70  44.89
786.0  312683.70  140379.70  44.90
787.3  313050.35  140562.86  44.90
788.6  313476.25  140771.07  44.91
789.9  313907.07  140990.00  44.91
791.2  314500.77  141277.78  44.92
792.4  315109.10  141580.52  44.93
793.7  315540.93  141806.86  44.94
795.0  316128.45  142093.99  44.95
796.2  316718.15  142385.78  44.96
797.5  317386.50  142704.87  44.96
798.8  318058.27  142998.40  44.96
800.0  318672.88  143291.19  44.96
801.3  319099.93  143518.13  44.98
802.6  319659.30  143797.44  44.98
803.8  320250.23  144090.30  44.99
805.1  320740.58  144318.75  45.00
806.4  321183.00  144513.30  44.99
807.7  321702.30  144759.44  45.00
808.9  322246.33  145010.85  45.00
810.2  322728.00  145250.20  45.01
811.4  323206.00  145488.53  45.01
812.7  323781.25  145762.50  45.02
814.0  324563.77  146117.77  45.02
815.2  325176.83  146393.40  45.02
816.5  325573.87  146591.59  45.03
817.7  326031.37  146804.10  45.03
819.0  326541.23  147047.22  45.03
820.2  326714.67  147136.00  45.04
821.5  327373.80  147440.68  45.04
822.7  327700.45  147609.44  45.04
824.0  328062.60  147745.55  45.04
825.2  328509.00  147955.47  45.04
826.5  328844.90  148099.07  45.04
827.7  329355.45  148328.64  45.04
829.0  329738.32  148513.80  45.04
830.2  330029.30  148653.77  45.04
831.5  330521.93  148852.37  45.04
832.7  330842.75  148992.00  45.03
834.0  331177.93  149130.56  45.03
835.2  331537.80  149283.56  45.03
836.4  331837.00  149433.35  45.03
837.7  332209.87  149622.98  45.04
838.9  332653.00  149819.74  45.04
840.1  333012.60  149994.94  45.04
841.4  333434.00  150199.75  45.05
842.6  333775.73  150337.80  45.04
843.8  334176.27  150493.17  45.03
845.1  334654.87  150723.57  45.04
846.3  335037.47  150911.10  45.04
847.5  335477.80  151092.90  45.04
848.8  335862.40  151295.23  45.05
850.0  336221.67  151416.10  45.03
851.2  336750.30  151645.50  45.03
852.5  337103.47  151821.49  45.04
853.7  337603.50  152032.50  45.03
854.9  338079.47  152218.86  45.02
856.1  338543.83  152426.02  45.02
857.4  338718.05  152519.05  45.03
858.6  339222.53  152716.83  45.02
859.8  339613.75  152872.77  45.01
861.0  340095.60  153076.11  45.01
862.2  340544.02  153278.32  45.01
863.5  340881.45  153438.72  45.01
864.7  341462.00  153652.72  45.00
865.9  341799.33  153835.92  45.01
867.1  342128.10  153956.59  45.00
868.3  342613.40  154126.85  44.99
869.5  343097.97  154326.00  44.98
870.8  343638.00  154530.00  44.97
872.0  344147.80  154771.51  44.97
873.2  344537.30  154960.29  44.98
874.4  345015.45  155140.75  44.97
875.6  345372.57  155287.74  44.96
876.8  345827.20  155504.72  44.97
878.0  346359.30  155683.22  44.95
879.2  346909.60  155889.71  44.94
880.4  347434.00  156103.98  44.93
881.6  347885.17  156306.68  44.93
882.8  348277.87  156464.58  44.93
884.0  348839.53  156700.75  44.92
885.2  349396.80  156907.83  44.91
886.5  350009.77  157150.27  44.90
887.7  350557.35  157350.84  44.89
888.8  351165.35  157605.85  44.88
890.0  351741.43  157851.78  44.88
891.2  352312.00  158085.29  44.87
892.4  352922.85  158325.23  44.86
893.6  353476.03  158550.81  44.85
894.8  354376.33  158913.58  44.84
896.0  355182.67  159282.08  44.85
897.2  355983.33  159616.79  44.84
898.4  356754.20  159938.74  44.83
899.6  357330.00  160145.58  44.82
900.8  357742.17  160321.31  44.81
902.0  357997.30  160394.44  44.80
903.2  358277.20  160523.98  44.80
904.3  358632.40  160683.09  44.80
905.5  359244.85  160940.03  44.80
906.7  359870.67  161153.79  44.78
907.9  360419.50  161341.60  44.76
909.1  360756.90  161466.46  44.76
910.2  361038.35  161548.62  44.75
911.4  361294.05  161658.90  44.74
912.6  361489.70  161765.69  44.75
913.8  361788.60  161882.44  44.75
915.0  362271.70  162042.30  44.73
916.2  362589.50  162095.14  44.70
917.3  362642.10  162080.39  44.69
918.5  362892.27  162160.36  44.69
919.7  363078.00  162238.74  44.68
920.8  363246.93  162252.50  44.67
922.0  363375.83  162316.00  44.67
923.2  363727.00  162396.00  44.65
924.4  364018.50  162472.02  44.63
925.5  364312.33  162547.57  44.62
926.7  364859.67  162714.29  44.60
927.9  365645.20  163026.17  44.59
929.0  366992.10  163588.76  44.58
930.2  369145.93  164423.83  44.54
931.4  371519.55  165395.44  44.52
932.5  374050.13  166435.01  44.50
933.7  375369.70  166995.36  44.49
934.9  376089.58  167216.88  44.46
936.0  375627.42  166985.47  44.46
937.2  373806.70  166088.16  44.43
938.3  372410.20  165335.23  44.40
939.5  370999.20  164655.78  44.38
940.7  371418.60  164704.76  44.34
941.8  372836.60  165250.35  44.32
943.0  374154.50  165729.43  44.29
944.2  374919.57  165976.67  44.27
945.3  374575.50  165719.36  44.24
946.5  374049.00  165319.65  44.20
947.6  374280.53  165282.42  44.16
948.8  374209.55  165142.99  44.13
949.9  374270.40  165054.60  44.10
951.1  374045.97  164745.61  44.04
952.2  373864.00  164511.43  44.00
953.4  373740.83  164201.22  43.93
954.5  373744.80  164027.32  43.89
955.7  373850.40  163801.80  43.81
956.8  373625.87  163611.77  43.79
958.0  373301.33  163277.14  43.74
959.1  373349.15  163070.19  43.68
960.3  373019.45  162822.30  43.65
961.4  372934.50  162677.18  43.62
962.6  373210.83  162619.00  43.57
963.7  373057.55  162475.25  43.55
964.9  373023.15  162413.18  43.54
966.0  372903.75  162314.17  43.53
967.2  373155.90  162339.05  43.50
968.3  373015.80  162189.78  43.48
969.5  372766.67  162193.44  43.51
970.6  372840.22  162222.21  43.51
971.8  372883.93  162288.35  43.52
972.9  372796.65  162267.79  43.53
974.0  373046.87  162298.20  43.51
975.2  373190.75  162278.04  43.48
976.3  373105.02  162206.96  43.47
977.5  372880.55  162237.08  43.51
978.6  372893.20  162269.13  43.52
979.7  372908.55  162426.98  43.56
980.9  373065.28  162333.00  43.51
982.0  373081.13  162428.80  43.54
983.2  372634.63  162401.16  43.58
984.3  372684.27  162285.46  43.55
985.4  372602.30  162579.58  43.63
986.6  372569.17  162567.66  43.63
987.7  373507.52  162963.08  43.63
988.9  373195.20  162993.86  43.68
990.0  374037.80  163212.72  43.64
993.1  327357.33  142032.84  43.39
996.9  327837.93  142685.71  43.52
1000.7  328786.15  143435.19  43.63
1004.5  329261.50  143987.13  43.73
1008.4  329052.13  144217.78  43.83
1012.2  329028.63  144541.14  43.93
1016.0  329025.60  144887.27  44.04
1019.8  329140.35  145244.14  44.13
1023.7  329106.02  145452.09  44.20
1027.5  328834.87  145550.49  44.26
1031.3  329073.78  145790.54  44.30
1035.1  328976.55  145894.45  44.35
1038.9  328987.08  145994.32  44.38
1042.7  328899.50  146041.72  44.40
1046.5  328807.67  146052.75  44.42
1050.3  328852.48  146122.15  44.43
1054.2  328582.33  146081.25  44.46
1058.0  328138.83  145919.08  44.47
1061.8  328048.85  145913.74  44.48
1065.6  327813.83  145807.54  44.48
1069.4  327820.00  145803.96  44.48
1073.2  327487.32  145639.37  44.47
1077.0  327062.33  145438.96  44.47
1080.8  326642.71  145168.31  44.44
1084.6  325705.45  144683.88  44.42
1088.4  325131.66  144395.97  44.41
1092.2  324411.75  143985.22  44.38
1096.0  323875.58  143663.82  44.36
1099.8  323484.85  143350.03  44.31
1103.6  322892.08  142957.05  44.27
1107.4  322079.94  142447.84  44.23
1111.2  321901.70  142207.85  44.18
1114.9  321323.33  141769.63  44.12
1118.7  320819.40  141291.92  44.04
1122.5  320223.80  140716.09  43.94
1126.3  319233.54  139916.27  43.83
1130.1  318811.33  139212.27  43.67
1133.9  317430.40  137873.10  43.43
1137.7  316161.40  136428.45  43.15
1141.4  314586.89  134676.91  42.81
1145.2  313930.80  133193.99  42.43
1149.0  312945.21  131654.38  42.07
1152.8  311490.40  130081.69  41.76
1156.6  310034.08  128775.35  41.54
1160.3  308522.33  127692.64  41.39
1164.1  306430.50  126555.13  41.30
1167.9  304845.83  125806.92  41.27
1171.7  303699.38  125312.07  41.26
1175.4  302641.50  124898.00  41.27
1179.2  301714.00  124497.19  41.26
1183.0  301466.00  124346.36  41.25
1186.7  301017.03  124093.65  41.22
1190.5  300093.47  123650.70  41.20
1194.3  299064.80  123195.43  41.19
1198.0  298003.20  122770.78  41.20
1201.8  296654.25  122267.31  41.22
1205.6  295581.67  121906.50  41.24
1209.3  294737.12  121678.25  41.28
1213.1  293934.68  121466.71  41.32
1216.8  293085.65  121271.86  41.38
1220.6  292107.20  121052.80  41.44
1224.3  291027.58  120766.82  41.50
1228.1  289952.40  120540.52  41.57
1231.9  288875.60  120240.72  41.62
1235.6  287589.53  119856.09  41.68
1239.4  286415.25  119528.60  41.73
1243.1  285328.32  119170.12  41.77
1246.9  284262.98  118794.18  41.79
1250.6  283382.53  118482.97  41.81
1254.3  282429.77  118129.79  41.83
1258.1  281531.95  117783.78  41.84
1261.8  280409.87  117304.89  41.83
1265.6  279126.07  116753.39  41.83
1269.3  277857.73  116165.95  41.81
1273.1  277790.98  116056.66  41.78
1276.8  278045.60  116031.17  41.73
1280.6  277906.00  115833.92  41.68
1284.3  276668.00  115173.69  41.63
1288.0  275393.70  114441.11  41.56
1291.8  274256.78  113717.19  41.46
1295.5  273056.67  112924.12  41.36
1299.2  271968.87  112133.30  41.23
1302.9  270695.33  111192.66  41.08
1306.7  269322.78  110163.90  40.90
1310.4  267997.14  109054.69  40.69
1314.1  266793.82  107936.17  40.46
1317.9  265720.00  106775.54  40.18
1321.6  264471.73  105460.55  39.88
1325.3  263027.10  103953.04  39.52
1329.0  261834.07  102510.78  39.15
1332.8  259982.80  100706.10  38.74
1336.5  258388.33  98973.80  38.30
1340.2  258076.00  97714.50  37.86
1343.9  257735.63  96425.18  37.41
1347.6  257257.95  95070.47  36.96
