/*** Spectra Vista SIG Data ***/
name= 7_20220926_BENI_QUPA_36_avg.sig
comm= Averaged Ref/Tar of files: HR.092622.0018_moc.sig,HR.092622.0019_moc.sig
data=
337.3  6217.05  435.48  7.00
338.8  6445.40  412.29  6.40
340.3  6900.33  424.01  6.14
341.8  7076.55  388.82  5.49
343.2  7461.30  411.14  5.51
344.7  7814.63  390.12  4.99
346.2  8142.75  397.15  4.88
347.7  8627.35  382.18  4.43
349.2  8920.80  365.04  4.09
350.6  9350.40  388.21  4.15
352.1  9834.25  390.14  3.97
353.6  10320.00  393.15  3.81
355.1  10777.05  389.65  3.62
356.6  11453.20  399.75  3.49
358.0  11968.43  389.00  3.25
359.5  12499.88  383.27  3.07
361.0  13164.60  393.08  2.99
362.5  13784.33  413.61  3.00
364.0  14483.20  444.52  3.07
365.4  15159.05  450.51  2.97
366.9  15764.93  456.62  2.90
368.4  16462.60  461.20  2.80
369.9  17278.00  457.32  2.65
371.3  18121.13  499.74  2.76
372.8  18805.90  519.50  2.76
374.3  19725.00  544.04  2.76
375.8  20496.10  535.80  2.61
377.2  21323.25  559.60  2.62
378.7  22176.18  577.92  2.61
380.2  23040.83  570.94  2.48
381.7  23948.50  578.75  2.42
383.1  24938.93  589.02  2.36
384.6  25866.90  605.37  2.34
386.1  26837.03  614.63  2.29
387.6  27759.60  638.41  2.30
389.0  28833.75  654.57  2.27
390.5  29862.35  674.84  2.26
392.0  30998.25  696.41  2.25
393.4  32109.38  726.59  2.26
394.9  33085.00  747.51  2.26
396.4  34256.20  767.68  2.24
397.9  35370.60  801.60  2.27
399.3  36352.53  806.11  2.22
400.8  37577.10  842.78  2.24
402.2  38806.35  874.97  2.25
403.7  40048.35  916.20  2.29
405.2  41259.50  940.44  2.28
406.6  42491.40  986.25  2.32
408.1  43584.75  1010.06  2.32
409.6  44785.43  1022.94  2.28
411.0  46009.70  1067.79  2.32
412.5  47402.95  1109.91  2.34
414.0  48782.30  1157.70  2.37
415.4  50116.50  1199.70  2.39
416.9  51484.30  1225.46  2.38
418.4  52816.55  1269.30  2.40
419.8  54191.55  1300.88  2.40
421.3  55682.55  1356.30  2.44
422.7  57155.80  1407.05  2.46
424.2  58700.03  1454.28  2.48
425.7  60182.38  1499.03  2.49
427.1  61707.00  1543.77  2.50
428.6  63172.60  1588.75  2.51
430.0  64705.58  1634.35  2.53
431.5  66411.80  1678.48  2.53
432.9  68100.00  1732.50  2.54
434.4  69839.28  1782.32  2.55
435.9  71544.00  1842.80  2.58
437.3  73245.38  1885.81  2.57
438.8  74910.03  1935.34  2.58
440.2  76582.28  1990.64  2.60
441.7  78500.90  2047.34  2.61
443.1  80335.80  2099.64  2.61
444.6  82154.30  2165.65  2.64
446.0  84026.33  2228.81  2.65
447.5  85975.00  2284.29  2.66
448.9  87736.00  2349.36  2.68
450.4  89700.00  2405.00  2.68
451.8  91505.25  2462.25  2.69
453.3  93391.13  2532.56  2.71
454.7  95242.05  2594.81  2.72
456.2  97038.90  2656.47  2.74
457.6  98983.35  2709.38  2.74
459.1  100842.00  2768.75  2.75
460.5  102731.85  2822.31  2.75
462.0  104791.50  2882.93  2.75
463.4  106836.28  2949.79  2.76
464.8  108813.60  3005.69  2.76
466.3  110790.90  3067.21  2.77
467.7  112852.80  3128.00  2.77
469.2  114735.90  3185.86  2.78
470.6  116800.25  3246.48  2.78
472.0  118890.63  3302.93  2.78
473.5  120937.35  3360.28  2.78
474.9  123148.50  3435.88  2.79
476.4  125266.80  3498.04  2.79
477.8  127400.00  3569.60  2.80
479.2  129503.53  3634.44  2.81
480.7  131678.33  3700.70  2.81
482.1  133928.30  3777.06  2.82
483.6  136179.90  3839.04  2.82
485.0  138504.23  3913.31  2.83
486.4  140627.68  3993.07  2.84
487.9  142916.75  4068.81  2.85
489.3  145109.63  4160.61  2.87
490.7  147342.55  4253.68  2.89
492.2  149649.75  4351.92  2.91
493.6  151942.70  4459.27  2.93
495.0  154296.68  4564.40  2.96
496.5  156492.00  4685.85  2.99
497.9  158843.25  4814.83  3.03
499.3  161170.00  4957.52  3.08
500.7  163517.40  5111.79  3.13
502.2  165906.55  5298.24  3.19
503.6  168269.40  5482.08  3.26
505.0  170573.15  5708.70  3.35
506.5  173098.65  5957.98  3.44
507.9  175605.70  6248.69  3.56
509.3  177936.53  6568.99  3.69
510.7  180592.43  6941.11  3.84
512.2  183292.20  7354.23  4.01
513.6  186173.38  7835.88  4.21
515.0  188973.05  8374.38  4.43
516.4  191854.80  8998.16  4.69
517.8  194701.25  9676.09  4.97
519.3  197662.40  10414.49  5.27
520.7  200377.40  11185.33  5.58
522.1  203067.80  11995.40  5.91
523.5  205694.10  12826.18  6.24
524.9  208614.90  13689.44  6.56
526.3  211270.95  14530.17  6.88
527.8  214086.38  15361.81  7.18
529.2  216720.00  16161.74  7.46
530.6  219545.10  16937.69  7.71
532.0  222570.73  17681.73  7.94
533.4  225046.90  18340.12  8.15
534.8  227540.78  18942.31  8.32
536.3  230606.10  19536.93  8.47
537.7  233721.50  20096.32  8.60
539.1  236680.60  20610.25  8.71
540.5  239544.75  21100.37  8.81
541.9  242509.13  21588.55  8.90
543.3  245077.00  22038.77  8.99
544.7  248050.00  22528.00  9.08
546.1  250873.70  23002.00  9.17
547.5  253843.20  23487.84  9.25
549.0  257028.80  23969.33  9.33
550.4  259930.13  24405.62  9.39
551.8  262865.38  24784.16  9.43
553.2  265785.45  25096.55  9.44
554.6  268670.00  25328.88  9.43
556.0  271639.20  25477.29  9.38
557.4  274779.20  25547.62  9.30
558.8  277674.80  25519.37  9.19
560.2  280900.00  25458.29  9.06
561.6  283840.43  25321.46  8.92
563.0  286674.05  25116.11  8.76
564.4  289863.70  24904.62  8.59
565.8  292905.35  24619.47  8.41
567.2  296086.68  24303.76  8.21
568.6  299143.80  23920.27  8.00
570.0  302066.38  23471.08  7.77
571.4  305487.73  23031.71  7.54
572.8  308673.60  22576.39  7.31
574.2  311574.38  22118.48  7.10
575.6  314665.38  21707.80  6.90
577.0  317728.13  21340.16  6.72
578.4  321168.75  21048.13  6.55
579.8  324237.60  20774.47  6.41
581.2  327342.00  20545.65  6.28
582.5  330232.50  20327.79  6.16
583.9  333349.50  20156.95  6.05
585.3  336263.60  20019.18  5.95
586.7  339269.70  19912.86  5.87
588.1  342277.00  19830.30  5.79
589.5  345643.35  19804.88  5.73
590.9  348655.05  19787.01  5.68
592.3  351615.38  19800.66  5.63
593.7  354609.85  19854.07  5.60
595.0  357561.00  19921.08  5.57
596.4  360886.50  20013.72  5.55
597.8  363548.40  20061.36  5.52
599.2  366738.45  20128.63  5.49
600.6  369967.95  20156.03  5.45
602.0  372964.80  20132.85  5.40
603.3  375882.00  20074.23  5.34
604.7  378872.58  19972.21  5.27
606.1  381928.35  19822.21  5.19
607.5  385267.60  19629.13  5.09
608.9  388376.45  19416.32  5.00
610.2  391604.40  19183.52  4.90
611.6  394542.50  18938.86  4.80
613.0  397410.15  18684.28  4.70
614.4  400165.25  18450.45  4.61
615.8  403431.70  18251.35  4.52
617.1  406185.98  18056.74  4.45
618.5  409462.13  17940.24  4.38
619.9  412244.85  17826.03  4.32
621.3  415218.38  17756.65  4.28
622.6  418187.25  17723.00  4.24
624.0  420912.00  17699.67  4.21
625.4  424027.43  17734.80  4.18
626.8  427027.90  17794.07  4.17
628.1  429870.00  17874.76  4.16
629.5  432648.83  17973.30  4.15
630.9  435600.35  18070.14  4.15
632.2  438654.95  18168.48  4.14
633.6  441168.00  18231.01  4.13
635.0  444140.28  18270.98  4.11
636.3  447165.83  18283.22  4.09
637.7  449920.83  18219.26  4.05
639.1  452958.55  18139.05  4.00
640.4  455686.50  17986.66  3.95
641.8  458553.60  17816.25  3.89
643.2  461173.40  17625.44  3.82
644.5  464100.00  17424.00  3.75
645.9  466796.75  17233.63  3.69
647.2  469696.15  17067.99  3.63
648.6  472584.00  16914.59  3.58
650.0  475396.20  16771.73  3.53
651.3  477833.45  16646.72  3.48
652.7  481263.00  16539.39  3.44
654.0  484235.55  16414.94  3.39
655.4  486558.45  16273.40  3.34
656.8  488083.58  16106.57  3.30
658.1  490654.50  15933.51  3.25
659.5  493992.00  15790.22  3.20
660.8  497270.55  15638.22  3.14
662.2  500033.33  15468.95  3.09
663.5  502863.53  15313.00  3.05
664.9  504894.93  15189.84  3.01
666.2  506983.10  15103.18  2.98
667.6  509537.25  15083.42  2.96
668.9  512308.80  15128.64  2.95
670.3  515143.13  15177.75  2.95
671.6  517534.40  15266.43  2.95
673.0  519908.80  15400.89  2.96
674.3  522344.90  15560.60  2.98
675.7  524858.40  15748.90  3.00
677.0  527221.35  15982.77  3.03
678.4  529483.40  16243.39  3.07
679.7  531950.55  16555.82  3.11
681.1  534564.75  16915.49  3.16
682.4  536806.50  17305.95  3.22
683.8  539179.50  17775.71  3.30
685.1  541407.30  18315.36  3.38
686.4  543597.60  18978.72  3.49
687.8  546154.65  19804.86  3.63
689.1  548566.90  20868.10  3.80
690.5  550579.65  22220.79  4.04
691.8  553330.80  24084.25  4.35
693.1  555756.00  26541.22  4.78
694.5  558136.40  29683.54  5.32
695.8  560539.90  33642.76  6.00
697.1  562812.30  38372.35  6.82
698.5  565205.50  43911.68  7.77
699.8  567628.40  50206.03  8.84
701.1  569525.25  57100.68  10.03
702.5  571639.13  64528.37  11.29
703.8  574142.90  72404.74  12.61
705.1  576009.35  80455.03  13.97
706.5  578324.95  88775.12  15.35
707.8  580192.13  97111.12  16.74
709.1  582558.50  105572.29  18.12
710.5  584795.80  114010.11  19.50
711.8  586735.00  122398.89  20.86
713.1  588713.00  130748.26  22.21
714.4  590819.30  139062.95  23.54
715.8  593142.75  147379.27  24.85
717.1  595426.85  155573.01  26.13
718.4  597714.30  163635.14  27.38
719.7  599959.80  171544.88  28.59
721.0  601733.13  179138.95  29.77
722.4  603548.55  186596.27  30.92
723.7  605612.35  193843.31  32.01
725.0  607382.70  200760.95  33.05
726.3  609783.20  207601.09  34.05
727.6  611535.00  213990.47  34.99
729.0  613365.55  220141.80  35.89
730.3  615398.13  226032.53  36.73
731.6  616970.90  231447.96  37.51
732.9  618987.85  236738.94  38.25
734.2  620639.25  241617.99  38.93
735.5  622483.40  246297.40  39.57
736.8  624513.23  250778.39  40.16
738.1  626366.10  254936.92  40.70
739.5  628191.00  258792.43  41.20
740.8  630178.45  262484.87  41.65
742.1  631815.13  265833.78  42.07
743.4  633617.60  269042.84  42.46
744.7  635579.00  272104.00  42.81
746.0  637081.70  274800.85  43.13
747.3  638694.70  277321.74  43.42
748.6  640265.05  279670.79  43.68
749.9  642102.93  281955.70  43.91
751.2  643457.43  283884.15  44.12
752.5  645088.63  285822.65  44.31
753.8  646456.05  287524.79  44.48
755.1  648113.33  289232.50  44.63
756.4  649298.78  290639.95  44.76
757.7  651352.63  292307.40  44.88
759.0  655091.18  294646.64  44.98
760.3  657829.55  296480.25  45.07
761.6  660745.63  298319.51  45.15
762.9  662268.75  299438.78  45.21
764.2  663075.90  300203.14  45.27
765.5  664010.25  300995.34  45.33
766.8  664587.60  301565.51  45.38
768.1  665733.60  302352.48  45.42
769.3  667031.05  303178.81  45.45
770.6  668533.45  304058.55  45.48
771.9  669822.15  304821.24  45.51
773.2  671290.43  305681.56  45.54
774.5  672183.30  306275.10  45.56
775.8  673375.95  306945.55  45.58
777.1  674605.75  307651.51  45.60
778.4  675998.88  308385.95  45.62
779.6  677389.80  309140.11  45.64
780.9  678156.30  309604.91  45.65
782.2  679192.30  310191.79  45.67
783.5  680194.00  310746.10  45.68
784.8  681090.38  311208.98  45.69
786.0  681954.38  311706.98  45.71
787.3  682803.93  312182.99  45.72
788.6  683817.13  312741.12  45.73
789.9  684571.90  313183.33  45.75
791.2  686004.40  313908.49  45.76
792.4  687222.25  314537.26  45.77
793.7  688864.33  315349.36  45.78
795.0  689973.65  315926.48  45.79
796.2  691376.40  316642.95  45.80
797.5  692695.00  317304.84  45.81
798.8  694222.38  318083.63  45.82
800.0  695450.00  318660.00  45.82
801.3  696701.25  319344.53  45.84
802.6  697824.00  319902.17  45.84
803.8  698954.55  320491.61  45.85
805.1  700039.50  321026.98  45.86
806.4  701110.25  321548.68  45.86
807.7  702318.48  322161.11  45.87
808.9  703570.85  322775.89  45.88
810.2  704428.20  323276.40  45.89
811.4  705496.40  323865.75  45.91
812.7  706912.05  324565.16  45.91
814.0  708246.00  325213.35  45.92
815.2  709732.50  325933.08  45.92
816.5  710885.00  326524.50  45.93
817.7  711744.00  326976.66  45.94
819.0  712492.20  327372.36  45.95
820.2  713345.10  327848.93  45.96
821.5  714516.40  328414.65  45.96
822.7  715450.40  328941.25  45.98
824.0  716475.50  329470.31  45.98
825.2  717252.90  329819.55  45.98
826.5  718066.85  330239.77  45.99
827.7  719146.20  330807.79  46.00
829.0  720013.05  331278.36  46.01
830.2  720857.40  331766.67  46.02
831.5  721847.70  332242.41  46.03
832.7  722720.70  332691.79  46.03
834.0  723463.65  333050.13  46.04
835.2  724539.35  333564.14  46.04
836.4  725248.80  333976.94  46.05
837.7  726001.88  334366.07  46.06
838.9  727085.80  334999.00  46.07
840.1  727971.75  335462.40  46.08
841.4  729051.60  335995.19  46.09
842.6  729897.70  336441.78  46.09
843.8  730645.50  336868.82  46.11
845.1  731367.45  337328.41  46.12
846.3  732307.80  337803.33  46.13
847.5  733284.50  338304.48  46.14
848.8  734130.75  338758.50  46.14
850.0  735248.20  339357.03  46.16
851.2  736180.55  339838.18  46.16
852.5  737307.10  340457.33  46.18
853.7  737966.70  340829.82  46.18
854.9  739087.05  341399.65  46.19
856.1  740101.20  341901.65  46.20
857.4  741048.53  342341.76  46.20
858.6  741875.40  342809.64  46.21
859.8  742930.30  343406.92  46.22
861.0  743938.30  343885.37  46.22
862.2  745006.50  344385.36  46.23
863.5  745970.13  344871.25  46.23
864.7  747068.75  345349.11  46.23
865.9  747954.38  345826.36  46.24
867.1  748475.00  346205.36  46.25
868.3  749634.55  346749.95  46.26
869.5  750799.65  347314.19  46.26
870.8  752032.35  347893.77  46.26
872.0  753040.08  348367.80  46.26
873.2  753865.05  348784.87  46.27
874.4  754727.55  349218.32  46.27
875.6  755840.83  349758.63  46.27
876.8  757196.55  350363.17  46.27
878.0  758069.90  350907.70  46.29
879.2  759223.40  351395.10  46.28
880.4  760280.00  351886.80  46.28
881.6  761258.60  352383.73  46.29
882.8  762674.25  352980.08  46.28
884.0  763518.93  353433.59  46.29
885.2  764957.50  354071.02  46.29
886.5  766158.93  354633.23  46.29
887.7  767230.40  355074.11  46.28
888.8  768803.65  355667.92  46.26
890.0  769728.75  356160.00  46.27
891.2  770785.28  356631.52  46.27
892.4  772136.48  357359.74  46.28
893.6  773802.10  358136.82  46.28
894.8  775566.30  358850.83  46.27
896.0  777064.80  359544.77  46.27
897.2  778845.38  360373.86  46.27
898.4  780782.10  361323.06  46.28
899.6  782288.90  361850.37  46.26
900.8  782693.60  362091.77  46.26
902.0  783384.85  362355.44  46.26
903.2  783578.60  362449.10  46.26
904.3  784485.00  362965.34  46.27
905.5  785862.00  363559.82  46.26
906.7  787263.00  364144.69  46.25
907.9  788418.38  364662.76  46.25
909.1  789615.75  365119.92  46.24
910.2  789783.75  365215.50  46.24
911.4  790234.20  365254.40  46.22
912.6  790550.00  365468.29  46.23
913.8  791542.85  365967.74  46.23
915.0  792343.80  366204.71  46.22
916.2  792570.68  366257.21  46.21
917.3  793382.43  366605.24  46.21
918.5  793367.40  366730.04  46.22
919.7  793767.75  366746.45  46.20
920.8  794135.70  366868.22  46.20
922.0  794213.75  366899.83  46.20
923.2  794866.35  367092.80  46.18
924.4  795573.50  367444.94  46.19
925.5  796623.40  367714.28  46.16
926.7  797659.35  367913.97  46.12
927.9  798714.23  368521.07  46.14
929.0  801967.50  369926.69  46.13
930.2  806037.00  371879.19  46.14
931.4  811197.45  374170.41  46.13
932.5  816173.60  376192.73  46.09
933.7  819246.30  377361.12  46.06
934.9  820706.25  377816.25  46.04
936.0  819702.68  377300.53  46.03
937.2  816754.40  375769.53  46.01
938.3  812773.00  373848.80  46.00
939.5  810587.70  372754.98  45.99
940.7  810784.98  372495.42  45.94
941.8  814069.75  373673.34  45.90
943.0  816063.83  374545.14  45.90
944.2  818010.00  375139.55  45.86
945.3  817451.40  374731.99  45.84
946.5  815710.00  373734.50  45.82
947.6  816788.50  374045.17  45.79
948.8  815890.28  373122.93  45.73
949.9  816603.55  373123.44  45.69
951.1  816827.70  372820.05  45.64
952.2  816681.58  372122.53  45.57
953.4  816021.45  371669.72  45.55
954.5  814398.38  370533.45  45.50
955.7  814135.90  369904.35  45.44
956.8  814792.33  369674.41  45.37
958.0  813996.45  368933.74  45.32
959.1  813758.40  368452.80  45.28
960.3  813537.50  368123.57  45.25
961.4  814245.20  368137.61  45.21
962.6  813808.80  367630.15  45.17
963.7  813947.40  367529.48  45.15
964.9  814274.68  367497.21  45.13
966.0  815427.55  367472.57  45.07
967.2  815568.60  367741.20  45.09
968.3  816883.45  368394.11  45.10
969.5  816929.05  368354.56  45.09
970.6  817148.60  368285.50  45.07
971.8  817258.58  368230.07  45.06
972.9  818482.00  368534.10  45.03
974.0  818967.95  368923.04  45.05
975.2  817796.25  368294.95  45.04
976.3  818524.90  368669.11  45.04
977.5  818448.15  368268.77  45.00
978.6  818464.43  368001.30  44.96
979.7  818417.60  367752.00  44.93
980.9  819507.45  368267.64  44.94
982.0  818822.05  368072.57  44.95
983.2  818637.40  367993.04  44.95
984.3  816486.30  367150.15  44.97
985.4  816629.80  366726.96  44.91
986.6  816919.33  366764.79  44.90
987.7  817293.63  366958.97  44.90
988.9  816967.95  367495.21  44.98
990.0  816766.80  367883.27  45.04
993.1  846301.20  380556.77  44.97
996.9  846850.90  381838.33  45.09
1000.7  846908.83  382715.34  45.19
1004.5  846035.47  383165.57  45.29
1008.4  846754.22  384396.95  45.40
1012.2  847965.13  385696.06  45.48
1016.0  847931.38  386451.71  45.58
1019.8  846981.38  386706.05  45.66
1023.7  846316.81  386970.64  45.72
1027.5  844652.33  386860.36  45.80
1031.3  843801.34  386869.89  45.85
1035.1  843246.53  387016.65  45.90
1038.9  842982.29  387194.87  45.93
1042.7  842673.30  387381.18  45.97
1046.5  841941.63  387319.51  46.00
1050.3  840312.62  386792.54  46.03
1054.2  838309.18  386111.44  46.06
1058.0  837284.40  385776.00  46.07
1061.8  836034.08  385387.38  46.10
1065.6  834324.67  384613.69  46.10
1069.4  832651.23  383879.93  46.10
1073.2  831213.50  383217.48  46.10
1077.0  829840.00  382521.54  46.10
1080.8  828787.67  381896.82  46.08
1084.6  827566.67  381170.04  46.06
1088.4  826248.48  380458.41  46.05
1092.2  824697.53  379574.80  46.03
1096.0  823378.63  378732.34  46.00
1099.8  822035.00  377768.90  45.96
1103.6  820322.85  376671.17  45.92
1107.4  818980.73  375652.49  45.87
1111.2  817517.45  374630.05  45.83
1114.9  816351.00  373612.50  45.77
1118.7  815523.58  372599.61  45.69
1122.5  815215.92  371683.12  45.59
1126.3  812583.45  369539.55  45.48
1130.1  812008.23  367805.61  45.30
1133.9  808689.59  364313.09  45.05
1137.7  806078.80  360721.54  44.75
1141.4  802596.30  356231.87  44.38
1145.2  801842.72  352677.48  43.98
1149.0  799917.15  348792.30  43.60
1152.8  796650.15  344736.61  43.27
1156.6  793229.35  341218.99  43.02
1160.3  790077.60  338439.54  42.84
1164.1  785471.20  335478.32  42.71
1167.9  782342.92  333556.37  42.64
1171.7  779823.53  332052.12  42.58
1175.4  777608.98  330798.98  42.54
1179.2  775799.25  329689.77  42.50
1183.0  776015.50  329345.58  42.44
1186.7  775751.67  328842.50  42.39
1190.5  773933.08  327827.22  42.36
1194.3  770977.90  326445.45  42.34
1198.0  768126.53  325224.82  42.34
1201.8  765739.33  324302.00  42.35
1205.6  764018.29  323800.17  42.38
1209.3  762594.00  323638.72  42.44
1213.1  761015.38  323425.71  42.50
1216.8  758973.87  323182.06  42.58
1220.6  756826.67  322899.11  42.66
1224.3  754554.17  322545.54  42.75
1228.1  752566.77  322395.59  42.84
1231.9  750366.50  322070.91  42.92
1235.6  748050.05  321555.06  42.99
1239.4  745799.07  321122.53  43.06
1243.1  743718.60  320576.60  43.10
1246.9  741733.85  320013.44  43.14
1250.6  739650.97  319374.89  43.18
1254.3  737827.20  318747.09  43.20
1258.1  735863.33  318019.14  43.22
1261.8  733421.97  317031.15  43.23
1265.6  730888.99  315929.22  43.23
1269.3  728193.07  314648.77  43.21
1273.1  728558.66  314584.06  43.18
1276.8  729078.67  314526.95  43.14
1280.6  728859.42  314124.48  43.10
1284.3  726541.78  312722.75  43.04
1288.0  724483.28  311311.12  42.97
1291.8  722358.00  309752.10  42.88
1295.5  720293.72  308109.79  42.78
1299.2  717954.90  306202.38  42.65
1302.9  715205.43  303919.81  42.49
1306.7  712255.95  301363.54  42.31
1310.4  709384.27  298526.72  42.08
1314.1  707049.38  295768.93  41.83
1317.9  704635.75  292707.19  41.54
1321.6  701891.34  289232.13  41.21
1325.3  699043.50  285438.51  40.83
1329.0  696352.07  281550.50  40.43
1332.8  692556.25  276939.65  39.99
1336.5  688925.71  272361.26  39.53
1340.2  686939.85  268413.94  39.07
