/*** Spectra Vista SIG Data ***/
name= 24_20221020_LIST_48_avg.sig
comm= Averaged Ref/Tar of files: HR.102022.0068_moc.sig,HR.102022.0069_moc.sig,HR.102022.0070_moc.sig
data=
337.3  2977.50  212.68  7.14
338.8  3174.60  206.14  6.49
340.3  3326.35  209.71  6.30
341.8  3520.83  209.03  5.94
343.2  3685.20  202.97  5.51
344.7  3881.15  203.10  5.23
346.2  4003.30  198.41  4.96
347.7  4207.78  202.24  4.81
349.2  4384.80  198.00  4.52
350.6  4627.35  192.37  4.16
352.1  4894.33  193.94  3.96
353.6  5170.30  191.68  3.71
355.1  5421.68  198.84  3.67
356.6  5702.85  206.01  3.61
358.0  5965.30  212.67  3.57
359.5  6272.70  211.89  3.38
361.0  6553.58  216.60  3.31
362.5  6908.90  225.84  3.27
364.0  7226.10  229.40  3.17
365.4  7558.90  238.18  3.15
366.9  7928.38  247.31  3.12
368.4  8318.88  254.57  3.06
369.9  8648.00  259.95  3.01
371.3  9024.60  272.09  3.01
372.8  9451.80  288.26  3.05
374.3  9863.13  291.79  2.96
375.8  10267.95  297.73  2.90
377.2  10679.30  309.99  2.90
378.7  11055.90  304.87  2.76
380.2  11459.40  307.43  2.68
381.7  11945.05  316.58  2.65
383.1  12370.05  320.83  2.59
384.6  12867.08  336.55  2.62
386.1  13296.30  347.46  2.61
387.6  13744.50  356.77  2.60
389.0  14230.80  362.44  2.55
390.5  14682.15  369.17  2.51
392.0  15182.30  375.34  2.47
393.4  15712.45  387.87  2.47
394.9  16234.20  395.23  2.43
396.4  16792.88  406.61  2.42
397.9  17322.50  419.76  2.42
399.3  17854.13  436.55  2.45
400.8  18369.73  443.90  2.42
402.2  18977.15  453.59  2.39
403.7  19572.98  456.28  2.33
405.2  20171.10  473.50  2.35
406.6  20717.60  488.31  2.36
408.1  21289.20  507.96  2.39
409.6  21862.20  518.44  2.37
411.0  22502.90  532.73  2.37
412.5  23178.23  549.38  2.37
414.0  23798.00  570.50  2.40
415.4  24446.25  590.57  2.42
416.9  25096.05  616.80  2.46
418.4  25771.50  634.95  2.46
419.8  26481.00  653.47  2.47
421.3  27183.13  677.35  2.49
422.7  27927.00  702.63  2.52
424.2  28670.63  724.82  2.53
425.7  29388.90  757.56  2.58
427.1  30146.63  782.21  2.59
428.6  30938.00  810.43  2.62
430.0  31655.05  835.35  2.64
431.5  32506.65  859.97  2.65
432.9  33343.40  890.16  2.67
434.4  34208.10  919.53  2.69
435.9  35014.00  950.67  2.72
437.3  35846.25  976.90  2.73
438.8  36679.65  1005.84  2.74
440.2  37527.88  1031.80  2.75
441.7  38471.40  1061.79  2.76
443.1  39339.25  1090.29  2.77
444.6  40282.50  1121.61  2.78
446.0  41208.60  1152.92  2.80
447.5  42148.43  1187.87  2.82
448.9  43060.20  1219.97  2.83
450.4  44042.95  1250.60  2.84
451.8  44902.00  1276.47  2.84
453.3  45801.73  1305.01  2.85
454.7  46797.60  1337.57  2.86
456.2  47636.45  1365.32  2.87
457.6  48586.50  1394.51  2.87
459.1  49542.35  1426.41  2.88
460.5  50463.88  1454.69  2.88
462.0  51516.73  1483.88  2.88
463.4  52539.50  1516.13  2.89
464.8  53502.00  1542.11  2.88
466.3  54459.08  1572.14  2.89
467.7  55399.20  1603.21  2.89
469.2  56454.83  1634.04  2.89
470.6  57422.35  1665.93  2.90
472.0  58453.48  1693.02  2.90
473.5  59466.25  1721.91  2.90
474.9  60477.00  1756.14  2.90
476.4  61603.20  1793.83  2.91
477.8  62654.50  1825.62  2.91
479.2  63626.00  1853.24  2.91
480.7  64688.78  1881.75  2.91
482.1  65805.30  1914.28  2.91
483.6  66975.75  1951.44  2.91
485.0  68032.50  1987.90  2.92
486.4  69214.35  2025.91  2.93
487.9  70258.50  2064.21  2.94
489.3  71386.80  2099.37  2.94
490.7  72417.55  2133.02  2.95
492.2  73617.60  2178.40  2.96
493.6  74700.35  2224.01  2.98
495.0  75801.38  2268.97  2.99
496.5  76955.70  2321.45  3.02
497.9  78041.65  2377.35  3.05
499.3  79171.63  2433.26  3.07
500.7  80399.20  2494.69  3.10
502.2  81541.00  2561.26  3.14
503.6  82796.60  2639.12  3.19
505.0  83856.60  2720.71  3.24
506.5  85148.33  2821.32  3.31
507.9  86281.50  2925.47  3.39
509.3  87586.40  3045.98  3.48
510.7  88788.38  3177.11  3.58
512.2  90150.30  3329.25  3.69
513.6  91624.75  3500.03  3.82
515.0  93031.50  3698.50  3.98
516.4  94391.33  3916.35  4.15
517.8  95979.38  4166.20  4.34
519.3  97300.48  4432.96  4.56
520.7  98841.75  4732.84  4.79
522.1  100116.90  5044.31  5.04
523.5  101442.20  5373.34  5.30
524.9  102881.25  5723.49  5.56
526.3  104267.10  6074.83  5.83
527.8  105702.30  6446.31  6.10
529.2  106728.70  6804.34  6.38
530.6  108288.30  7196.10  6.65
532.0  109928.00  7588.00  6.90
533.4  111233.55  7947.19  7.14
534.8  112081.88  8265.00  7.37
536.3  113623.20  8614.74  7.58
537.7  115504.20  8985.60  7.78
539.1  116902.63  9314.18  7.97
540.5  118065.90  9618.19  8.15
541.9  119763.53  9959.41  8.32
543.3  121051.35  10263.17  8.48
544.7  122333.40  10568.35  8.64
546.1  124103.93  10909.90  8.79
547.5  125316.80  11193.60  8.93
549.0  126929.00  11504.95  9.06
550.4  128392.50  11782.62  9.18
551.8  129931.13  12038.60  9.27
553.2  131398.40  12255.75  9.33
554.6  132693.60  12413.64  9.36
556.0  134177.40  12545.19  9.35
557.4  135742.78  12642.72  9.31
558.8  137365.20  12711.77  9.25
560.2  138796.75  12731.61  9.17
561.6  140424.75  12737.36  9.07
563.0  141978.15  12707.67  8.95
564.4  143543.30  12659.00  8.82
565.8  145031.25  12571.91  8.67
567.2  146748.25  12480.24  8.50
568.6  148193.63  12335.36  8.32
570.0  149589.25  12149.85  8.12
571.4  151263.45  11968.73  7.91
572.8  152991.00  11786.14  7.70
574.2  154571.20  11601.07  7.51
575.6  156093.75  11427.86  7.32
577.0  157589.80  11268.79  7.15
578.4  159261.38  11145.33  7.00
579.8  160741.80  11025.84  6.86
581.2  162420.40  10937.82  6.73
582.5  163823.40  10845.34  6.62
583.9  165306.20  10776.21  6.52
585.3  167045.40  10735.91  6.43
586.7  168506.33  10691.95  6.35
588.1  169956.13  10664.22  6.27
589.5  171573.50  10661.00  6.21
590.9  173166.00  10668.72  6.16
592.3  174921.90  10705.75  6.12
593.7  176359.95  10733.91  6.09
595.0  177934.05  10781.55  6.06
596.4  179344.55  10818.80  6.03
597.8  180801.10  10857.23  6.01
599.2  182292.00  10890.63  5.97
600.6  184004.93  10920.15  5.93
602.0  185265.00  10907.49  5.89
603.3  187017.10  10901.94  5.83
604.7  188660.30  10857.95  5.76
606.1  190095.00  10783.71  5.67
607.5  191719.40  10698.38  5.58
608.9  193370.15  10597.71  5.48
610.2  194707.80  10477.35  5.38
611.6  196281.15  10353.56  5.27
613.0  197820.50  10230.60  5.17
614.4  199160.40  10104.63  5.07
615.8  200596.50  9992.36  4.98
617.1  202095.60  9898.00  4.90
618.5  203692.40  9831.43  4.83
619.9  205173.98  9778.01  4.77
621.3  206753.63  9744.19  4.71
622.6  208299.75  9732.40  4.67
624.0  209749.20  9736.44  4.64
625.4  211189.28  9752.84  4.62
626.8  212710.23  9790.08  4.60
628.1  213959.08  9829.26  4.59
629.5  215684.30  9892.96  4.59
630.9  217152.38  9949.97  4.58
632.2  218383.38  9992.62  4.58
633.6  219867.88  10035.25  4.56
635.0  221278.00  10061.18  4.55
636.3  222754.80  10062.01  4.52
637.7  224085.38  10031.16  4.48
639.1  225680.00  9978.33  4.42
640.4  227106.08  9903.05  4.36
641.8  228302.60  9793.57  4.29
643.2  229836.78  9683.72  4.21
644.5  231172.75  9557.78  4.13
645.9  232691.40  9441.13  4.06
647.2  233630.60  9308.60  3.98
648.6  235041.75  9214.71  3.92
650.0  236347.20  9129.60  3.86
651.3  237380.00  9045.22  3.81
652.7  239627.80  8998.28  3.76
654.0  241755.30  8937.54  3.70
655.4  243077.58  8849.71  3.64
656.8  243275.90  8718.96  3.58
658.1  244637.90  8610.87  3.52
659.5  246812.48  8501.10  3.44
660.8  248085.00  8361.43  3.37
662.2  249065.60  8226.13  3.30
663.5  250538.65  8111.12  3.24
664.9  251564.30  8000.20  3.18
666.2  252325.20  7905.32  3.13
667.6  254013.85  7869.03  3.10
668.9  254892.90  7825.83  3.07
670.3  256730.75  7820.60  3.05
671.6  257712.00  7823.82  3.04
673.0  258884.63  7851.21  3.03
674.3  260139.10  7894.96  3.03
675.7  261456.30  7951.20  3.04
677.0  262493.95  8017.10  3.05
678.4  263793.43  8101.01  3.07
679.7  264806.58  8205.88  3.10
681.1  266047.90  8340.14  3.13
682.4  267100.60  8499.03  3.18
683.8  268294.00  8713.71  3.25
685.1  269283.38  8968.00  3.33
686.4  270595.80  9315.55  3.44
687.8  271783.75  9768.81  3.59
689.1  272874.00  10360.02  3.80
690.5  274167.45  11160.10  4.07
691.8  274959.15  12204.99  4.44
693.1  276307.35  13613.73  4.93
694.5  277459.00  15387.67  5.55
695.8  278687.50  17593.33  6.31
697.1  279847.75  20228.00  7.23
698.5  280889.80  23296.68  8.29
699.8  281918.28  26760.82  9.49
701.1  283074.70  30598.29  10.81
702.5  283859.40  34681.90  12.22
703.8  284782.50  38991.43  13.69
705.1  285918.75  43489.55  15.21
706.5  286892.25  48070.03  16.76
707.8  287845.65  52684.27  18.30
709.1  288662.25  57281.70  19.84
710.5  289756.18  61918.92  21.37
711.8  290591.30  66458.25  22.87
713.1  291550.20  70994.71  24.35
714.4  292419.90  75441.96  25.80
715.8  293245.00  79804.27  27.21
717.1  294505.95  84210.54  28.59
718.4  295456.00  88422.40  29.93
719.7  296512.68  92567.03  31.22
721.0  297022.50  96420.00  32.46
722.4  297750.20  100222.94  33.66
723.7  298685.55  103946.25  34.80
725.0  299697.30  107543.36  35.88
726.3  300605.25  110962.11  36.91
727.6  301107.40  114064.13  37.88
729.0  301991.03  117118.37  38.78
730.3  302755.73  119971.21  39.63
731.6  303635.40  122697.20  40.41
732.9  304390.45  125223.93  41.14
734.2  305160.63  127611.92  41.82
735.5  306154.35  129934.18  42.44
736.8  306915.00  132024.80  43.02
738.1  307736.40  134001.61  43.54
739.5  308666.40  135902.64  44.03
740.8  309315.05  137565.82  44.47
742.1  309960.03  139134.04  44.89
743.4  310600.00  140592.86  45.26
744.7  311465.10  142054.13  45.61
746.0  312312.00  143427.89  45.92
747.3  312910.98  144580.89  46.21
748.6  313635.00  145718.03  46.46
749.9  314236.00  146741.52  46.70
751.2  314819.85  147682.75  46.91
752.5  315552.05  148639.09  47.10
753.8  316029.00  149429.62  47.28
755.1  316680.00  150213.14  47.43
756.4  317206.70  150912.28  47.58
757.7  318141.08  151763.95  47.70
759.0  319866.33  152919.22  47.81
760.3  320997.60  153746.06  47.90
761.6  322471.80  154733.47  47.98
762.9  322952.75  155216.24  48.06
764.2  323257.30  155604.97  48.14
765.5  323489.25  155923.96  48.20
766.8  323870.40  156288.61  48.26
768.1  324333.80  156681.03  48.31
769.3  324859.85  157086.23  48.36
770.6  325449.80  157526.20  48.40
771.9  326097.45  157959.78  48.44
773.2  326401.20  158225.87  48.48
774.5  326955.20  158596.53  48.51
775.8  327562.90  158974.49  48.53
777.1  328054.10  159303.36  48.56
778.4  328294.73  159514.32  48.59
779.6  328996.30  159923.33  48.61
780.9  329370.00  160197.14  48.64
782.2  329815.75  160460.40  48.65
783.5  330010.00  160644.95  48.68
784.8  330474.83  160912.37  48.69
786.0  330781.85  161128.57  48.71
787.3  331085.53  161331.85  48.73
788.6  331425.55  161552.79  48.74
789.9  331821.00  161791.20  48.76
791.2  332395.30  162114.92  48.77
792.4  332981.55  162450.55  48.79
793.7  333365.40  162686.63  48.80
795.0  333920.40  162994.62  48.81
796.2  334480.93  163305.40  48.82
797.5  335061.53  163630.81  48.84
798.8  335694.25  163963.99  48.84
800.0  336236.88  164281.67  48.86
801.3  336632.50  164502.54  48.87
802.6  337153.28  164789.51  48.88
803.8  337697.70  165103.03  48.89
805.1  338060.63  165331.42  48.91
806.4  338442.30  165560.83  48.92
807.7  338926.28  165830.91  48.93
808.9  339410.30  166105.06  48.94
810.2  339892.70  166351.07  48.94
811.4  340288.60  166605.95  48.96
812.7  340843.75  166926.19  48.97
814.0  341627.30  167323.74  48.98
815.2  342224.75  167636.19  48.98
816.5  342596.60  167851.88  48.99
817.7  343014.25  168098.51  49.01
819.0  343472.25  168366.68  49.02
820.2  343552.00  168478.09  49.04
821.5  344162.20  168836.53  49.06
822.7  344542.75  169030.98  49.06
824.0  344846.70  169200.51  49.07
825.2  345307.05  169444.29  49.07
826.5  345532.98  169622.70  49.09
827.7  346068.15  169917.03  49.10
829.0  346483.48  170129.14  49.10
830.2  346792.85  170296.38  49.11
831.5  347238.60  170548.21  49.12
832.7  347563.13  170724.85  49.12
834.0  347902.35  170924.03  49.13
835.2  348240.75  171121.45  49.14
836.4  348535.55  171314.47  49.15
837.7  348993.80  171561.07  49.16
838.9  349395.80  171813.02  49.17
840.1  349764.08  172028.77  49.18
841.4  350219.50  172271.52  49.19
842.6  350557.00  172508.23  49.21
843.8  350955.40  172730.48  49.22
845.1  351411.35  173025.03  49.24
846.3  351885.50  173259.72  49.24
847.5  352306.50  173512.80  49.25
848.8  352692.60  173758.06  49.27
850.0  353095.40  173976.07  49.27
851.2  353606.85  174263.92  49.28
852.5  353971.50  174504.08  49.30
853.7  354503.25  174801.64  49.31
854.9  355023.10  175064.27  49.31
856.1  355504.50  175306.98  49.31
857.4  355742.13  175447.13  49.32
858.6  356224.85  175757.08  49.34
859.8  356587.50  175987.86  49.35
861.0  357037.20  176228.74  49.36
862.2  357507.25  176489.38  49.37
863.5  357975.80  176689.50  49.36
864.7  358498.80  176964.23  49.36
865.9  358852.60  177187.60  49.38
867.1  359182.60  177395.05  49.39
868.3  359579.40  177629.74  49.40
869.5  360094.00  177892.78  49.40
870.8  360697.50  178172.14  49.40
872.0  361185.08  178429.28  49.40
873.2  361600.05  178650.90  49.41
874.4  362100.38  178897.18  49.41
875.6  362417.83  179121.47  49.42
876.8  362925.00  179380.96  49.43
878.0  363424.15  179622.22  49.42
879.2  363907.95  179854.27  49.42
880.4  364437.75  180104.36  49.42
881.6  364856.55  180346.12  49.43
882.8  365255.20  180550.78  49.43
884.0  365865.95  180859.30  49.43
885.2  366322.90  181079.62  49.43
886.5  366950.50  181355.54  49.42
887.7  367392.03  181550.42  49.42
888.8  368020.80  181889.34  49.42
890.0  368598.15  182152.91  49.42
891.2  369178.00  182429.44  49.42
892.4  369647.25  182692.35  49.42
893.6  370176.70  182945.71  49.42
894.8  370961.25  183332.45  49.42
896.0  371790.50  183725.93  49.42
897.2  372573.50  184123.03  49.42
898.4  373292.70  184442.03  49.41
899.6  373742.25  184669.96  49.41
900.8  374047.90  184815.05  49.41
902.0  374218.05  184911.46  49.41
903.2  374519.78  185009.28  49.40
904.3  374780.40  185156.74  49.40
905.5  375340.45  185418.76  49.40
906.7  375912.00  185621.14  49.38
907.9  376310.20  185852.10  49.39
909.1  376482.60  185983.65  49.40
910.2  376709.93  186006.20  49.38
911.4  376924.28  186089.33  49.37
912.6  377048.10  186110.42  49.36
913.8  377191.73  186151.90  49.35
915.0  377349.00  186318.30  49.38
916.2  377461.50  186370.79  49.37
917.3  377331.08  186325.46  49.38
918.5  377550.20  186365.15  49.36
919.7  377680.05  186362.50  49.34
920.8  377657.98  186323.68  49.34
922.0  377704.25  186327.17  49.33
923.2  377832.00  186368.00  49.33
924.4  377902.13  186371.36  49.32
925.5  378108.50  186345.12  49.28
926.7  378717.50  186538.37  49.26
927.9  379430.40  186836.97  49.24
929.0  380824.20  187441.07  49.22
930.2  382905.10  188396.94  49.20
931.4  385207.65  189444.47  49.18
932.5  387617.80  190558.62  49.16
933.7  388912.33  191098.95  49.14
934.9  389471.25  191212.92  49.10
936.0  388976.25  190838.30  49.06
937.2  386987.55  189700.24  49.02
938.3  384946.45  188672.55  49.01
939.5  383238.00  187747.55  48.99
940.7  383508.90  187632.94  48.93
941.8  384882.45  188189.26  48.90
943.0  386104.50  188673.43  48.87
944.2  386852.70  188860.10  48.82
945.3  386431.50  188408.07  48.76
946.5  385433.10  187792.97  48.72
947.6  385595.40  187557.99  48.64
948.8  385139.63  187224.88  48.61
949.9  385127.40  187078.80  48.58
951.1  384606.95  186507.35  48.49
952.2  384336.00  186067.43  48.41
953.4  384034.25  185538.09  48.31
954.5  383923.80  185167.54  48.23
955.7  383632.20  184701.60  48.15
956.8  383504.00  184218.88  48.04
958.0  382752.00  183697.33  47.99
959.1  382603.88  183353.19  47.92
960.3  381988.48  182928.69  47.89
961.4  381847.40  182636.27  47.83
962.6  381921.75  182415.50  47.76
963.7  381480.38  182101.24  47.74
964.9  381306.98  181885.54  47.70
966.0  381133.35  181737.00  47.68
967.2  381168.45  181609.41  47.65
968.3  380432.70  181391.02  47.68
969.5  380222.00  181191.23  47.65
970.6  380250.83  181071.82  47.62
971.8  380569.18  181137.87  47.60
972.9  380290.05  181090.50  47.62
974.0  380651.20  181107.29  47.58
975.2  380354.38  180926.20  47.57
976.3  380395.03  180867.33  47.55
977.5  380065.88  180839.68  47.58
978.6  380495.10  180730.88  47.50
979.7  380553.60  180851.95  47.52
980.9  380129.78  180799.45  47.56
982.0  379640.45  180644.04  47.58
983.2  379617.28  180478.17  47.54
984.3  379028.60  180282.65  47.56
985.4  378966.63  180184.79  47.55
986.6  378915.13  179967.87  47.50
987.7  379594.95  180511.03  47.55
988.9  379170.00  180294.52  47.55
990.0  379859.40  180608.21  47.55
993.1  387320.38  183340.34  47.34
996.9  385793.63  183225.98  47.49
1000.7  385727.83  183697.94  47.62
1004.5  385750.75  184283.12  47.77
1008.4  385374.96  184674.76  47.92
1012.2  385219.29  185101.06  48.05
1016.0  384870.60  185380.37  48.17
1019.8  384158.78  185452.58  48.27
1023.7  382831.42  185182.43  48.37
1027.5  381045.12  184676.14  48.47
1031.3  379840.45  184384.09  48.54
1035.1  378689.91  184091.85  48.61
1038.9  378179.27  184073.37  48.67
1042.7  377848.67  184172.97  48.74
1046.5  377765.33  184292.03  48.78
1050.3  377753.41  184422.78  48.82
1054.2  377368.83  184417.92  48.87
1058.0  377039.02  184321.12  48.89
1061.8  377025.24  184418.76  48.91
1065.6  376437.80  184155.82  48.92
1069.4  375516.33  183714.21  48.92
1073.2  374139.88  183008.87  48.91
1077.0  373480.98  182594.89  48.89
1080.8  373737.50  182618.00  48.86
1084.6  373961.47  182629.53  48.84
1088.4  374303.45  182740.57  48.82
1092.2  373873.50  182386.28  48.78
1096.0  373222.55  181881.30  48.73
1099.8  372474.48  181308.68  48.68
1103.6  371529.02  180627.45  48.62
1107.4  370379.44  179782.80  48.54
1111.2  370099.70  179365.41  48.46
1114.9  369576.67  178784.08  48.38
1118.7  369388.80  178234.30  48.25
1122.5  369067.40  177496.55  48.09
1126.3  368151.58  176367.73  47.91
1130.1  367794.27  175199.19  47.64
1133.9  366122.40  173041.60  47.26
1137.7  364554.50  170611.28  46.80
1141.4  362470.33  167669.57  46.26
1145.2  361516.58  165087.88  45.67
1149.0  360222.92  162530.63  45.12
1152.8  358405.45  160048.46  44.66
1156.6  356533.10  158007.48  44.32
1160.3  354731.33  156414.67  44.09
1164.1  352401.13  154941.01  43.97
1167.9  350773.96  153987.06  43.90
1171.7  349508.25  153292.50  43.86
1175.4  348031.87  152547.65  43.83
1179.2  346596.30  151790.66  43.79
1183.0  346314.33  151490.34  43.74
1186.7  346359.30  151388.90  43.71
1190.5  346091.67  151190.12  43.68
1194.3  345177.53  150759.75  43.68
1198.0  343676.03  150149.37  43.69
1201.8  341997.08  149508.08  43.72
1205.6  340940.67  149250.48  43.78
1209.3  340421.70  149298.16  43.86
1213.1  339994.05  149415.07  43.95
1216.8  339393.27  149505.65  44.05
1220.6  338245.60  149336.00  44.15
1224.3  336958.17  149092.93  44.25
1228.1  335406.60  148725.94  44.34
1231.9  333755.58  148256.39  44.42
1235.6  332016.53  147695.57  44.48
1239.4  330426.13  147230.63  44.56
1243.1  329045.31  146776.01  44.61
1246.9  327759.26  146338.96  44.65
1250.6  326709.47  145969.65  44.68
1254.3  325544.36  145521.54  44.70
1258.1  324305.22  145000.27  44.71
1261.8  322836.40  144347.03  44.71
1265.6  321723.55  143802.41  44.70
1269.3  321050.33  143405.53  44.67
1273.1  321437.68  143427.19  44.62
1276.8  321128.40  143066.57  44.55
1280.6  319853.77  142245.04  44.47
1284.3  317815.60  141007.20  44.37
1288.0  316647.53  140091.34  44.24
1291.8  316290.22  139448.63  44.09
1295.5  315616.40  138615.30  43.92
1299.2  314460.03  137468.45  43.72
1302.9  312791.00  135986.49  43.48
1306.7  310985.03  134336.65  43.20
1310.4  309245.25  132533.68  42.86
1314.1  307665.78  130687.26  42.48
1317.9  306235.00  128742.89  42.04
1321.6  304699.26  126609.52  41.55
1325.3  303007.95  124279.50  41.02
1329.0  301738.85  122026.50  40.44
1332.8  299822.60  119411.60  39.83
1336.5  298188.53  116890.32  39.20
1340.2  298070.50  115013.17  38.59
1343.9  298144.17  113202.14  37.97
1347.6  298540.35  111553.41  37.37
1351.4  300405.50  110501.72  36.78
1355.1  302972.27  109738.25  36.22
