/*** Spectra Vista SIG Data ***/
name= 43_20220926_ACSA_40_avg.sig
comm= Averaged Ref/Tar of files: HR.092722.0044_moc.sig,HR.092722.0045_moc.sig,HR.092722.0046_moc.sig
data=
337.3  3076.75  215.99  7.02
338.8  3270.80  221.72  6.78
340.3  3373.20  212.83  6.31
341.8  3520.83  215.13  6.11
343.2  3729.60  210.58  5.65
344.7  3881.15  212.03  5.46
346.2  4125.85  214.75  5.21
347.7  4286.43  211.61  4.94
349.2  4498.20  213.12  4.74
350.6  4737.53  216.51  4.57
352.1  5037.23  219.11  4.35
353.6  5309.10  213.82  4.03
355.1  5590.05  221.62  3.96
356.6  5899.50  229.43  3.89
358.0  6188.60  239.70  3.87
359.5  6458.10  245.14  3.80
361.0  6763.05  247.10  3.65
362.5  7143.10  256.79  3.59
364.0  7484.18  266.27  3.56
365.4  7868.00  272.71  3.47
366.9  8232.25  282.30  3.43
368.4  8591.63  294.57  3.43
369.9  8945.28  305.00  3.41
371.3  9371.70  321.16  3.43
372.8  9823.50  337.31  3.43
374.3  10239.38  341.44  3.33
375.8  10645.25  348.55  3.27
377.2  11082.80  357.39  3.22
378.7  11513.20  361.74  3.14
380.2  11916.70  366.10  3.07
381.7  12431.50  376.55  3.03
383.1  12909.05  384.23  2.98
384.6  13406.58  396.66  2.96
386.1  13890.85  411.29  2.96
387.6  14337.40  418.88  2.92
389.0  14820.40  427.78  2.89
390.5  15345.90  434.16  2.83
392.0  15896.45  446.88  2.81
393.4  16448.15  459.19  2.79
394.9  17017.20  476.26  2.80
396.4  17569.13  493.84  2.81
397.9  18091.25  500.79  2.77
399.3  18689.85  509.64  2.73
400.8  19242.10  520.10  2.70
402.2  19885.50  537.53  2.70
403.7  20463.75  553.49  2.70
405.2  21070.75  570.23  2.71
406.6  21645.60  588.84  2.72
408.1  22283.60  602.02  2.70
409.6  22893.85  620.87  2.71
411.0  23570.40  630.74  2.68
412.5  24219.48  648.75  2.68
414.0  24877.88  665.58  2.68
415.4  25559.25  689.57  2.70
416.9  26252.55  707.48  2.69
418.4  26948.03  731.17  2.71
419.8  27700.40  756.60  2.73
421.3  28430.88  780.06  2.74
422.7  29197.20  803.55  2.75
424.2  29953.13  829.93  2.77
425.7  30725.50  851.64  2.77
427.1  31491.75  879.42  2.79
428.6  32317.50  908.30  2.81
430.0  33081.50  931.31  2.82
431.5  33954.38  958.90  2.82
432.9  34823.05  986.57  2.83
434.4  35712.23  1021.03  2.86
435.9  36568.00  1051.07  2.87
437.3  37427.50  1078.00  2.88
438.8  38308.65  1105.78  2.89
440.2  39185.30  1132.93  2.89
441.7  40159.80  1164.65  2.90
443.1  41061.75  1196.03  2.91
444.6  42037.90  1231.90  2.93
446.0  42999.15  1265.37  2.94
447.5  43970.85  1300.87  2.96
448.9  44917.80  1332.51  2.97
450.4  45946.60  1365.67  2.97
451.8  46826.00  1402.39  2.99
453.3  47762.98  1435.76  3.01
454.7  48773.85  1470.46  3.01
456.2  49646.65  1501.60  3.02
457.6  50617.58  1535.10  3.03
459.1  51621.05  1565.88  3.03
460.5  52563.75  1595.45  3.04
462.0  53640.15  1631.63  3.04
463.4  54690.40  1666.83  3.05
464.8  55680.38  1702.00  3.06
466.3  56646.98  1734.43  3.06
467.7  57623.05  1767.82  3.07
469.2  58706.83  1802.27  3.07
470.6  59712.50  1835.33  3.07
472.0  60775.85  1871.31  3.08
473.5  61811.00  1903.92  3.08
474.9  62842.50  1941.94  3.09
476.4  63993.60  1979.93  3.09
477.8  65061.50  2015.64  3.10
479.2  66062.00  2051.13  3.10
480.7  67164.00  2085.92  3.11
482.1  68319.60  2124.29  3.11
483.6  69518.95  2165.30  3.11
485.0  70594.58  2208.20  3.13
486.4  71789.70  2259.41  3.15
487.9  72876.38  2299.89  3.16
489.3  74022.58  2347.87  3.17
490.7  75082.78  2393.86  3.19
492.2  76307.70  2449.02  3.21
493.6  77410.60  2502.50  3.23
495.0  78536.25  2563.69  3.26
496.5  79729.28  2631.58  3.30
497.9  80829.90  2704.39  3.35
499.3  82003.90  2784.76  3.40
500.7  83255.95  2875.31  3.45
502.2  84431.80  2969.92  3.52
503.6  85687.40  3082.27  3.60
505.0  86771.95  3201.38  3.69
506.5  88103.33  3345.62  3.80
507.9  89276.15  3499.69  3.92
509.3  90605.60  3681.11  4.06
510.7  91830.38  3874.93  4.22
512.2  93219.00  4104.56  4.40
513.6  94724.35  4365.41  4.61
515.0  96161.00  4652.12  4.84
516.4  97566.53  4961.25  5.08
517.8  99214.00  5317.19  5.36
519.3  100551.80  5684.16  5.65
520.7  102129.45  6089.00  5.96
522.1  103428.98  6503.03  6.29
523.5  104764.30  6933.32  6.62
524.9  106271.10  7378.88  6.94
526.3  107754.15  7822.94  7.26
527.8  109266.30  8272.01  7.57
529.2  110230.20  8679.46  7.87
530.6  111712.95  9123.46  8.17
532.0  113414.00  9566.27  8.43
533.4  114763.05  9958.36  8.68
534.8  115652.63  10288.54  8.90
536.3  117273.90  10665.60  9.09
537.7  119259.00  11064.84  9.28
539.1  120723.38  11400.04  9.44
540.5  121921.90  11698.60  9.60
541.9  123696.38  12046.95  9.74
543.3  124963.70  12340.60  9.88
544.7  126300.60  12640.10  10.01
546.1  128095.28  12984.72  10.14
547.5  129348.80  13266.56  10.26
549.0  130977.00  13577.67  10.37
550.4  132483.13  13856.62  10.46
551.8  134067.45  14121.65  10.53
553.2  135577.93  14347.96  10.58
554.6  136926.40  14519.39  10.60
556.0  138462.30  14669.99  10.59
557.4  140079.28  14796.51  10.56
558.8  141743.25  14894.63  10.51
560.2  143216.50  14945.24  10.44
561.6  144876.23  14981.62  10.34
563.0  146471.93  14982.84  10.23
564.4  148079.80  14966.33  10.11
565.8  149600.00  14921.34  9.97
567.2  151370.75  14869.91  9.82
568.6  152848.13  14765.25  9.66
570.0  154286.55  14613.47  9.47
571.4  156003.90  14463.40  9.27
572.8  157774.75  14307.49  9.07
574.2  159398.40  14140.27  8.87
575.6  160965.00  13977.64  8.68
577.0  162494.00  13826.57  8.51
578.4  164232.25  13714.35  8.35
579.8  165767.85  13599.29  8.20
581.2  167478.68  13521.14  8.07
582.5  168912.90  13432.60  7.95
583.9  170439.20  13368.61  7.84
585.3  172244.70  13337.26  7.74
586.7  173737.20  13297.13  7.65
588.1  175218.38  13273.99  7.58
589.5  176877.75  13280.52  7.51
590.9  178498.00  13303.31  7.45
592.3  180318.40  13354.16  7.41
593.7  181784.85  13394.82  7.37
595.0  183410.33  13459.41  7.34
596.4  184874.20  13517.46  7.31
597.8  186371.05  13575.84  7.28
599.2  187902.00  13632.83  7.26
600.6  189654.73  13687.69  7.22
602.0  190970.63  13687.87  7.17
603.3  192762.30  13700.98  7.11
604.7  194431.15  13678.12  7.03
606.1  195932.40  13614.29  6.95
607.5  197595.75  13533.51  6.85
608.9  199299.25  13432.47  6.74
610.2  200675.48  13295.07  6.63
611.6  202283.33  13162.35  6.51
613.0  203846.15  13024.68  6.39
614.4  205227.75  12877.86  6.27
615.8  206680.50  12744.23  6.17
617.1  208225.50  12629.82  6.07
618.5  209864.00  12541.52  5.98
619.9  211367.85  12472.18  5.90
621.3  212994.68  12432.14  5.84
622.6  214582.75  12413.94  5.79
624.0  216068.25  12413.12  5.74
625.4  217553.33  12431.47  5.71
626.8  219112.08  12473.37  5.69
628.1  220384.18  12518.28  5.68
629.5  222145.58  12601.34  5.67
630.9  223610.75  12668.80  5.67
632.2  224867.83  12718.64  5.66
633.6  226392.50  12764.32  5.64
635.0  227831.20  12769.28  5.60
636.3  229346.10  12737.25  5.55
637.7  230687.88  12660.58  5.49
639.1  232347.50  12560.33  5.41
640.4  233822.58  12417.61  5.31
641.8  235022.63  12235.76  5.21
643.2  236578.13  12055.98  5.10
644.5  237943.50  11849.81  4.98
645.9  239499.45  11655.30  4.87
647.2  240573.90  11456.26  4.76
648.6  242149.50  11307.21  4.67
650.0  243540.00  11173.58  4.59
651.3  244410.10  11039.04  4.52
652.7  246519.75  10958.41  4.45
654.0  248556.60  10877.94  4.38
655.4  249887.30  10756.74  4.30
656.8  250017.80  10569.77  4.23
658.1  251447.90  10413.25  4.14
659.5  253833.30  10270.77  4.05
660.8  255330.00  10084.28  3.95
662.2  256345.60  9873.49  3.85
663.5  257936.75  9697.06  3.76
664.9  258945.70  9524.26  3.68
666.2  259717.80  9367.77  3.61
667.6  261425.75  9277.21  3.55
668.9  262348.68  9195.99  3.51
670.3  264181.63  9167.57  3.47
671.6  265234.50  9150.27  3.45
673.0  266429.25  9169.87  3.44
674.3  267675.20  9212.33  3.44
675.7  268983.88  9274.66  3.45
677.0  270048.53  9348.88  3.46
678.4  271325.98  9459.63  3.49
679.7  272383.18  9600.17  3.52
681.1  273641.70  9776.28  3.57
682.4  274747.20  10004.99  3.64
683.8  275940.60  10290.81  3.73
685.1  276938.63  10648.87  3.85
686.4  278232.60  11130.23  4.00
687.8  279437.75  11760.29  4.21
689.1  280505.75  12587.78  4.49
690.5  281811.15  13696.08  4.86
691.8  282600.65  15124.61  5.35
693.1  283940.40  16994.40  5.99
694.5  285103.00  19313.45  6.77
695.8  286331.50  22097.18  7.72
697.1  287491.75  25327.03  8.81
698.5  288517.00  28966.50  10.04
699.8  289582.43  32952.39  11.38
701.1  290738.85  37224.58  12.80
702.5  291503.85  41612.48  14.28
703.8  292432.50  46094.57  15.76
705.1  293565.68  50613.44  17.24
706.5  294589.25  55069.99  18.69
707.8  295556.40  59447.38  20.11
709.1  296364.38  63701.94  21.49
710.5  297458.30  67929.45  22.84
711.8  298284.80  71997.57  24.14
713.1  299243.70  76028.13  25.41
714.4  300158.00  79944.86  26.63
715.8  300938.50  83756.89  27.83
717.1  302239.05  87603.06  28.98
718.4  303184.00  91255.68  30.10
719.7  304244.08  94849.21  31.18
721.0  304762.50  98156.57  32.21
722.4  305484.85  101421.74  33.20
723.7  306431.85  104633.51  34.15
725.0  307423.80  107744.42  35.05
726.3  308365.75  110702.99  35.90
727.6  308867.90  113378.73  36.71
729.0  309785.53  116056.39  37.46
730.3  310561.20  118545.86  38.17
731.6  311436.95  120945.74  38.83
732.9  312210.85  123173.74  39.45
734.2  312967.88  125283.77  40.03
735.5  313988.18  127368.83  40.56
736.8  314736.00  129241.97  41.06
738.1  315575.60  131015.48  41.52
739.5  316523.28  132740.78  41.94
740.8  317220.48  134241.88  42.32
742.1  317888.03  135656.10  42.67
743.4  318475.00  136965.00  43.01
744.7  319344.88  138304.50  43.31
746.0  320195.85  139549.34  43.58
747.3  320747.15  140599.48  43.83
748.6  321488.75  141639.47  44.06
749.9  322166.00  142575.83  44.26
751.2  322717.15  143433.50  44.45
752.5  323423.20  144308.65  44.62
753.8  323903.65  145038.84  44.78
755.1  324532.00  145769.87  44.92
756.4  325103.10  146436.66  45.04
757.7  326067.88  147254.96  45.16
759.0  327838.73  148387.79  45.26
760.3  328970.40  149211.54  45.36
761.6  330478.40  150176.76  45.44
762.9  330951.00  150647.85  45.52
764.2  331273.50  151030.43  45.59
765.5  331488.65  151341.03  45.65
766.8  331840.00  151705.28  45.72
768.1  332334.60  152093.49  45.77
769.3  332850.70  152508.18  45.82
770.6  333443.50  152940.27  45.87
771.9  334099.15  153381.75  45.91
773.2  334410.00  153670.24  45.95
774.5  334963.20  154043.96  45.99
775.8  335554.35  154440.37  46.03
777.1  336041.20  154786.50  46.06
778.4  336327.75  155023.23  46.09
779.6  337022.05  155455.81  46.13
780.9  337410.00  155750.00  46.16
782.2  337801.75  156035.84  46.19
783.5  338031.50  156240.17  46.22
784.8  338458.50  156535.52  46.25
786.0  338787.40  156769.05  46.27
787.3  339111.65  157005.69  46.30
788.6  339477.28  157254.60  46.32
789.9  339806.60  157511.97  46.35
791.2  340376.18  157857.21  46.38
792.4  340961.50  158216.88  46.40
793.7  341381.40  158478.23  46.42
795.0  341936.93  158810.95  46.44
796.2  342489.58  159141.04  46.47
797.5  343117.73  159492.26  46.48
798.8  343690.33  159829.58  46.50
800.0  344228.08  160170.22  46.53
801.3  344610.60  160417.40  46.55
802.6  345148.43  160729.06  46.57
803.8  345690.33  161060.16  46.59
805.1  346112.38  161304.47  46.60
806.4  346481.40  161548.72  46.63
807.7  346929.08  161829.15  46.65
808.9  347395.05  162116.58  46.67
810.2  347842.25  162391.17  46.69
811.4  348268.50  162657.06  46.70
812.7  348846.88  162990.99  46.72
814.0  349651.55  163398.03  46.73
815.2  350240.75  163737.14  46.75
816.5  350544.30  163967.01  46.77
817.7  350941.50  164226.91  46.80
819.0  351380.15  164503.77  46.82
820.2  351516.00  164612.80  46.83
821.5  352199.20  164978.77  46.84
822.7  352511.15  165193.38  46.86
824.0  352787.40  165381.20  46.88
825.2  353224.80  165644.65  46.89
826.5  353475.18  165842.05  46.92
827.7  353992.28  166155.07  46.94
829.0  354376.93  166387.06  46.95
830.2  354655.40  166566.91  46.97
831.5  355162.30  166840.45  46.98
832.7  355456.50  167029.64  46.99
834.0  355764.55  167248.60  47.01
835.2  356119.50  167468.21  47.03
836.4  356378.00  167658.22  47.05
837.7  356744.40  167895.08  47.06
838.9  357216.45  168163.91  47.08
840.1  357607.58  168393.01  47.09
841.4  358014.80  168641.85  47.10
842.6  358360.00  168883.34  47.13
843.8  358690.60  169108.99  47.15
845.1  359186.20  169408.64  47.16
846.3  359578.30  169653.14  47.18
847.5  359979.90  169901.14  47.20
848.8  360417.60  170144.82  47.21
850.0  360801.35  170382.94  47.22
851.2  361347.75  170687.75  47.24
852.5  361751.80  170922.87  47.25
853.7  362268.00  171225.32  47.26
854.9  362690.70  171477.25  47.28
856.1  363136.80  171757.36  47.30
857.4  363338.53  171906.01  47.31
858.6  363845.00  172193.81  47.33
859.8  364218.75  172416.70  47.34
861.0  364759.20  172675.95  47.34
862.2  365112.28  172941.04  47.37
863.5  365517.43  173164.60  47.38
864.7  366049.20  173458.69  47.39
865.9  366486.20  173669.99  47.39
867.1  366745.90  173858.45  47.41
868.3  367214.10  174096.82  47.41
869.5  367659.00  174354.52  47.42
870.8  368194.50  174627.64  47.43
872.0  368762.93  174914.31  47.43
873.2  369180.60  175146.80  47.44
874.4  369603.00  175392.95  47.45
875.6  369916.68  175599.97  47.47
876.8  370425.45  175860.78  47.48
878.0  370854.30  176118.27  47.49
879.2  371429.10  176376.67  47.49
880.4  371964.00  176625.56  47.48
881.6  372383.73  176847.13  47.49
882.8  372788.00  177057.49  47.50
884.0  373311.40  177350.95  47.51
885.2  373689.70  177579.14  47.52
886.5  374325.05  177872.62  47.52
887.7  374864.10  178110.60  47.51
888.8  375505.35  178419.16  47.51
890.0  376086.60  178654.78  47.50
891.2  376580.30  178926.84  47.51
892.4  377059.20  179198.15  47.53
893.6  377595.65  179467.93  47.53
894.8  378488.00  179884.20  47.53
896.0  379234.25  180272.03  47.54
897.2  380129.75  180623.64  47.52
898.4  380760.60  180947.27  47.52
899.6  381221.25  181212.41  47.53
900.8  381533.08  181382.21  47.54
902.0  381704.55  181463.59  47.54
903.2  381899.48  181587.13  47.55
904.3  382267.20  181700.65  47.53
905.5  382829.38  181951.60  47.53
906.7  383289.50  182207.49  47.54
907.9  383794.95  182441.47  47.54
909.1  383839.43  182544.90  47.56
910.2  384052.28  182598.95  47.55
911.4  384239.70  182656.05  47.54
912.6  384462.65  182723.22  47.53
913.8  384585.23  182820.13  47.54
915.0  384970.95  182988.68  47.53
916.2  384939.75  183043.90  47.55
917.3  384911.10  182961.86  47.53
918.5  384835.80  183009.81  47.56
919.7  385046.85  183051.20  47.54
920.8  385107.38  183047.47  47.53
922.0  385115.50  183043.12  47.53
923.2  385203.00  183125.80  47.54
924.4  385236.00  183159.74  47.54
925.5  385404.10  183245.16  47.55
926.7  385978.63  183446.80  47.53
927.9  386805.00  183767.32  47.51
929.0  388181.70  184373.35  47.50
930.2  390260.00  185357.77  47.50
931.4  392562.45  186438.34  47.49
932.5  395132.20  187611.01  47.48
933.7  396400.60  188196.21  47.48
934.9  396917.50  188404.00  47.47
936.0  396526.00  188084.12  47.43
937.2  394267.35  186955.35  47.42
938.3  392301.05  186023.62  47.42
939.5  390682.80  185188.60  47.40
940.7  390900.60  185187.05  47.37
941.8  392250.30  185770.06  47.36
943.0  393633.00  186327.82  47.34
944.2  394341.35  186591.76  47.32
945.3  393841.50  186223.89  47.28
946.5  392751.45  185700.23  47.28
947.6  392842.00  185667.34  47.26
948.8  392512.58  185417.68  47.24
949.9  392628.60  185305.96  47.20
951.1  392026.38  184895.51  47.16
952.2  391680.00  184623.89  47.14
953.4  391495.25  184249.20  47.06
954.5  391294.80  183952.08  47.01
955.7  390915.00  183689.76  46.99
956.8  390694.70  183355.59  46.93
958.0  390283.00  182996.97  46.89
959.1  390052.80  182723.31  46.85
960.3  389347.68  182378.94  46.84
961.4  389118.45  182156.00  46.81
962.6  389114.25  181956.55  46.76
963.7  388594.80  181692.37  46.76
964.9  388335.68  181555.62  46.75
966.0  388334.25  181340.22  46.70
967.2  388300.50  181325.14  46.70
968.3  388030.50  181067.98  46.66
969.5  387770.53  180919.64  46.66
970.6  387468.95  180851.84  46.68
971.8  387755.38  180869.81  46.65
972.9  387471.23  180754.49  46.65
974.0  387821.00  180796.90  46.62
975.2  387518.00  180711.78  46.63
976.3  387565.53  180631.73  46.61
977.5  387251.20  180551.55  46.62
978.6  387296.80  180422.24  46.59
979.7  387349.20  180427.23  46.58
980.9  386893.65  180370.00  46.62
982.0  386359.75  180182.37  46.64
983.2  386259.30  179894.26  46.57
984.3  385554.20  179542.04  46.57
985.4  385909.53  179374.78  46.48
986.6  385056.38  179301.10  46.56
987.7  386117.20  179734.58  46.55
988.9  385374.60  179460.67  46.57
990.0  385681.00  179568.64  46.56
993.1  385903.93  179001.06  46.38
996.9  384684.43  178799.08  46.48
1000.7  384655.83  179121.70  46.57
1004.5  384714.25  179487.25  46.65
1008.4  384283.83  179634.80  46.75
1012.2  384080.29  179826.40  46.82
1016.0  383731.80  179930.40  46.89
1019.8  383067.30  179879.70  46.96
1023.7  381920.82  179550.81  47.01
1027.5  380255.68  179006.57  47.08
1031.3  379256.93  178695.95  47.12
1035.1  378218.69  178384.36  47.16
1038.9  377752.65  178307.01  47.20
1042.7  377394.83  178291.67  47.24
1046.5  377250.67  178332.00  47.27
1050.3  377186.26  178386.68  47.29
1054.2  376750.50  178296.42  47.32
1058.0  376370.40  178134.24  47.33
1061.8  376275.45  178167.64  47.35
1065.6  375717.00  177904.60  47.35
1069.4  374866.60  177520.65  47.36
1073.2  373576.37  176882.30  47.35
1077.0  372850.45  176491.24  47.34
1080.8  372952.08  176464.14  47.32
1084.6  372934.10  176383.32  47.30
1088.4  373137.68  176450.51  47.29
1092.2  372645.00  176126.79  47.26
1096.0  371951.32  175686.10  47.23
1099.8  371254.00  175214.37  47.20
1103.6  370296.28  174631.89  47.16
1107.4  369130.32  173925.79  47.12
1111.2  368825.50  173603.81  47.07
1114.9  368233.25  173128.42  47.02
1118.7  367945.88  172719.29  46.94
1122.5  367562.87  172188.46  46.85
1126.3  366605.40  171321.69  46.73
1130.1  366184.38  170542.95  46.57
1133.9  364490.70  168942.00  46.35
1137.7  362961.10  167222.55  46.07
1141.4  360905.35  165076.89  45.74
1145.2  359962.96  163301.58  45.37
1149.0  358685.83  161446.88  45.01
1152.8  356907.90  159487.32  44.69
1156.6  355021.33  157756.68  44.44
1160.3  353174.00  156279.10  44.25
1164.1  350850.20  154750.60  44.11
1167.9  349192.71  153682.44  44.01
1171.7  347878.13  152860.50  43.94
1175.4  346391.53  152028.77  43.89
1179.2  344979.98  151205.03  43.83
1183.0  344634.00  150834.43  43.77
1186.7  344615.37  150624.67  43.71
1190.5  344207.07  150289.37  43.66
1194.3  343265.77  149726.54  43.62
1198.0  341804.38  149011.38  43.60
1201.8  340082.45  148272.42  43.60
1205.6  338975.33  147948.76  43.65
1209.3  338352.13  147958.29  43.73
1213.1  337848.23  148024.77  43.81
1216.8  337231.13  148093.21  43.91
1220.6  336110.13  147922.13  44.01
1224.3  334849.42  147678.49  44.10
1228.1  333330.80  147306.97  44.19
1231.9  331719.90  146843.10  44.27
1235.6  329983.43  146278.32  44.33
1239.4  328433.25  145799.16  44.39
1243.1  327040.62  145330.95  44.44
1246.9  325739.98  144881.03  44.48
1250.6  324665.07  144496.55  44.51
1254.3  323474.43  144043.02  44.53
1258.1  322244.07  143540.60  44.54
1261.8  320810.27  142927.24  44.55
1265.6  319627.18  142373.74  44.54
1269.3  318816.23  141962.07  44.53
1273.1  319129.13  142020.23  44.50
1276.8  318898.00  141799.09  44.47
1280.6  317775.20  141157.82  44.42
1284.3  315798.40  140100.51  44.36
1288.0  314519.88  139323.34  44.30
1291.8  314048.87  138819.85  44.20
1295.5  313293.20  138172.78  44.10
1299.2  312153.32  137295.73  43.98
1302.9  310512.18  136135.88  43.84
1306.7  308704.08  134835.40  43.68
1310.4  306995.63  133451.58  43.47
1314.1  305428.93  132058.93  43.24
1317.9  304014.58  130622.20  42.97
1321.6  302481.28  129035.85  42.66
1325.3  300815.55  127289.70  42.31
1329.0  299507.48  125639.92  41.95
1332.8  297543.40  123620.20  41.55
1336.5  295898.53  121705.87  41.13
1340.2  295734.83  120410.33  40.72
1343.9  295710.83  119163.81  40.30
1347.6  295913.85  118011.52  39.88
