/*** Spectra Vista SIG Data ***/
name= 25_20221020_TITO_35_avg.sig
comm= Averaged Ref/Tar of files: HR.102022.0071_moc.sig,HR.102022.0072_moc.sig,HR.102022.0073_moc.sig
data=
337.3  3027.13  251.43  8.31
338.8  3174.60  250.12  7.88
340.3  3326.35  243.62  7.32
341.8  3520.83  243.87  6.93
343.2  3640.80  236.80  6.50
344.7  3795.85  250.21  6.59
346.2  4003.30  239.65  5.99
347.7  4207.78  235.95  5.61
349.2  4384.80  241.92  5.52
350.6  4627.35  230.14  4.97
352.1  4858.60  233.40  4.80
353.6  5170.30  240.59  4.65
355.1  5388.00  251.44  4.67
356.6  5735.63  262.20  4.57
358.0  5965.30  263.71  4.42
359.5  6272.70  267.80  4.27
361.0  6523.65  259.35  3.98
362.5  6908.90  269.33  3.90
364.0  7254.78  290.57  4.01
365.4  7587.00  295.99  3.90
366.9  7956.00  313.08  3.94
368.4  8291.60  323.66  3.90
369.9  8593.95  335.11  3.90
371.3  8997.90  341.76  3.80
372.8  9425.25  364.62  3.87
374.3  9863.13  365.50  3.71
375.8  10267.95  377.30  3.67
377.2  10652.40  390.95  3.67
378.7  11082.80  394.53  3.56
380.2  11459.40  401.71  3.51
381.7  11945.05  414.38  3.47
383.1  12397.00  420.42  3.39
384.6  12894.05  438.79  3.40
386.1  13323.33  457.62  3.43
387.6  13771.45  467.13  3.39
389.0  14204.00  471.68  3.32
390.5  14682.15  481.44  3.28
392.0  15235.20  493.73  3.24
393.4  15765.00  511.49  3.24
394.9  16286.40  528.96  3.25
396.4  16818.75  548.55  3.26
397.9  17322.50  563.75  3.25
399.3  17854.13  577.41  3.23
400.8  18394.65  591.55  3.22
402.2  19026.25  608.84  3.20
403.7  19621.13  632.37  3.22
405.2  20194.78  650.27  3.22
406.6  20740.80  661.97  3.19
408.1  21334.40  687.04  3.22
409.6  21906.10  699.47  3.19
411.0  22545.60  714.51  3.17
412.5  23199.05  735.82  3.17
414.0  23838.75  757.95  3.18
415.4  24525.75  771.15  3.14
416.9  25153.88  796.70  3.17
418.4  25827.53  821.70  3.18
419.8  26517.40  839.63  3.17
421.3  27218.78  857.98  3.15
422.7  27979.20  881.60  3.15
424.2  28738.13  904.50  3.15
425.7  29470.40  930.19  3.16
427.1  30225.75  951.61  3.15
428.6  31000.00  977.53  3.15
430.0  31715.75  997.50  3.15
431.5  32566.35  1016.89  3.12
432.9  33416.65  1045.03  3.13
434.4  34294.05  1071.51  3.12
435.9  35126.00  1099.47  3.13
437.3  35942.50  1122.00  3.12
438.8  36774.68  1145.73  3.12
440.2  37622.20  1175.02  3.12
441.7  38565.20  1202.43  3.12
443.1  39458.50  1234.90  3.13
444.6  40400.40  1264.59  3.13
446.0  41325.38  1294.04  3.13
447.5  42264.75  1330.41  3.15
448.9  43189.20  1363.96  3.16
450.4  44172.45  1400.33  3.17
451.8  45032.00  1428.27  3.17
453.3  45945.55  1462.66  3.18
454.7  46929.35  1498.44  3.19
456.2  47781.93  1525.28  3.19
457.6  48745.80  1557.60  3.20
459.1  49702.25  1591.89  3.20
460.5  50624.38  1621.05  3.20
462.0  51679.03  1657.26  3.21
463.4  52717.60  1691.49  3.21
464.8  53682.38  1720.50  3.20
466.3  54627.38  1754.06  3.21
467.7  55582.18  1784.71  3.21
469.2  56637.80  1818.49  3.21
470.6  57619.05  1854.60  3.22
472.0  58664.60  1886.05  3.21
473.5  59678.13  1924.77  3.23
474.9  60705.00  1960.80  3.23
476.4  61833.60  1998.72  3.23
477.8  62872.00  2035.80  3.24
479.2  63858.00  2070.60  3.24
480.7  64949.33  2107.56  3.24
482.1  66065.40  2150.16  3.25
483.6  67235.85  2194.47  3.26
485.0  68307.53  2238.80  3.28
486.4  69490.80  2285.32  3.29
487.9  70551.00  2330.25  3.30
489.3  71681.30  2379.56  3.32
490.7  72712.05  2432.57  3.35
492.2  73911.60  2487.24  3.37
493.6  75008.00  2553.01  3.40
495.0  76108.50  2613.00  3.43
496.5  77278.55  2688.46  3.48
497.9  78379.18  2762.81  3.52
499.3  79538.50  2848.91  3.58
500.7  80765.45  2953.44  3.66
502.2  81906.00  3066.00  3.74
503.6  83161.60  3192.53  3.84
505.0  84222.85  3334.34  3.96
506.5  85532.48  3498.72  4.09
507.9  86681.78  3688.46  4.26
509.3  88000.80  3913.12  4.45
510.7  89212.50  4161.30  4.66
512.2  90570.08  4448.65  4.91
513.6  92040.90  4781.42  5.19
515.0  93472.48  5145.66  5.50
516.4  94844.93  5547.15  5.85
517.8  96459.63  6009.72  6.23
519.3  97764.95  6485.76  6.63
520.7  99319.45  7006.27  7.05
522.1  100592.05  7539.05  7.49
523.5  101928.70  8091.65  7.94
524.9  103383.45  8663.88  8.38
526.3  104783.70  9222.27  8.80
527.8  106236.90  9781.20  9.21
529.2  107265.10  10300.87  9.60
530.6  108822.95  10858.69  9.98
532.0  110474.00  11397.87  10.32
533.4  111790.13  11869.98  10.62
534.8  112677.00  12263.98  10.88
536.3  114203.70  12698.76  11.12
537.7  116071.20  13146.00  11.33
539.1  117457.25  13522.99  11.51
540.5  118644.30  13865.53  11.69
541.9  120364.05  14255.60  11.84
543.3  121653.25  14595.30  12.00
544.7  122960.40  14930.96  12.14
546.1  124746.60  15315.96  12.28
547.5  125966.40  15621.76  12.40
549.0  127556.00  15960.27  12.51
550.4  129030.00  16267.58  12.61
551.8  130573.15  16553.72  12.68
553.2  132058.33  16792.12  12.72
554.6  133369.60  16970.03  12.72
556.0  134860.50  17121.66  12.70
557.4  136434.55  17242.75  12.64
558.8  138058.65  17321.76  12.55
560.2  139491.88  17326.25  12.42
561.6  141133.65  17304.11  12.26
563.0  142690.45  17215.31  12.06
564.4  144271.25  17088.19  11.84
565.8  145764.38  16909.33  11.60
567.2  147500.75  16721.27  11.34
568.6  148954.88  16470.55  11.06
570.0  150346.53  16187.39  10.77
571.4  152025.90  15917.89  10.47
572.8  153758.63  15653.62  10.18
574.2  155355.20  15385.81  9.90
575.6  156881.25  15139.50  9.65
577.0  158392.10  14911.48  9.41
578.4  160080.38  14726.83  9.20
579.8  161579.48  14545.71  9.00
581.2  163253.80  14405.47  8.82
582.5  164665.80  14259.96  8.66
583.9  166155.80  14134.83  8.51
585.3  167915.93  14047.65  8.37
586.7  169372.13  13950.60  8.24
588.1  170829.13  13874.23  8.12
589.5  172467.75  13819.63  8.01
590.9  174058.80  13785.49  7.92
592.3  175838.05  13776.55  7.83
593.7  177272.55  13759.98  7.76
595.0  178857.45  13756.95  7.69
596.4  180289.90  13751.17  7.63
597.8  181755.58  13747.93  7.56
599.2  183268.80  13747.36  7.50
600.6  184990.98  13751.40  7.43
602.0  186258.45  13707.82  7.36
603.3  188019.80  13681.89  7.28
604.7  189658.58  13625.77  7.18
606.1  191130.00  13535.04  7.08
607.5  192735.93  13440.41  6.97
608.9  194409.85  13334.39  6.86
610.2  195770.93  13192.20  6.74
611.6  197355.53  13062.49  6.62
613.0  198904.25  12926.01  6.50
614.4  200266.20  12774.90  6.38
615.8  201693.38  12645.75  6.27
617.1  203212.80  12522.44  6.16
618.5  204817.20  12428.05  6.07
619.9  206323.20  12349.94  5.99
621.3  207914.40  12295.17  5.91
622.6  209489.25  12269.13  5.86
624.0  210954.30  12261.12  5.81
625.4  212411.93  12276.66  5.78
626.8  213936.45  12321.70  5.76
628.1  215192.18  12356.96  5.74
629.5  216923.68  12431.21  5.73
630.9  218393.73  12476.13  5.71
632.2  219639.53  12489.07  5.69
633.6  221152.25  12485.27  5.65
635.0  222585.20  12425.28  5.58
636.3  224035.00  12310.68  5.49
637.7  225388.50  12125.43  5.38
639.1  227010.00  11902.33  5.24
640.4  228484.73  11632.51  5.09
641.8  229675.13  11329.57  4.93
643.2  231224.70  11033.70  4.77
644.5  232559.75  10740.73  4.62
645.9  234093.60  10469.76  4.47
647.2  235023.08  10208.94  4.34
648.6  236439.00  10017.00  4.24
650.0  237772.80  9878.40  4.15
651.3  238840.80  9772.14  4.09
652.7  241126.05  9736.32  4.04
654.0  243243.80  9712.65  3.99
655.4  244626.28  9665.71  3.95
656.8  244819.50  9564.27  3.91
658.1  246204.20  9494.65  3.86
659.5  248370.15  9430.33  3.80
660.8  249637.50  9336.00  3.74
662.2  250633.60  9216.85  3.68
663.5  252133.45  9134.66  3.62
664.9  253155.50  9040.37  3.57
666.2  253945.80  8951.04  3.52
667.6  255643.58  8938.93  3.50
668.9  256537.23  8928.91  3.48
670.3  258408.88  8973.87  3.47
671.6  259415.63  9024.05  3.48
673.0  260588.25  9103.70  3.49
674.3  261840.80  9202.44  3.51
675.7  263178.15  9321.54  3.54
677.0  264233.93  9450.19  3.58
678.4  265555.43  9611.71  3.62
679.7  266568.58  9799.66  3.68
681.1  267813.90  10030.88  3.75
682.4  268890.70  10298.60  3.83
683.8  270084.10  10625.68  3.93
685.1  271097.63  11021.20  4.07
686.4  272394.00  11564.72  4.25
687.8  273608.25  12287.93  4.49
689.1  274698.50  13269.90  4.83
690.5  276022.50  14610.94  5.29
691.8  276824.58  16385.77  5.92
693.1  278187.30  18717.96  6.73
694.5  279324.50  21588.23  7.73
695.8  280598.50  24979.50  8.90
697.1  281758.75  28862.17  10.24
698.5  282796.60  33181.35  11.73
699.8  283868.33  37876.32  13.34
701.1  285024.75  42879.94  15.04
702.5  285821.25  48013.46  16.80
703.8  286740.00  53274.00  18.58
705.1  287869.73  58601.01  20.36
706.5  288906.00  63894.05  22.12
707.8  289879.50  69109.18  23.84
709.1  290693.83  74208.30  25.53
710.5  291810.08  79286.49  27.17
711.8  292620.60  84189.93  28.77
713.1  293601.80  89033.49  30.32
714.4  294493.80  93740.28  31.83
715.8  295318.90  98298.40  33.29
717.1  296629.20  102902.38  34.69
718.4  297584.00  107242.24  36.04
719.7  298647.80  111499.97  37.33
721.0  299160.00  115422.00  38.58
722.4  299892.45  119262.44  39.77
723.7  300859.95  123025.74  40.89
725.0  301878.90  126647.94  41.95
726.3  302796.45  130065.98  42.95
727.6  303344.25  133161.05  43.90
729.0  304237.68  136223.41  44.78
730.3  305035.20  139080.21  45.59
731.6  305880.95  141798.38  46.36
732.9  306648.13  144317.41  47.06
734.2  307428.00  146692.15  47.72
735.5  308436.28  149035.58  48.32
736.8  309261.30  151127.00  48.87
738.1  310078.60  153112.96  49.38
739.5  311035.55  155019.77  49.84
740.8  311713.60  156666.11  50.26
742.1  312387.98  158216.45  50.65
743.4  313025.00  159650.00  51.00
744.7  313907.08  161103.22  51.32
746.0  314770.95  162469.84  51.62
747.3  315361.38  163591.43  51.87
748.6  316081.25  164710.73  52.11
749.9  316758.00  165696.27  52.31
751.2  317330.25  166603.39  52.50
752.5  318062.45  167541.31  52.68
753.8  318558.28  168301.96  52.83
755.1  319202.00  169083.20  52.97
756.4  319752.25  169772.60  53.10
757.7  320722.50  170627.85  53.20
759.0  322462.60  171861.17  53.30
760.3  323611.20  172729.92  53.38
761.6  325131.80  173776.03  53.45
762.9  325627.75  174249.50  53.51
764.2  325974.20  174616.87  53.57
765.5  326191.75  174898.59  53.62
766.8  326563.20  175236.91  53.66
768.1  327073.80  175615.73  53.69
769.3  327624.85  176023.59  53.73
770.6  328272.75  176468.85  53.76
771.9  328914.95  176908.95  53.79
773.2  329212.80  177162.99  53.81
774.5  329815.20  177533.55  53.83
775.8  330447.90  177939.11  53.85
777.1  330939.95  178281.40  53.87
778.4  331178.38  178495.97  53.90
779.6  331879.63  178936.57  53.92
780.9  332310.00  179208.00  53.93
782.2  332780.25  179495.43  53.94
783.5  333029.50  179685.67  53.95
784.8  333495.68  179981.01  53.97
786.0  333803.40  180213.13  53.99
787.3  334138.60  180439.88  54.00
788.6  334480.75  180664.16  54.01
789.9  334880.00  180925.36  54.03
791.2  335457.35  181290.73  54.04
792.4  336081.20  181670.27  54.06
793.7  336505.00  181945.39  54.07
795.0  337066.13  182294.20  54.08
796.2  337663.85  182642.85  54.09
797.5  338256.23  183005.38  54.10
798.8  338864.50  183367.26  54.11
800.0  339483.30  183731.01  54.12
801.3  339845.40  183980.04  54.14
802.6  340417.35  184313.88  54.14
803.8  340969.10  184670.53  54.16
805.1  341371.63  184919.35  54.17
806.4  341757.00  185176.16  54.18
807.7  342273.60  185470.02  54.19
808.9  342760.00  185786.31  54.20
810.2  343214.90  186069.57  54.21
811.4  343657.00  186352.72  54.23
812.7  344215.63  186707.08  54.24
814.0  344960.45  187155.69  54.25
815.2  345564.75  187518.73  54.26
816.5  345936.33  187751.73  54.27
817.7  346399.40  188025.80  54.28
819.0  346861.35  188306.51  54.29
820.2  346984.00  188413.87  54.30
821.5  347600.25  188804.01  54.32
822.7  347938.38  189032.18  54.33
824.0  348197.40  189218.16  54.34
825.2  348660.45  189491.94  54.35
826.5  348984.05  189673.60  54.35
827.7  349525.95  189999.71  54.36
829.0  349894.23  190215.90  54.36
830.2  350155.45  190415.47  54.38
831.5  350648.80  190710.42  54.39
832.7  350924.18  190900.85  54.40
834.0  351264.48  191099.74  54.40
835.2  351602.35  191317.06  54.41
836.4  351896.60  191505.16  54.42
837.7  352300.00  191759.60  54.43
838.9  352755.38  192028.17  54.44
840.1  353069.55  192255.39  54.45
841.4  353462.80  192511.67  54.46
842.6  353793.80  192736.03  54.48
843.8  354178.40  192989.33  54.49
845.1  354675.60  193306.91  54.50
846.3  355130.90  193554.05  54.50
847.5  355473.30  193800.04  54.52
848.8  355844.40  194052.00  54.53
850.0  356165.25  194290.18  54.55
851.2  356715.90  194605.38  54.55
852.5  357057.90  194837.57  54.57
853.7  357635.25  195141.00  54.56
854.9  358063.70  195435.67  54.58
856.1  358450.30  195708.24  54.60
857.4  358658.60  195824.34  54.60
858.6  359176.80  196119.32  54.60
859.8  359501.25  196359.00  54.62
861.0  359985.60  196606.80  54.62
862.2  360421.33  196877.75  54.62
863.5  360776.98  197106.95  54.63
864.7  361257.60  197394.56  54.64
865.9  361568.40  197592.80  54.65
867.1  361926.15  197792.65  54.65
868.3  362274.00  198043.12  54.67
869.5  362741.75  198303.87  54.67
870.8  363298.50  198624.60  54.67
872.0  363814.13  198910.83  54.67
873.2  364179.00  199126.20  54.68
874.4  364627.58  199364.49  54.68
875.6  364970.63  199565.14  54.68
876.8  365344.50  199829.19  54.70
878.0  365792.00  200086.05  54.70
879.2  366304.80  200365.64  54.70
880.4  366862.88  200610.80  54.68
881.6  367309.23  200848.71  54.68
882.8  367566.40  201057.28  54.70
884.0  368116.90  201384.99  54.71
885.2  368603.10  201628.15  54.70
886.5  369171.75  201938.28  54.70
887.7  369552.63  202148.14  54.70
888.8  370211.40  202484.46  54.69
890.0  370724.50  202761.34  54.69
891.2  371145.70  203041.65  54.71
892.4  371737.80  203328.16  54.70
893.6  372200.05  203581.13  54.70
894.8  373111.75  204023.80  54.68
896.0  373874.75  204455.00  54.69
897.2  374588.50  204898.63  54.70
898.4  375236.40  205241.08  54.70
899.6  375612.00  205478.60  54.71
900.8  376050.98  205620.92  54.68
902.0  376143.15  205686.24  54.68
903.2  376364.70  205821.28  54.69
904.3  376652.10  205945.72  54.68
905.5  377128.85  206232.33  54.68
906.7  377728.00  206494.33  54.67
907.9  378152.60  206717.28  54.67
909.1  378351.00  206863.02  54.67
910.2  378486.30  206927.95  54.67
911.4  378723.15  207006.54  54.66
912.6  378749.80  207007.75  54.66
913.8  378793.65  207050.86  54.66
915.0  379098.30  207183.76  54.65
916.2  379236.00  207261.60  54.65
917.3  379001.25  207221.61  54.68
918.5  379241.50  207240.63  54.65
919.7  379390.20  207322.80  54.65
920.8  379387.30  207252.95  54.63
922.0  379456.00  207263.47  54.62
923.2  379470.00  207243.40  54.61
924.4  379562.63  207285.75  54.61
925.5  379792.10  207344.69  54.59
926.7  380283.63  207582.75  54.59
927.9  381021.00  207915.52  54.57
929.0  382295.70  208580.22  54.56
930.2  384406.10  209639.67  54.54
931.4  386586.68  210837.60  54.54
932.5  389183.30  212156.56  54.51
933.7  390664.90  212773.23  54.46
934.9  391090.00  213005.92  54.46
936.0  390453.38  212618.47  54.45
937.2  388311.15  211356.86  54.43
938.3  386450.80  210230.13  54.40
939.5  384760.80  209244.00  54.38
940.7  384884.10  209190.84  54.35
941.8  386461.28  209878.47  54.31
943.0  387717.75  210439.50  54.28
944.2  388131.25  210631.98  54.27
945.3  387543.00  210197.00  54.24
946.5  386746.65  209642.58  54.21
947.6  386930.30  209515.73  54.15
948.8  386691.83  209262.43  54.12
949.9  386706.60  209086.08  54.07
951.1  386010.63  208572.74  54.03
952.2  385560.00  208134.40  53.98
953.4  385277.75  207664.50  53.90
954.5  385398.00  207370.80  53.81
955.7  385131.60  207060.00  53.76
956.8  384811.40  206685.41  53.71
958.0  384302.50  206231.27  53.66
959.1  383958.23  205831.10  53.61
960.3  383368.33  205413.67  53.58
961.4  383254.70  205121.79  53.52
962.6  383120.50  205066.17  53.53
963.7  382707.00  204797.31  53.51
964.9  382562.10  204635.58  53.49
966.0  382419.23  204334.11  53.43
967.2  382489.20  204346.44  53.43
968.3  382332.15  204055.20  53.37
969.5  381899.45  203866.09  53.38
970.6  381694.45  203878.35  53.41
971.8  381766.88  203968.31  53.43
972.9  381851.18  203778.85  53.37
974.0  381954.80  203969.95  53.40
975.2  382060.00  203765.33  53.33
976.3  381829.13  203690.00  53.35
977.5  381956.75  203609.42  53.31
978.6  381695.40  203570.88  53.33
979.7  381827.78  203641.48  53.33
980.9  381933.48  203457.36  53.27
982.0  381560.25  203306.82  53.28
983.2  381150.05  203211.90  53.32
984.3  380660.00  202873.65  53.30
985.4  380702.35  202655.54  53.23
986.6  380757.50  202579.37  53.20
987.7  380899.40  203059.38  53.31
988.9  380548.80  202591.68  53.24
990.0  381314.80  203076.81  53.26
993.1  389838.52  207413.75  53.21
996.9  388358.65  207127.69  53.33
1000.7  388250.16  207475.93  53.44
1004.5  388284.42  207914.22  53.55
1008.4  387972.88  208121.99  53.64
1012.2  387876.96  208405.36  53.73
1016.0  387498.60  208536.67  53.82
1019.8  386786.40  208449.27  53.89
1023.7  385525.28  208029.94  53.96
1027.5  383736.37  207317.95  54.03
1031.3  382586.45  206911.10  54.08
1035.1  381449.89  206512.57  54.14
1038.9  380903.05  206424.13  54.19
1042.7  380636.50  206429.34  54.23
1046.5  380499.50  206502.85  54.27
1050.3  380557.65  206624.65  54.30
1054.2  380213.17  206550.82  54.33
1058.0  379865.44  206420.20  54.34
1061.8  379814.47  206469.30  54.36
1065.6  379170.83  206155.47  54.37
1069.4  378351.53  205709.51  54.37
1073.2  377016.73  204952.26  54.36
1077.0  376363.38  204503.61  54.34
1080.8  376607.29  204557.41  54.32
1084.6  376801.83  204586.98  54.30
1088.4  377143.16  204724.70  54.28
1092.2  376740.00  204386.00  54.25
1096.0  376082.83  203917.38  54.22
1099.8  375369.58  203394.96  54.19
1103.6  374442.75  202734.83  54.14
1107.4  373266.31  201926.45  54.10
1111.2  372980.50  201600.60  54.05
1114.9  372510.25  201134.76  53.99
1118.7  372301.88  200745.05  53.92
1122.5  371995.87  200198.46  53.82
1126.3  371110.66  199220.69  53.68
1130.1  370723.74  198283.52  53.49
1133.9  369049.10  196350.78  53.20
1137.7  367484.30  194189.20  52.84
1141.4  365398.37  191528.16  52.42
1145.2  364448.40  189385.31  51.96
1149.0  363148.33  187210.14  51.55
1152.8  361302.35  185030.62  51.21
1156.6  359410.33  183194.69  50.97
1160.3  357578.33  181688.89  50.81
1164.1  355260.67  180150.60  50.71
1167.9  353625.00  179123.15  50.65
1171.7  352343.25  178363.50  50.62
1175.4  350843.87  177536.14  50.60
1179.2  349430.73  176692.17  50.57
1183.0  349130.67  176390.30  50.52
1186.7  349234.43  176304.85  50.48
1190.5  348930.20  176092.47  50.47
1194.3  348010.63  175585.66  50.45
1198.0  346506.33  174819.21  50.45
1201.8  344812.70  174033.16  50.47
1205.6  343777.00  173664.00  50.52
1209.3  343239.83  173652.79  50.59
1213.1  342811.80  173737.17  50.68
1216.8  342206.15  173778.34  50.78
1220.6  341058.67  173529.48  50.88
1224.3  339769.83  173189.74  50.97
1228.1  338219.60  172746.22  51.08
1231.9  336571.28  172163.57  51.15
1235.6  334802.63  171495.75  51.22
1239.4  333219.88  170903.00  51.29
1243.1  331804.06  170343.62  51.34
1246.9  330542.58  169809.10  51.37
1250.6  329489.13  169366.39  51.40
1254.3  328286.57  168837.47  51.43
1258.1  327035.80  168247.00  51.45
1261.8  325561.20  167501.45  51.45
1265.6  324438.52  166892.17  51.44
1269.3  323758.33  166474.30  51.42
1273.1  324161.45  166581.58  51.39
1276.8  323883.60  166288.71  51.34
1280.6  322652.47  165448.81  51.28
1284.3  320603.60  164134.84  51.20
1288.0  319392.38  163199.88  51.10
1291.8  319018.82  162622.40  50.98
1295.5  318326.80  161849.60  50.84
1299.2  317148.53  160773.15  50.69
1302.9  315506.85  159350.68  50.51
1306.7  313700.45  157756.23  50.29
1310.4  311957.12  156052.17  50.02
1314.1  310359.13  154334.20  49.73
1317.9  308926.88  152563.24  49.38
1321.6  307357.80  150613.56  49.00
1325.3  305687.55  148484.35  48.57
1329.0  304382.87  146461.88  48.12
1332.8  302471.40  144065.29  47.63
1336.5  300814.40  141776.45  47.13
1340.2  300724.67  140231.00  46.63
1343.9  300805.63  138774.35  46.13
1347.6  301213.20  137484.40  45.64
