/*** Spectra Vista SIG Data ***/
name= 11_20221020_LIST_50_avg.sig
comm= Averaged Ref/Tar of files: HR.102022.0031_moc.sig,HR.102022.0032_moc.sig,HR.102022.0033_moc.sig
data=
337.3  3027.13  225.91  7.46
338.8  3174.60  218.97  6.90
340.3  3279.50  201.23  6.14
341.8  3475.10  203.80  5.86
343.2  3640.80  200.86  5.52
344.7  3838.50  206.75  5.39
346.2  4003.30  215.14  5.37
347.7  4168.45  217.22  5.21
349.2  4347.00  207.72  4.78
350.6  4590.63  205.31  4.47
352.1  4858.60  202.10  4.16
353.6  5135.60  213.16  4.15
355.1  5388.00  223.22  4.14
356.6  5670.08  230.99  4.07
358.0  5965.30  236.06  3.96
359.5  6241.80  234.84  3.76
361.0  6523.65  237.98  3.65
362.5  6850.35  248.98  3.63
364.0  7197.43  253.16  3.52
365.4  7530.80  268.96  3.57
366.9  7873.13  275.99  3.51
368.4  8237.05  283.92  3.45
369.9  8566.93  291.87  3.41
371.3  8971.20  305.65  3.41
372.8  9425.25  327.96  3.48
374.3  9809.38  331.97  3.38
375.8  10187.10  339.83  3.34
377.2  10598.60  343.55  3.24
378.7  11002.10  349.70  3.18
380.2  11378.70  355.85  3.13
381.7  11863.98  359.30  3.03
383.1  12343.10  373.96  3.03
384.6  12813.13  383.05  2.99
386.1  13269.28  393.28  2.96
387.6  13690.60  405.28  2.96
389.0  14123.60  413.49  2.93
390.5  14602.50  421.76  2.89
392.0  15129.40  438.06  2.90
393.4  15686.18  444.42  2.83
394.9  16208.10  454.14  2.80
396.4  16741.13  466.98  2.79
397.9  17245.63  485.65  2.82
399.3  17778.15  499.75  2.81
400.8  18294.95  512.03  2.80
402.2  18903.50  525.60  2.78
403.7  19476.68  542.72  2.79
405.2  20076.40  557.38  2.78
406.6  20648.00  576.24  2.79
408.1  21244.00  584.80  2.75
409.6  21796.35  594.32  2.73
411.0  22460.20  609.80  2.72
412.5  23074.10  634.47  2.75
414.0  23696.13  655.69  2.77
415.4  24366.75  675.56  2.77
416.9  25038.23  695.73  2.78
418.4  25696.80  715.17  2.78
419.8  26408.20  732.33  2.77
421.3  27094.00  752.39  2.78
422.7  27840.00  774.88  2.78
424.2  28586.25  800.04  2.80
425.7  29307.40  824.47  2.81
427.1  30051.68  845.96  2.82
428.6  30845.00  867.26  2.81
430.0  31579.18  885.93  2.81
431.5  32417.10  908.44  2.80
432.9  33255.50  935.23  2.81
434.4  34107.83  958.00  2.81
435.9  34930.00  982.93  2.81
437.3  35736.25  1005.84  2.81
438.8  36571.05  1032.09  2.82
440.2  37420.08  1050.28  2.81
441.7  38364.20  1077.36  2.81
443.1  39246.50  1105.56  2.82
444.6  40177.70  1133.71  2.82
446.0  41104.80  1163.92  2.83
447.5  42045.03  1193.29  2.84
448.9  42957.00  1223.53  2.85
450.4  43926.40  1251.34  2.85
451.8  44785.00  1278.08  2.85
453.3  45684.05  1309.49  2.87
454.7  46679.03  1342.84  2.88
456.2  47517.43  1368.85  2.88
457.6  48467.03  1397.67  2.88
459.1  49435.75  1421.97  2.88
460.5  50343.50  1448.07  2.88
462.0  51381.48  1476.55  2.87
463.4  52402.50  1509.74  2.88
464.8  53377.13  1537.49  2.88
466.3  54332.85  1565.46  2.88
467.7  55286.60  1590.61  2.88
469.2  56342.23  1621.17  2.88
470.6  57309.95  1649.20  2.88
472.0  58340.88  1683.50  2.89
473.5  59339.13  1714.10  2.89
474.9  60348.75  1743.11  2.89
476.4  61488.00  1775.45  2.89
477.8  62538.50  1811.67  2.90
479.2  63524.50  1841.23  2.90
480.7  64601.93  1873.62  2.90
482.1  65704.15  1910.57  2.91
483.6  66874.60  1946.48  2.91
485.0  67931.18  1985.42  2.92
486.4  69112.50  2026.33  2.93
487.9  70156.13  2067.98  2.95
489.3  71298.45  2110.72  2.96
490.7  72343.93  2154.48  2.98
492.2  73529.40  2204.02  3.00
493.6  74612.45  2254.29  3.02
495.0  75713.63  2306.71  3.05
496.5  76867.65  2368.13  3.08
497.9  77968.28  2433.67  3.12
499.3  79112.93  2509.01  3.17
500.7  80355.25  2593.75  3.23
502.2  81497.20  2688.63  3.30
503.6  82723.60  2796.67  3.38
505.0  83783.35  2917.44  3.48
506.5  85074.45  3060.25  3.60
507.9  86222.20  3223.94  3.74
509.3  87556.80  3409.92  3.89
510.7  88773.75  3622.13  4.08
512.2  90150.30  3860.69  4.28
513.6  91610.40  4133.21  4.51
515.0  93017.28  4433.19  4.77
516.4  94377.15  4763.48  5.05
517.8  95979.38  5136.26  5.35
519.3  97300.48  5519.14  5.67
520.7  98855.80  5929.90  6.00
522.1  100116.90  6340.12  6.33
523.5  101442.20  6756.99  6.66
524.9  102881.25  7181.06  6.98
526.3  104281.45  7587.87  7.28
527.8  105732.00  7995.24  7.56
529.2  106803.20  8369.12  7.84
530.6  108360.55  8758.35  8.08
532.0  110012.00  9127.07  8.30
533.4  111301.43  9442.90  8.48
534.8  112161.23  9696.07  8.64
536.3  113713.50  9983.50  8.78
537.7  115592.40  10284.00  8.90
539.1  116988.90  10525.55  9.00
540.5  118174.35  10738.84  9.09
541.9  119869.50  10995.72  9.17
543.3  121167.10  11210.89  9.25
544.7  122458.80  11427.47  9.33
546.1  124227.95  11690.35  9.41
547.5  125440.00  11890.45  9.48
549.0  127094.00  12121.27  9.54
550.4  128551.88  12325.91  9.59
551.8  130078.48  12517.93  9.62
553.2  131555.53  12679.54  9.64
554.6  132860.00  12798.34  9.63
556.0  134343.00  12898.07  9.60
557.4  135918.30  12977.15  9.55
558.8  137541.15  13035.58  9.48
560.2  138973.13  13043.95  9.39
561.6  140612.40  13044.36  9.28
563.0  142156.23  13009.45  9.15
564.4  143743.75  12952.38  9.01
565.8  145222.50  12860.20  8.86
567.2  146952.50  12764.65  8.69
568.6  148411.13  12627.12  8.51
570.0  149797.78  12461.33  8.32
571.4  151484.45  12309.49  8.13
572.8  153213.50  12161.32  7.94
574.2  154795.20  12016.53  7.76
575.6  156330.00  11885.36  7.60
577.0  157827.10  11770.08  7.46
578.4  159500.25  11688.19  7.33
579.8  161005.73  11608.88  7.21
581.2  162686.63  11564.20  7.11
582.5  164092.50  11510.68  7.01
583.9  165589.40  11482.52  6.93
585.3  167331.60  11487.52  6.87
586.7  168794.93  11486.85  6.81
588.1  170247.13  11503.05  6.76
589.5  171867.50  11541.48  6.72
590.9  173463.60  11595.65  6.68
592.3  175235.65  11679.75  6.67
593.7  176664.15  11757.45  6.66
595.0  178241.85  11853.35  6.65
596.4  179668.30  11950.63  6.65
597.8  181127.98  12045.07  6.65
599.2  182648.40  12138.72  6.65
600.6  184364.70  12240.86  6.64
602.0  185627.48  12292.19  6.62
603.3  187369.40  12363.02  6.60
604.7  189002.18  12404.79  6.56
606.1  190467.60  12415.80  6.52
607.5  192081.45  12416.86  6.46
608.9  193749.50  12403.74  6.40
610.2  195104.70  12357.77  6.33
611.6  196682.25  12320.18  6.26
613.0  198225.10  12277.41  6.19
614.4  199567.80  12221.44  6.12
615.8  201006.00  12177.33  6.06
617.1  202521.90  12149.20  6.00
618.5  204121.60  12142.20  5.95
619.9  205621.73  12152.50  5.91
621.3  207205.88  12192.23  5.88
622.6  208772.50  12253.45  5.87
624.0  210212.70  12329.83  5.87
625.4  211643.85  12425.35  5.87
626.8  213187.98  12540.86  5.88
628.1  214445.83  12661.53  5.90
629.5  216196.58  12818.36  5.93
630.9  217672.40  12951.26  5.95
632.2  218943.55  13052.81  5.96
633.6  220450.13  13134.06  5.96
635.0  221862.80  13154.23  5.93
636.3  223343.00  13119.82  5.87
637.7  224693.50  13007.26  5.79
639.1  226292.50  12851.67  5.68
640.4  227760.05  12634.93  5.55
641.8  228944.30  12354.77  5.40
643.2  230485.68  12063.53  5.23
644.5  231829.75  11751.44  5.07
645.9  233374.05  11467.64  4.91
647.2  234336.38  11187.22  4.77
648.6  235770.75  10974.54  4.65
650.0  237060.00  10796.91  4.55
651.3  238110.40  10648.84  4.47
652.7  240365.40  10579.95  4.40
654.0  242465.20  10513.72  4.34
655.4  243806.38  10407.74  4.27
656.8  243979.60  10239.00  4.20
658.1  245341.60  10088.53  4.11
659.5  247512.30  9939.67  4.02
660.8  248782.50  9751.50  3.92
662.2  249760.00  9543.04  3.82
663.5  251225.30  9366.92  3.73
664.9  252205.20  9197.18  3.65
666.2  252991.20  9053.80  3.58
667.6  254683.60  8984.85  3.53
668.9  255591.18  8934.49  3.50
670.3  257446.75  8948.08  3.48
671.6  258464.25  8973.06  3.47
673.0  259614.75  9045.54  3.48
674.3  260868.40  9150.45  3.51
675.7  262206.85  9286.22  3.54
677.0  263286.85  9445.58  3.59
678.4  264586.33  9647.79  3.65
679.7  265665.55  9877.27  3.72
681.1  266930.90  10175.52  3.81
682.4  268028.80  10540.86  3.93
683.8  269222.20  11011.48  4.09
685.1  270256.88  11618.58  4.30
686.4  271594.80  12435.59  4.58
687.8  272829.50  13529.91  4.96
689.1  273919.75  14967.89  5.46
690.5  275262.60  16858.07  6.12
691.8  276060.43  19231.75  6.97
693.1  277417.20  22199.80  8.00
694.5  278619.25  25648.57  9.21
695.8  279870.50  29526.03  10.55
697.1  281053.50  33746.92  12.01
698.5  282115.60  38237.82  13.55
699.8  283165.40  42908.23  15.15
701.1  284321.83  47706.04  16.78
702.5  285144.75  52451.09  18.39
703.8  286065.00  57158.14  19.98
705.1  287219.40  61784.50  21.51
706.5  288234.75  66241.30  22.98
707.8  289209.00  70520.64  24.38
709.1  290046.40  74588.46  25.72
710.5  291162.65  78564.23  26.98
711.8  291973.90  82311.43  28.19
713.1  292932.80  85940.17  29.34
714.4  293847.10  89391.57  30.42
715.8  294672.20  92681.35  31.45
717.1  295981.05  95973.24  32.43
718.4  296934.40  99022.51  33.35
719.7  298018.50  101971.22  34.22
721.0  298552.50  104599.28  35.04
722.4  299283.60  107175.00  35.81
723.7  300225.75  109687.48  36.54
725.0  301219.88  112089.66  37.21
726.3  302157.35  114341.94  37.84
727.6  302705.15  116332.29  38.43
729.0  303618.70  118323.35  38.97
730.3  304390.50  120164.84  39.48
731.6  305279.05  121939.65  39.94
732.9  306019.70  123560.10  40.38
734.2  306820.25  125101.22  40.77
735.5  307824.63  126634.18  41.14
736.8  308621.40  127994.90  41.47
738.1  309457.20  129293.31  41.78
739.5  310382.83  130557.89  42.06
740.8  311052.78  131647.76  42.32
742.1  311768.60  132674.84  42.56
743.4  312400.00  133637.38  42.78
744.7  313302.88  134646.69  42.98
746.0  314162.55  135585.32  43.16
747.3  314748.78  136347.01  43.32
748.6  315463.25  137123.66  43.47
749.9  316134.00  137827.48  43.60
751.2  316754.95  138486.41  43.72
752.5  317539.45  139178.27  43.83
753.8  318062.85  139723.51  43.93
755.1  318656.00  140293.28  44.03
756.4  319232.75  140788.95  44.10
757.7  320174.93  141446.69  44.18
759.0  321938.10  142422.23  44.24
760.3  323083.20  143101.33  44.29
761.6  324573.20  143947.04  44.35
762.9  325092.75  144327.46  44.40
764.2  325436.20  144625.93  44.44
765.5  325651.25  144866.61  44.49
766.8  326046.40  145157.33  44.52
768.1  326498.40  145478.87  44.56
769.3  327071.85  145829.79  44.59
770.6  327713.75  146211.24  44.62
771.9  328407.80  146602.31  44.64
773.2  328730.00  146842.34  44.67
774.5  329300.40  147183.77  44.70
775.8  329899.75  147538.90  44.72
777.1  330386.10  147857.68  44.75
778.4  330678.15  148061.56  44.78
779.6  331404.03  148451.47  44.79
780.9  331830.00  148720.86  44.82
782.2  332235.75  148990.47  44.84
783.5  332480.50  149179.28  44.87
784.8  332940.83  149462.79  44.89
786.0  333305.00  149687.62  44.91
787.3  333635.00  149907.63  44.93
788.6  334003.38  150140.04  44.95
789.9  334429.20  150394.24  44.97
791.2  335033.88  150725.46  44.99
792.4  335619.55  151069.47  45.01
793.7  336037.40  151323.63  45.03
795.0  336558.75  151650.36  45.06
796.2  337184.70  151971.71  45.07
797.5  337804.80  152313.11  45.09
798.8  338406.58  152654.75  45.11
800.0  339055.20  152984.25  45.12
801.3  339412.20  153215.62  45.14
802.6  339940.58  153522.95  45.16
803.8  340560.18  153854.22  45.18
805.1  340957.75  154089.78  45.19
806.4  341376.00  154336.20  45.21
807.7  341888.85  154611.24  45.22
808.9  342370.50  154900.07  45.24
810.2  342819.40  155163.31  45.26
811.4  343256.00  155420.73  45.28
812.7  343809.38  155730.72  45.30
814.0  344590.10  156140.74  45.31
815.2  345189.00  156459.12  45.33
816.5  345598.13  156687.66  45.34
817.7  346013.75  156931.80  45.35
819.0  346470.30  157199.20  45.37
820.2  346632.00  157305.45  45.38
821.5  347287.70  157650.22  45.39
822.7  347621.45  157861.85  45.41
824.0  347876.10  158036.32  45.43
825.2  348287.85  158266.29  45.44
826.5  348605.85  158438.34  45.45
827.7  349189.78  158714.85  45.45
829.0  349601.88  158920.53  45.46
830.2  349908.20  159103.26  45.47
831.5  350347.90  159352.82  45.48
832.7  350618.63  159516.02  45.50
834.0  350902.40  159706.11  45.51
835.2  351287.20  159897.61  45.52
836.4  351576.50  160055.08  45.52
837.7  352029.00  160285.40  45.53
838.9  352480.00  160537.33  45.55
840.1  352789.43  160744.27  45.56
841.4  353235.20  160964.68  45.57
842.6  353620.40  161186.03  45.58
843.8  353944.00  161392.77  45.60
845.1  354438.20  161670.53  45.61
846.3  354830.40  161893.37  45.63
847.5  355229.70  162115.80  45.64
848.8  355659.00  162350.95  45.65
850.0  356039.95  162565.41  45.66
851.2  356525.55  162840.50  45.67
852.5  356865.00  163039.69  45.69
853.7  357439.50  163303.97  45.69
854.9  357931.50  163553.43  45.69
856.1  358383.35  163795.41  45.70
857.4  358590.78  163925.92  45.71
858.6  359039.50  164192.49  45.73
859.8  359431.88  164400.25  45.74
861.0  359845.20  164633.04  45.75
862.2  360279.18  164876.40  45.76
863.5  360633.33  165078.48  45.77
864.7  361185.00  165330.25  45.77
865.9  361568.40  165530.28  45.78
867.1  361926.15  165703.36  45.78
868.3  362348.85  165911.08  45.79
869.5  362817.40  166147.57  45.79
870.8  363298.50  166405.72  45.80
872.0  363814.13  166664.10  45.81
873.2  364179.00  166874.81  45.82
874.4  364706.55  167113.36  45.82
875.6  365050.40  167291.22  45.83
876.8  365505.80  167516.19  45.83
878.0  365955.30  167741.76  45.84
879.2  366387.45  167981.01  45.85
880.4  366946.50  168209.70  45.84
881.6  367478.38  168440.38  45.84
882.8  367908.80  168643.41  45.84
884.0  368463.20  168911.95  45.84
885.2  368866.20  169113.16  45.85
886.5  369349.45  169356.56  45.85
887.7  369822.70  169581.38  45.85
888.8  370485.23  169887.12  45.86
890.0  371094.30  170139.70  45.85
891.2  371520.50  170388.54  45.86
892.4  372117.90  170653.14  45.86
893.6  372585.45  170882.69  45.86
894.8  373502.75  171259.86  45.85
896.0  374172.50  171622.15  45.87
897.2  374991.50  172003.28  45.87
898.4  375645.60  172287.82  45.86
899.6  376131.38  172528.46  45.87
900.8  376578.10  172659.04  45.85
902.0  376677.90  172712.03  45.85
903.2  376907.33  172836.92  45.86
904.3  377092.50  172983.88  45.87
905.5  377687.73  173236.35  45.87
906.7  378295.50  173472.32  45.86
907.9  378728.35  173637.43  45.85
909.1  379051.65  173723.39  45.83
910.2  379078.43  173772.33  45.84
911.4  379322.78  173880.97  45.84
912.6  379357.55  173904.48  45.84
913.8  379533.00  173952.63  45.83
915.0  379848.00  174087.48  45.83
916.2  379996.50  174119.49  45.82
917.3  380029.05  174073.84  45.81
918.5  380022.10  174123.36  45.82
919.7  380179.50  174175.96  45.81
920.8  380185.45  174104.39  45.79
922.0  380264.50  174063.63  45.77
923.2  380289.00  174088.20  45.78
924.4  380531.25  174141.64  45.76
925.5  380633.90  174180.44  45.76
926.7  381137.88  174360.56  45.75
927.9  381888.60  174642.37  45.73
929.0  383325.75  175144.94  45.69
930.2  385306.70  176018.70  45.68
931.4  387659.25  177030.33  45.67
932.5  390279.15  178131.54  45.64
933.7  391461.53  178659.47  45.64
934.9  392061.25  178742.38  45.59
936.0  391602.25  178380.43  45.55
937.2  389469.30  177291.49  45.52
938.3  387620.85  176395.78  45.51
939.5  385945.20  175602.21  45.50
940.7  385915.50  175578.66  45.50
941.8  387338.40  176046.51  45.45
943.0  388793.25  176463.94  45.39
944.2  389409.80  176648.64  45.36
945.3  388839.75  176276.84  45.33
946.5  388060.20  175765.50  45.29
947.6  388265.20  175629.25  45.23
948.8  388050.00  175313.60  45.18
949.9  387891.00  175116.36  45.15
951.1  387414.30  174649.64  45.08
952.2  387192.00  174309.26  45.02
953.4  386728.50  173878.80  44.96
954.5  386872.20  173572.51  44.87
955.7  386416.80  173189.88  44.82
956.8  386118.80  172788.47  44.75
958.0  385853.00  172301.69  44.65
959.1  385312.58  171970.21  44.63
960.3  384978.15  171589.82  44.57
961.4  384662.00  171395.74  44.56
962.6  384559.00  171291.10  44.54
963.7  384424.28  171003.21  44.48
964.9  384319.28  170806.97  44.44
966.0  383962.28  170573.16  44.42
967.2  384074.10  170532.72  44.40
968.3  383688.90  170325.10  44.39
969.5  383297.33  170160.00  44.39
970.6  383426.80  170078.27  44.36
971.8  383264.00  170104.77  44.38
972.9  383100.08  170037.74  44.38
974.0  383258.40  170085.66  44.38
975.2  383083.38  169980.96  44.37
976.3  383263.23  169923.78  44.34
977.5  383469.45  169800.58  44.28
978.6  383295.80  169775.77  44.29
979.7  383101.95  169869.78  44.34
980.9  382384.40  169822.65  44.41
982.0  382520.15  169810.88  44.39
983.2  382171.90  169568.71  44.37
984.3  381747.60  169380.75  44.37
985.4  382438.08  169450.84  44.31
986.6  381985.75  169287.94  44.32
987.7  382856.08  169715.16  44.33
988.9  381927.60  169539.87  44.39
990.0  382042.50  169831.32  44.45
993.1  388185.99  172256.06  44.37
996.9  386625.53  172054.75  44.50
1000.7  386421.47  172464.54  44.63
1004.5  386441.75  172930.98  44.75
1008.4  386102.38  173229.08  44.87
1012.2  385931.17  173575.46  44.98
1016.0  385483.80  173779.63  45.08
1019.8  384724.73  173781.30  45.17
1023.7  383362.60  173447.62  45.24
1027.5  381511.60  172865.40  45.31
1031.3  380321.00  172517.45  45.36
1035.1  379127.47  172171.99  45.41
1038.9  378605.88  172109.35  45.46
1042.7  378302.50  172151.03  45.51
1046.5  378151.33  172220.33  45.54
1050.3  378163.02  172328.07  45.57
1054.2  377832.58  172285.33  45.60
1058.0  377494.89  172181.82  45.61
1061.8  377475.12  172246.43  45.63
1065.6  376768.17  171949.41  45.64
1069.4  375900.27  171487.41  45.62
1073.2  374495.78  170815.05  45.61
1077.0  373811.25  170456.21  45.60
1080.8  374100.00  170513.10  45.58
1084.6  374384.50  170577.40  45.56
1088.4  374781.72  170711.31  45.55
1092.2  374341.50  170402.14  45.52
1096.0  373684.82  169944.91  45.48
1099.8  372985.38  169440.39  45.43
1103.6  372061.33  168832.44  45.38
1107.4  370851.33  168064.81  45.32
1111.2  370515.20  167695.80  45.26
1114.9  369987.92  167194.67  45.19
1118.7  369742.73  166741.46  45.10
1122.5  369416.67  166139.63  44.97
1126.3  368551.46  165186.46  44.82
1130.1  368190.14  164220.26  44.60
1133.9  366536.80  162374.50  44.30
1137.7  364965.70  160309.26  43.92
1141.4  362924.68  157814.51  43.48
1145.2  361942.57  155665.95  43.01
1149.0  360669.17  153548.96  42.57
1152.8  358871.90  151473.50  42.21
1156.6  357045.15  149783.33  41.95
1160.3  355242.33  148475.05  41.80
1164.1  352910.03  147220.96  41.72
1167.9  351325.00  146447.02  41.68
1171.7  350051.63  145864.13  41.67
1175.4  348570.83  145226.41  41.66
1179.2  347135.08  144579.10  41.65
1183.0  346811.33  144366.67  41.63
1186.7  346948.47  144349.20  41.61
1190.5  346719.87  144210.12  41.59
1194.3  345776.40  143813.55  41.59
1198.0  344269.48  143223.62  41.60
1201.8  342560.20  142605.78  41.63
1205.6  341499.00  142314.38  41.67
1209.3  340972.12  142312.59  41.74
1213.1  340579.28  142355.21  41.80
1216.8  340002.03  142371.48  41.87
1220.6  338861.60  142125.87  41.94
1224.3  337600.83  141814.15  42.01
1228.1  336066.20  141409.37  42.08
1231.9  334440.48  140907.31  42.13
1235.6  332675.40  140332.31  42.18
1239.4  331115.25  139857.78  42.24
1243.1  329725.80  139393.07  42.28
1246.9  328414.16  138945.35  42.31
1250.6  327373.00  138570.87  42.33
1254.3  326216.64  138123.90  42.34
1258.1  324992.27  137608.82  42.34
1261.8  323517.60  136996.06  42.35
1265.6  322445.25  136504.40  42.33
1269.3  321795.03  136154.37  42.31
1273.1  322151.84  136181.22  42.27
1276.8  321784.40  135817.77  42.21
1280.6  320508.43  135032.01  42.13
1284.3  318455.20  133882.57  42.04
1288.0  317264.72  133077.26  41.95
1291.8  316939.88  132555.21  41.82
1295.5  316294.00  131841.60  41.68
1299.2  315144.08  130825.59  41.51
1302.9  313477.77  129495.65  41.31
1306.7  311683.28  128012.50  41.07
1310.4  309923.22  126412.17  40.79
1314.1  308304.88  124789.71  40.48
1317.9  306888.96  123096.25  40.11
1321.6  305322.12  121225.16  39.70
1325.3  303647.40  119185.65  39.25
1329.0  302365.47  117238.45  38.77
1332.8  300454.00  114950.00  38.26
1336.5  298768.67  112742.15  37.74
1340.2  298646.83  111126.17  37.21
1343.9  298600.42  109545.62  36.69
1347.6  298756.65  108046.26  36.17
1351.4  300266.00  107085.07  35.66
