/*** Spectra Vista SIG Data ***/
name= 52_20220722_QUPH_16_avg.sig
comm= Averaged Ref/Tar of files: HR.072222.0033_moc.sig,HR.072222.0034_moc.sig
data=
337.3  3275.25  290.66  8.87
338.8  3367.00  291.35  8.65
340.3  3513.75  274.41  7.81
341.8  3703.73  276.97  7.48
343.2  3862.80  260.06  6.73
344.7  4009.10  264.43  6.60
346.2  4207.55  253.27  6.02
347.7  4404.40  251.68  5.71
349.2  4573.80  234.36  5.12
350.6  4810.98  240.29  4.99
352.1  5108.68  233.75  4.58
353.6  5343.80  232.00  4.34
355.1  5623.73  231.88  4.12
356.6  5899.50  236.92  4.02
358.0  6156.70  235.15  3.82
359.5  6427.20  244.55  3.80
361.0  6733.13  247.10  3.67
362.5  7113.83  250.09  3.52
364.0  7455.50  250.70  3.36
365.4  7783.70  255.31  3.28
366.9  8094.13  260.47  3.22
368.4  8427.98  270.41  3.21
369.9  8810.15  284.15  3.23
371.3  9211.50  306.67  3.33
372.8  9637.65  308.74  3.20
374.3  10051.25  312.52  3.11
375.8  10456.60  318.78  3.05
377.2  10840.70  316.65  2.92
378.7  11244.20  323.57  2.88
380.2  11593.90  323.57  2.79
381.7  12134.23  330.48  2.72
383.1  12612.60  333.41  2.64
384.6  13136.83  341.43  2.60
386.1  13593.58  347.47  2.56
387.6  14067.90  350.35  2.49
389.0  14552.40  359.12  2.47
390.5  15053.85  354.26  2.35
392.0  15605.50  365.77  2.34
393.4  16185.40  377.61  2.33
394.9  16704.00  389.27  2.33
396.4  17258.63  394.78  2.29
397.9  17783.75  396.09  2.23
399.3  18309.98  412.44  2.25
400.8  18868.23  418.03  2.22
402.2  19492.70  428.58  2.20
403.7  20078.55  440.23  2.19
405.2  20691.95  449.15  2.17
406.6  21251.20  460.69  2.17
408.1  21831.60  472.02  2.16
409.6  22389.00  488.55  2.18
411.0  23015.30  503.25  2.19
412.5  23657.20  515.27  2.18
414.0  24287.00  532.08  2.19
415.4  25002.75  550.26  2.20
416.9  25655.03  562.83  2.19
418.4  26331.75  581.06  2.21
419.8  27008.80  599.04  2.22
421.3  27700.05  613.69  2.22
422.7  28466.40  637.34  2.24
424.2  29227.50  657.65  2.25
425.7  29959.40  677.62  2.26
427.1  30700.50  699.47  2.28
428.6  31465.00  721.42  2.29
430.0  32186.18  739.68  2.30
431.5  33014.10  760.32  2.30
432.9  33870.80  784.82  2.32
434.4  34709.48  803.84  2.32
435.9  35518.00  823.20  2.32
437.3  36341.25  848.18  2.33
438.8  37154.78  871.13  2.34
440.2  37986.03  896.28  2.36
441.7  38913.60  922.69  2.37
443.1  39789.75  950.60  2.39
444.6  40727.90  978.76  2.40
446.0  41623.80  1006.12  2.42
447.5  42549.10  1036.96  2.44
448.9  43447.20  1071.44  2.47
450.4  44418.50  1110.37  2.50
451.8  45240.00  1140.66  2.52
453.3  46128.60  1176.01  2.55
454.7  47113.80  1213.23  2.58
456.2  47940.63  1241.64  2.59
457.6  48891.83  1276.68  2.61
459.1  49835.50  1304.33  2.62
460.5  50731.38  1338.65  2.64
462.0  51746.65  1374.92  2.66
463.4  52745.00  1415.41  2.68
464.8  53696.25  1447.76  2.70
466.3  54655.43  1478.24  2.70
467.7  55610.33  1514.47  2.72
469.2  56637.80  1553.08  2.74
470.6  57576.90  1586.05  2.75
472.0  58566.08  1621.04  2.77
473.5  59522.75  1659.08  2.79
474.9  60519.75  1698.20  2.81
476.4  61632.00  1739.93  2.82
477.8  62669.00  1781.02  2.84
479.2  63655.00  1822.86  2.86
480.7  64717.73  1864.80  2.88
482.1  65805.30  1915.25  2.91
483.6  66961.30  1970.98  2.94
485.0  68018.03  2030.22  2.98
486.4  69141.60  2099.78  3.04
487.9  70185.38  2172.02  3.09
489.3  71313.18  2249.56  3.15
490.7  72358.65  2341.70  3.24
492.2  73558.80  2443.98  3.32
493.6  74627.10  2554.54  3.42
495.0  75699.00  2680.97  3.54
496.5  76823.63  2830.60  3.68
497.9  77894.90  2991.19  3.84
499.3  79010.20  3169.80  4.01
500.7  80208.75  3384.15  4.22
502.2  81307.40  3616.63  4.45
503.6  82504.60  3892.78  4.72
505.0  83534.30  4198.27  5.03
506.5  84793.73  4555.35  5.37
507.9  85955.35  4957.48  5.77
509.3  87290.40  5407.50  6.19
510.7  88495.88  5895.13  6.66
512.2  89846.33  6443.45  7.17
513.6  91251.65  7047.49  7.72
515.0  92604.75  7691.26  8.31
516.4  93923.55  8382.69  8.93
517.8  95470.88  9127.58  9.56
519.3  96723.40  9876.63  10.21
520.7  98209.50  10663.55  10.86
522.1  99446.10  11440.74  11.50
523.5  100761.10  12228.03  12.14
524.9  102127.95  13019.34  12.75
526.3  103463.50  13769.85  13.31
527.8  104900.40  14530.52  13.85
529.2  106028.40  15245.26  14.38
530.6  107493.55  15999.04  14.88
532.0  109130.00  16723.60  15.32
533.4  110391.90  17348.08  15.71
534.8  111261.93  17881.34  16.07
536.3  112913.70  18515.56  16.40
537.7  114836.40  19189.44  16.71
539.1  116212.43  19751.34  17.00
540.5  117367.00  20253.64  17.26
541.9  119045.25  20840.41  17.51
543.3  120241.10  21337.36  17.75
544.7  121489.80  21844.03  17.98
546.1  123179.38  22416.31  18.20
547.5  124376.00  22876.16  18.39
549.0  126060.00  23395.12  18.56
550.4  127478.75  23833.70  18.70
551.8  128931.25  24237.87  18.80
553.2  130403.28  24596.80  18.86
554.6  131695.20  24871.16  18.89
556.0  133142.40  25129.21  18.87
557.4  134658.65  25357.02  18.83
558.8  136216.35  25543.80  18.75
560.2  137593.25  25652.63  18.64
561.6  139184.18  25751.24  18.50
563.0  140700.20  25781.97  18.32
564.4  142203.45  25775.76  18.13
565.8  143650.00  25713.41  17.90
567.2  145307.75  25641.52  17.65
568.6  146736.38  25491.00  17.37
570.0  148096.65  25267.27  17.06
571.4  149771.70  25056.98  16.73
572.8  151433.50  24840.54  16.40
574.2  152980.80  24611.84  16.09
575.6  154451.25  24385.82  15.79
577.0  155894.80  24185.55  15.51
578.4  157543.75  24037.00  15.26
579.8  158986.13  23886.69  15.02
581.2  160626.28  23798.53  14.82
582.5  161963.10  23686.82  14.62
583.9  163418.20  23622.25  14.46
585.3  165125.48  23624.79  14.31
586.7  166522.20  23606.11  14.18
588.1  167943.38  23621.58  14.07
589.5  169515.50  23684.85  13.97
590.9  171070.40  23773.64  13.90
592.3  172800.95  23907.04  13.84
593.7  174154.50  24012.25  13.79
595.0  175715.33  24141.78  13.74
596.4  177078.30  24237.96  13.69
597.8  178486.83  24314.27  13.62
599.2  179968.80  24354.38  13.53
600.6  181633.08  24371.43  13.42
602.0  182861.93  24275.47  13.28
603.3  184578.10  24179.01  13.10
604.7  186171.45  24005.10  12.89
606.1  187583.40  23753.35  12.66
607.5  189143.28  23476.76  12.41
608.9  190742.80  23174.88  12.15
610.2  192071.25  22823.78  11.88
611.6  193573.73  22492.30  11.62
613.0  195060.55  22163.00  11.36
614.4  196366.80  21841.22  11.12
615.8  197759.25  21554.75  10.90
617.1  199214.40  21319.62  10.70
618.5  200776.80  21145.40  10.53
619.9  202203.90  21010.14  10.39
621.3  203738.63  20939.61  10.28
622.6  205249.75  20921.70  10.19
624.0  206643.75  20933.87  10.13
625.4  208038.60  20991.96  10.09
626.8  209541.15  21109.27  10.07
628.1  210795.20  21227.40  10.07
629.5  212544.55  21436.23  10.09
630.9  214065.78  21630.65  10.10
632.2  215378.80  21800.27  10.12
633.6  216922.38  21968.93  10.13
635.0  218405.60  22085.79  10.11
636.3  219848.40  22126.70  10.06
637.7  221149.00  22062.78  9.98
639.1  222705.00  21924.50  9.84
640.4  224101.33  21645.31  9.66
641.8  225254.53  21241.80  9.43
643.2  226772.53  20779.74  9.16
644.5  228070.25  20219.96  8.87
645.9  229702.50  19631.33  8.55
647.2  231494.20  19041.21  8.23
648.6  233320.50  18448.33  7.91
650.0  234727.20  17836.05  7.60
651.3  235097.50  17159.19  7.30
652.7  236078.10  16526.85  7.00
654.0  237999.70  15930.55  6.69
655.4  239456.35  15255.35  6.37
656.8  239712.00  14494.28  6.05
658.1  240915.10  13760.09  5.71
659.5  243223.05  13106.40  5.39
660.8  244935.00  12441.86  5.08
662.2  245795.20  11764.48  4.79
663.5  247349.05  11205.37  4.53
664.9  248625.00  10733.66  4.32
666.2  249350.40  10338.23  4.15
667.6  251022.30  10090.90  4.02
668.9  252167.38  9925.80  3.94
670.3  253195.50  9809.20  3.87
671.6  254703.00  9809.60  3.85
673.0  255787.13  9878.50  3.86
674.3  257000.90  10018.25  3.90
675.7  258255.43  10235.23  3.96
677.0  259344.38  10515.37  4.05
678.4  260665.88  10889.79  4.18
679.7  261701.05  11362.39  4.34
681.1  262957.40  11981.68  4.56
682.4  264050.80  12790.22  4.84
683.8  265288.40  13857.97  5.22
685.1  266230.13  15254.87  5.73
686.4  267465.60  17084.49  6.39
687.8  268713.25  19429.97  7.23
689.1  269736.75  22329.47  8.28
690.5  271038.45  25880.66  9.55
691.8  271812.65  30018.90  11.04
693.1  273068.40  34811.76  12.75
694.5  274205.75  40043.90  14.60
695.8  275366.00  45573.45  16.55
697.1  276526.25  51301.25  18.55
698.5  277575.60  57102.18  20.57
699.8  278630.40  62899.80  22.57
701.1  279741.48  68604.83  24.52
702.5  280499.45  74030.36  26.39
703.8  281430.00  79234.07  28.15
705.1  282555.00  84180.25  29.79
706.5  283580.75  88792.95  31.31
707.8  284537.85  93067.32  32.71
709.1  285402.80  96983.63  33.98
710.5  286519.05  100696.60  35.14
711.8  287357.80  104046.71  36.21
713.1  288316.70  107202.47  37.18
714.4  289208.70  110093.83  38.07
715.8  290011.50  112748.17  38.88
717.1  291287.55  115393.05  39.61
718.4  292208.00  117713.28  40.28
719.7  293298.75  119940.73  40.89
721.0  293805.00  121800.86  41.46
722.4  294570.65  123624.26  41.97
723.7  295491.90  125399.46  42.44
725.0  296538.53  127092.49  42.86
726.3  297455.40  128651.48  43.25
727.6  297980.38  129957.73  43.61
729.0  298896.15  131322.26  43.94
730.3  299624.33  132558.22  44.24
731.6  300533.30  133765.99  44.51
732.9  301294.88  134869.32  44.76
734.2  302075.13  135912.27  44.99
735.5  303096.10  137006.91  45.20
736.8  303857.70  137946.19  45.40
738.1  304677.20  138856.95  45.58
739.5  305620.35  139783.31  45.74
740.8  306304.63  140561.33  45.89
742.1  307061.35  141327.93  46.03
743.4  307800.00  142077.15  46.16
744.7  308721.03  142896.18  46.29
746.0  309599.55  143632.38  46.39
747.3  310103.23  144192.19  46.50
748.6  310828.25  144815.06  46.59
749.9  311558.00  145415.77  46.67
751.2  312257.15  146010.40  46.76
752.5  313172.40  146667.13  46.83
753.8  313812.63  147176.24  46.90
755.1  314522.00  147708.23  46.96
756.4  315102.73  148153.98  47.02
757.7  316081.15  148769.80  47.07
759.0  317820.78  149761.24  47.12
760.3  318938.40  150449.83  47.17
761.6  320503.40  151307.64  47.21
762.9  321053.50  151690.85  47.25
764.2  321455.00  151987.31  47.28
765.5  321759.65  152250.36  47.32
766.8  322184.00  152576.46  47.36
768.1  322717.20  152928.01  47.39
769.3  323339.10  153311.35  47.42
770.6  323996.40  153726.60  47.45
771.9  324745.05  154173.60  47.48
773.2  325123.20  154459.49  47.51
774.5  325754.00  154845.31  47.53
775.8  326466.60  155256.69  47.56
777.1  327033.85  155641.01  47.59
778.4  327411.98  155904.58  47.62
779.6  328193.73  156356.90  47.64
780.9  328650.00  156660.00  47.67
782.2  329120.00  156985.40  47.70
783.5  329461.00  157237.96  47.73
784.8  330043.28  157591.49  47.75
786.0  330439.20  157878.88  47.78
787.3  330865.20  158167.27  47.80
788.6  331298.25  158467.59  47.83
789.9  331788.80  158776.36  47.85
791.2  332427.88  159156.80  47.88
792.4  333113.45  159583.93  47.91
793.7  333632.60  159909.66  47.93
795.0  334258.65  160300.54  47.96
796.2  334925.85  160706.91  47.98
797.5  335651.85  161123.01  48.00
798.8  336328.30  161524.74  48.03
800.0  337057.40  161938.00  48.04
801.3  337571.10  162269.50  48.07
802.6  338180.18  162649.44  48.10
803.8  338775.78  163047.43  48.13
805.1  339302.25  163355.93  48.14
806.4  339775.80  163655.83  48.17
807.7  340349.85  164001.34  48.19
808.9  340968.30  164363.44  48.20
810.2  341474.70  164692.98  48.23
811.4  342012.90  165028.69  48.25
812.7  342590.63  165399.47  48.28
814.0  343396.75  165868.60  48.30
815.2  344061.75  166249.70  48.32
816.5  344541.25  166541.76  48.34
817.7  345028.20  166837.09  48.35
819.0  345557.85  167163.33  48.37
820.2  345752.00  167316.92  48.39
821.5  346350.05  167723.26  48.43
822.7  346761.23  167967.67  48.44
824.0  347049.90  168192.03  48.46
825.2  347589.23  168497.71  48.48
826.5  347944.00  168716.37  48.49
827.7  348469.40  169026.05  48.51
829.0  348871.00  169299.89  48.53
830.2  349166.45  169483.52  48.54
831.5  349645.80  169777.81  48.56
832.7  349956.60  169968.74  48.57
834.0  350333.43  170185.60  48.58
835.2  350656.90  170439.13  48.61
836.4  350882.95  170630.07  48.63
837.7  351324.40  170875.57  48.64
838.9  351764.03  171158.94  48.66
840.1  352173.15  171407.69  48.67
841.4  352552.40  171680.31  48.70
842.6  352926.80  171930.23  48.72
843.8  353240.80  172156.76  48.74
845.1  353785.35  172486.36  48.75
846.3  354169.30  172739.42  48.77
847.5  354559.80  172964.70  48.78
848.8  354917.40  173216.57  48.80
850.0  355350.80  173452.79  48.81
851.2  355827.60  173782.30  48.84
852.5  356286.30  174036.22  48.85
853.7  356721.75  174318.17  48.87
854.9  357204.40  174611.65  48.88
856.1  357646.90  174881.05  48.90
857.4  357844.70  175021.45  48.91
858.6  358284.35  175314.45  48.93
859.8  358668.75  175568.31  48.95
861.0  359213.40  175851.00  48.95
862.2  359639.50  176121.82  48.97
863.5  359986.90  176336.53  48.98
864.7  360604.20  176633.73  48.98
865.9  361054.60  176864.64  48.99
867.1  361407.10  177097.74  49.00
868.3  361824.90  177360.29  49.02
869.5  362287.85  177665.11  49.04
870.8  362763.00  177947.75  49.05
872.0  363272.85  178251.80  49.07
873.2  363788.25  178510.23  49.07
874.4  364232.70  178767.81  49.08
875.6  364571.75  178978.63  49.09
876.8  365102.55  179284.95  49.11
878.0  365628.70  179543.69  49.11
879.2  366139.50  179839.32  49.12
880.4  366695.63  180133.03  49.12
881.6  367140.08  180408.14  49.14
882.8  367480.80  180635.57  49.16
884.0  368203.48  180956.59  49.15
885.2  368690.80  181228.29  49.15
886.5  369349.45  181571.32  49.16
887.7  369822.70  181863.36  49.18
888.8  370485.23  182210.98  49.18
890.0  371001.85  182530.64  49.20
891.2  371707.90  182840.83  49.19
892.4  372307.95  183172.91  49.20
893.6  372970.85  183455.91  49.19
894.8  373893.75  183918.02  49.19
896.0  374768.00  184380.98  49.20
897.2  375495.25  184833.07  49.22
898.4  376259.40  185215.61  49.23
899.6  376858.50  185511.85  49.23
900.8  377316.08  185743.79  49.23
902.0  377640.45  185888.27  49.22
903.2  377992.58  186104.87  49.24
904.3  378303.60  186323.81  49.25
905.5  378917.25  186645.09  49.26
906.7  379544.00  186944.23  49.25
907.9  380225.30  187233.90  49.24
909.1  380569.73  187430.55  49.25
910.2  380854.80  187571.67  49.25
911.4  381121.65  187764.86  49.27
912.6  381423.90  187860.74  49.25
913.8  381627.83  188020.23  49.27
915.0  382097.10  188267.52  49.27
916.2  382404.75  188375.85  49.26
917.3  382598.55  188425.11  49.25
918.5  382754.20  188585.53  49.27
919.7  383205.15  188710.36  49.25
920.8  383245.03  188781.48  49.26
922.0  383363.75  188869.45  49.27
923.2  383701.50  188951.10  49.24
924.4  383852.25  189075.60  49.26
925.5  384281.70  189192.55  49.23
926.7  384982.00  189497.06  49.22
927.9  385792.80  189896.99  49.22
929.0  387298.80  190567.66  49.20
930.2  389509.50  191574.78  49.18
931.4  391796.33  192722.03  49.19
932.5  394506.00  193947.56  49.16
933.7  395922.63  194508.51  49.13
934.9  396917.50  194842.00  49.09
936.0  396526.00  194595.98  49.08
937.2  394432.80  193590.68  49.08
938.3  392802.50  192814.69  49.09
939.5  391359.60  192008.16  49.06
940.7  391760.10  192027.04  49.02
941.8  393478.28  192711.88  48.98
943.0  395067.00  193328.81  48.94
944.2  395802.55  193671.63  48.93
945.3  395508.75  193390.42  48.90
946.5  394627.95  192855.95  48.87
947.6  395130.40  192808.60  48.80
948.8  395034.90  192628.02  48.76
949.9  395392.20  192560.88  48.70
951.1  395034.25  192223.27  48.66
952.2  394944.00  191940.69  48.60
953.4  394604.00  191581.90  48.55
954.5  394664.40  191327.09  48.48
955.7  394770.60  191097.00  48.41
956.8  394834.80  190793.24  48.32
958.0  394491.50  190433.05  48.27
959.1  394341.58  190221.68  48.24
960.3  393717.20  189919.93  48.24
961.4  393809.45  189704.04  48.17
962.6  394149.00  189697.05  48.13
963.7  393991.95  189559.13  48.11
964.9  393858.23  189430.64  48.10
966.0  393734.93  189427.76  48.11
967.2  393847.65  189395.55  48.09
968.3  393728.85  189286.01  48.08
969.5  393921.18  189200.39  48.03
970.6  393820.90  189147.87  48.03
971.8  394043.30  189245.16  48.03
972.9  393715.73  189181.59  48.05
974.0  394013.10  189357.21  48.06
975.2  393658.25  189246.41  48.07
976.3  393660.45  189188.52  48.06
977.5  393680.18  189336.02  48.09
978.6  393698.40  189121.56  48.04
979.7  393720.08  189233.19  48.06
980.9  393206.60  189195.25  48.12
982.0  393079.05  189264.86  48.15
983.2  392901.33  189261.22  48.17
984.3  392079.80  189289.01  48.28
985.4  392852.43  189227.09  48.17
986.6  392425.88  189343.51  48.25
987.7  393943.90  189592.49  48.13
988.9  393647.40  189565.31  48.16
990.0  394413.40  190158.41  48.21
993.1  339869.31  162773.72  47.89
996.9  340316.43  163616.91  48.08
1000.7  341271.70  164609.28  48.23
1004.5  341757.08  165321.75  48.37
1008.4  341470.17  165695.13  48.52
1012.2  341415.25  166131.29  48.66
1016.0  341333.40  166577.66  48.80
1019.8  341389.13  167030.33  48.93
1023.7  341285.29  167363.40  49.04
1027.5  341035.20  167587.98  49.14
1031.3  341327.80  168011.07  49.22
1035.1  341295.50  168253.20  49.30
1038.9  341326.15  168469.05  49.36
1042.7  341185.42  168610.66  49.42
1046.5  341095.33  168709.57  49.46
1050.3  341109.22  168855.41  49.50
1054.2  340825.33  168884.50  49.55
1058.0  340356.28  168738.88  49.58
1061.8  340225.47  168793.10  49.61
1065.6  340037.40  168731.56  49.62
1069.4  340046.80  168801.99  49.64
1073.2  339736.21  168696.61  49.66
1077.0  339282.50  168478.86  49.66
1080.8  338695.83  168161.16  49.65
1084.6  337610.82  167566.53  49.63
1088.4  336938.87  167199.04  49.62
1092.2  336170.25  166737.54  49.60
1096.0  335663.38  166372.66  49.57
1099.8  335263.93  166036.42  49.52
1103.6  334659.08  165590.51  49.48
1107.4  333821.72  164991.57  49.43
1111.2  333618.80  164704.20  49.37
1114.9  333057.67  164188.63  49.30
1118.7  332498.93  163595.03  49.20
1122.5  331830.20  162869.57  49.08
1126.3  330829.92  161846.55  48.92
1130.1  330370.88  160900.57  48.70
1133.9  328904.10  159196.20  48.40
1137.7  327572.20  157339.07  48.03
1141.4  325920.40  155090.21  47.59
1145.2  325257.17  153142.22  47.08
1149.0  324250.21  151124.69  46.61
1152.8  322783.40  149078.13  46.19
1156.6  321274.80  147397.25  45.88
1160.3  319715.67  146041.72  45.68
1164.1  317505.13  144678.19  45.57
1167.9  315866.67  143765.41  45.51
1171.7  314685.00  143152.32  45.49
1175.4  313608.30  142658.79  45.49
1179.2  312653.48  142186.41  45.48
1183.0  312329.00  141974.65  45.46
1186.7  311787.00  141642.40  45.43
1190.5  310819.40  141115.66  45.40
1194.3  309683.17  140583.95  45.40
1198.0  308616.83  140138.98  45.41
1201.8  307241.00  139595.47  45.44
1205.6  306033.67  139192.50  45.48
1209.3  305195.03  138988.07  45.54
1213.1  304360.35  138805.16  45.61
1216.8  303518.51  138702.44  45.70
1220.6  302558.67  138551.60  45.79
1224.3  301470.92  138334.00  45.89
1228.1  300389.60  138166.80  46.00
1231.9  299244.23  137905.44  46.08
1235.6  297924.45  137544.87  46.17
1239.4  296677.63  137217.03  46.25
1243.1  295554.08  136873.41  46.31
1246.9  294413.93  136499.88  46.36
1250.6  293532.80  136187.01  46.40
1254.3  292549.40  135811.35  46.42
1258.1  291643.92  135435.68  46.44
1261.8  290453.20  134903.80  46.45
1265.6  289092.40  134258.30  46.44
1269.3  287708.08  133549.13  46.42
1273.1  287623.12  133395.76  46.38
1276.8  287918.40  133388.23  46.33
1280.6  287807.83  133183.75  46.28
1284.3  286540.80  132411.26  46.21
1288.0  285171.18  131529.66  46.12
1291.8  283904.33  130607.37  46.00
1295.5  282607.60  129608.29  45.86
1299.2  281482.05  128629.11  45.70
1302.9  280185.19  127484.41  45.50
1306.7  278787.95  126217.00  45.27
1310.4  277427.04  124840.52  45.00
1314.1  276197.72  123437.60  44.69
1317.9  275088.33  121945.85  44.33
1321.6  273814.60  120272.43  43.92
1325.3  272283.90  118356.98  43.47
1329.0  271049.92  116478.65  42.97
1332.8  269130.40  114183.30  42.43
1336.5  267456.73  111958.10  41.86
1340.2  267130.50  110285.50  41.29
