/*** Spectra Vista SIG Data ***/
name= 45_20220722_ACRU_13_avg.sig
comm= Averaged Ref/Tar of files: HR.072222.0011_moc.sig,HR.072222.0012_moc.sig,HR.072222.0013_moc.sig
data=
337.3  3126.38  324.22  10.37
338.8  3222.70  307.84  9.55
340.3  3373.20  306.09  9.07
341.8  3566.55  298.74  8.38
343.2  3774.00  313.76  8.31
344.7  3923.80  312.77  7.97
346.2  4085.00  305.01  7.47
347.7  4247.10  293.63  6.91
349.2  4422.60  292.32  6.61
350.6  4700.80  293.80  6.25
352.1  4930.05  314.38  6.38
353.6  5205.00  323.87  6.22
355.1  5455.35  332.26  6.09
356.6  5735.63  336.49  5.87
358.0  5997.20  327.51  5.46
359.5  6241.80  333.72  5.35
361.0  6553.58  343.14  5.24
362.5  6879.63  370.82  5.39
364.0  7197.43  374.69  5.21
365.4  7530.80  382.16  5.07
366.9  7900.75  390.43  4.94
368.4  8237.05  403.67  4.90
369.9  8566.93  417.99  4.88
371.3  8944.50  430.76  4.82
372.8  9319.05  453.12  4.86
374.3  9675.00  458.67  4.74
375.8  10079.30  470.73  4.67
377.2  10491.00  480.61  4.58
378.7  10867.60  487.79  4.49
380.2  11271.10  494.96  4.39
381.7  11728.85  504.47  4.30
383.1  12127.50  517.44  4.27
384.6  12597.33  539.50  4.28
386.1  13053.08  554.91  4.25
387.6  13501.95  567.75  4.20
389.0  13962.80  578.88  4.15
390.5  14416.65  584.10  4.05
392.0  14917.80  599.53  4.02
393.4  15449.70  616.59  3.99
394.9  15947.10  636.84  3.99
396.4  16456.50  648.60  3.94
397.9  16963.75  669.67  3.95
399.3  17499.58  678.71  3.88
400.8  17995.85  697.90  3.88
402.2  18608.90  713.59  3.83
403.7  19139.63  735.09  3.84
405.2  19721.28  751.29  3.81
406.6  20230.40  767.15  3.79
408.1  20814.60  786.48  3.78
409.6  21379.30  807.76  3.78
411.0  22011.85  825.53  3.75
412.5  22615.95  852.44  3.77
414.0  23207.13  869.33  3.75
415.4  23850.00  895.70  3.76
416.9  24479.25  914.92  3.74
418.4  25136.55  943.71  3.75
419.8  25807.60  965.81  3.74
421.3  26470.13  993.45  3.75
422.7  27196.20  1018.48  3.74
424.2  27911.25  1044.00  3.74
425.7  28622.80  1073.63  3.75
427.1  29323.73  1103.53  3.76
428.6  30054.50  1132.53  3.77
430.0  30744.55  1159.37  3.77
431.5  31536.53  1188.03  3.77
432.9  32347.20  1218.88  3.77
434.4  33176.70  1249.14  3.77
435.9  33950.00  1280.53  3.77
437.3  34746.25  1309.00  3.77
438.8  35512.20  1341.21  3.78
440.2  36301.65  1374.45  3.79
441.7  37198.40  1407.89  3.78
443.1  38040.75  1441.60  3.79
444.6  38946.30  1479.43  3.80
446.0  39807.30  1517.21  3.81
447.5  40700.83  1554.45  3.82
448.9  41563.80  1589.28  3.82
450.4  42488.95  1629.97  3.84
451.8  43290.00  1662.27  3.84
453.3  44141.20  1703.24  3.86
454.7  45084.85  1746.13  3.87
456.2  45890.75  1777.44  3.87
457.6  46794.38  1810.71  3.87
459.1  47703.50  1847.73  3.87
460.5  48564.63  1881.42  3.87
462.0  49542.08  1922.35  3.88
463.4  50498.20  1961.84  3.88
464.8  51406.88  2003.55  3.90
466.3  52341.30  2040.17  3.90
467.7  53259.80  2073.72  3.89
469.2  54245.05  2115.00  3.90
470.6  55146.25  2150.59  3.90
472.0  56117.03  2186.32  3.90
473.5  57050.88  2227.98  3.91
474.9  57997.50  2266.70  3.91
476.4  59068.80  2315.52  3.92
477.8  60059.00  2358.67  3.93
479.2  61001.50  2399.27  3.93
480.7  62039.85  2443.38  3.94
482.1  63074.25  2489.25  3.95
483.6  64186.90  2537.42  3.95
485.0  65195.40  2584.27  3.96
486.4  66304.35  2642.28  3.99
487.9  67304.25  2692.95  4.00
489.3  68382.90  2750.63  4.02
490.7  69398.93  2809.53  4.05
492.2  70545.30  2881.20  4.08
493.6  71565.25  2947.58  4.12
495.0  72598.50  3024.45  4.17
496.5  73683.18  3107.19  4.22
497.9  74695.75  3195.24  4.28
499.3  75796.38  3295.03  4.35
500.7  76941.80  3400.75  4.42
502.2  78022.40  3525.41  4.52
503.6  79175.80  3663.63  4.63
505.0  80150.15  3820.72  4.77
506.5  81365.93  4008.95  4.93
507.9  82471.48  4214.25  5.11
509.3  83753.20  4465.65  5.33
510.7  84927.38  4748.25  5.59
512.2  86227.58  5064.32  5.87
513.6  87606.75  5430.04  6.20
515.0  88892.03  5845.53  6.58
516.4  90153.00  6305.04  6.99
517.8  91643.00  6827.08  7.45
519.3  92852.78  7373.42  7.94
520.7  94289.55  7980.40  8.46
522.1  95491.18  8588.10  8.99
523.5  96744.00  9222.19  9.53
524.9  98082.45  9859.86  10.05
526.3  99359.40  10485.07  10.55
527.8  100697.85  11103.84  11.03
529.2  101752.10  11677.63  11.48
530.6  103274.15  12276.72  11.89
532.0  104874.00  12842.67  12.25
533.4  106034.33  13314.36  12.56
534.8  106791.88  13695.81  12.82
536.3  108347.10  14131.52  13.04
537.7  110237.40  14582.40  13.23
539.1  111578.23  14936.26  13.39
540.5  112655.45  15245.66  13.53
541.9  114252.83  15608.94  13.66
543.3  115402.75  15911.77  13.79
544.7  116576.40  16209.28  13.90
546.1  118195.83  16572.75  14.02
547.5  119369.60  16853.76  14.12
549.0  120989.00  17183.47  14.20
550.4  122336.25  17454.75  14.27
551.8  123721.38  17698.84  14.31
553.2  125123.88  17896.89  14.30
554.6  126349.60  18019.73  14.26
556.0  127750.05  18108.36  14.17
557.4  129227.70  18158.23  14.05
558.8  130710.15  18160.80  13.89
560.2  132032.25  18088.47  13.70
561.6  133544.25  17993.55  13.47
563.0  134991.33  17839.62  13.22
564.4  136443.15  17648.04  12.93
565.8  137838.13  17405.17  12.63
567.2  139438.25  17151.27  12.30
568.6  140798.63  16831.60  11.95
570.0  142104.30  16484.45  11.60
571.4  143683.15  16159.52  11.25
572.8  145281.38  15844.97  10.91
574.2  146776.00  15533.65  10.58
575.6  148173.75  15244.50  10.29
577.0  149566.80  14980.79  10.02
578.4  151151.00  14761.72  9.77
579.8  152525.70  14554.89  9.54
581.2  154097.98  14396.21  9.34
582.5  155376.00  14233.44  9.16
583.9  156786.60  14101.79  8.99
585.3  158423.63  14009.49  8.84
586.7  159764.15  13904.11  8.70
588.1  161129.13  13827.35  8.58
589.5  162643.25  13783.70  8.47
590.9  164114.00  13759.04  8.38
592.3  165772.95  13768.19  8.31
593.7  167094.53  13768.43  8.24
595.0  168584.63  13786.02  8.18
596.4  169916.95  13797.79  8.12
597.8  171269.43  13808.94  8.06
599.2  172669.20  13810.72  8.00
600.6  174277.68  13817.14  7.93
602.0  175451.33  13768.68  7.85
603.3  177112.05  13732.47  7.75
604.7  178636.53  13656.77  7.65
606.1  179993.40  13546.08  7.53
607.5  181512.38  13425.56  7.40
608.9  183057.45  13289.43  7.26
610.2  184317.53  13126.05  7.12
611.6  185766.60  12974.63  6.98
613.0  187185.30  12814.26  6.85
614.4  188451.60  12652.68  6.71
615.8  189788.63  12513.15  6.59
617.1  191202.90  12393.08  6.48
618.5  192681.20  12301.76  6.38
619.9  194069.78  12228.55  6.30
621.3  195567.98  12184.62  6.23
622.6  197030.00  12163.40  6.17
624.0  198347.10  12156.06  6.13
625.4  199683.83  12174.25  6.10
626.8  201132.75  12213.41  6.07
628.1  202341.98  12248.79  6.05
629.5  204050.70  12325.45  6.04
630.9  205493.75  12377.71  6.02
632.2  206738.53  12416.65  6.01
633.6  208205.75  12441.88  5.98
635.0  209599.20  12425.28  5.93
636.3  211008.10  12375.27  5.86
637.7  212253.00  12271.38  5.78
639.1  213762.50  12145.00  5.68
640.4  215104.75  11978.94  5.57
641.8  216217.25  11781.14  5.45
643.2  217669.90  11591.28  5.33
644.5  218908.75  11392.87  5.20
645.9  220495.95  11222.52  5.09
647.2  222109.30  11081.30  4.99
648.6  223762.50  10978.20  4.91
650.0  225028.80  10877.76  4.83
651.3  225488.18  10758.18  4.77
652.7  226742.85  10676.76  4.71
654.0  228748.10  10643.92  4.65
655.4  230095.83  10579.75  4.60
656.8  230155.30  10457.13  4.54
658.1  231244.90  10375.41  4.49
659.5  233538.38  10327.31  4.42
660.8  235215.00  10257.00  4.36
662.2  236051.20  10157.65  4.30
663.5  237536.60  10097.45  4.25
664.9  238680.00  10056.97  4.21
666.2  239338.20  10007.76  4.18
667.6  240886.75  10019.46  4.16
668.9  241986.08  10046.15  4.15
670.3  243149.13  10101.57  4.15
671.6  244481.25  10177.50  4.16
673.0  245543.25  10286.65  4.19
674.3  246702.30  10401.73  4.22
675.7  247946.40  10540.08  4.25
677.0  248948.58  10701.21  4.30
678.4  250181.98  10886.22  4.35
679.7  251195.13  11097.66  4.42
681.1  252405.55  11343.61  4.49
682.4  253464.90  11612.81  4.58
683.8  254592.00  11922.21  4.68
685.1  255521.63  12289.70  4.81
686.4  256720.80  12754.64  4.97
687.8  257877.50  13347.03  5.18
689.1  258878.75  14130.23  5.46
690.5  260131.65  15177.14  5.83
691.8  260867.33  16562.58  6.35
693.1  262105.80  18422.00  7.03
694.5  263194.75  20769.23  7.89
695.8  264309.50  23647.87  8.95
697.1  265424.25  27060.37  10.20
698.5  266384.50  30990.04  11.63
699.8  267428.95  35379.05  13.23
701.1  268472.00  40168.01  14.96
702.5  269224.45  45178.17  16.78
703.8  270090.00  50400.00  18.66
705.1  271163.10  55748.55  20.56
706.5  272102.38  61095.68  22.45
707.8  273027.60  66415.26  24.33
709.1  273860.78  71627.53  26.15
710.5  274932.38  76818.84  27.94
711.8  275739.50  81829.11  29.68
713.1  276653.80  86773.76  31.37
714.4  277478.90  91569.75  33.00
715.8  278259.40  96214.09  34.58
717.1  279486.75  100878.96  36.09
718.4  280358.40  105280.00  37.55
719.7  281387.00  109588.10  38.95
721.0  281902.50  113541.00  40.28
722.4  282619.15  117413.34  41.54
723.7  283532.70  121201.66  42.75
725.0  284471.55  124863.27  43.89
726.3  285358.15  128313.02  44.97
727.6  285883.13  131435.48  45.98
729.0  286722.98  134545.30  46.93
730.3  287444.10  137410.13  47.80
731.6  288286.95  140174.79  48.62
732.9  289052.23  142731.61  49.38
734.2  289826.63  145152.52  50.08
735.5  290769.00  147529.98  50.74
736.8  291486.30  149641.80  51.34
738.1  292273.10  151647.09  51.89
739.5  293194.40  153575.72  52.38
740.8  293846.85  155266.14  52.84
742.1  294549.98  156875.30  53.26
743.4  295225.00  158370.00  53.64
744.7  296133.53  159884.75  53.99
746.0  296949.90  161246.28  54.30
747.3  297468.35  162352.61  54.58
748.6  298159.25  163454.13  54.82
749.9  298844.00  164489.87  55.04
751.2  299522.10  165456.28  55.24
752.5  300332.75  166439.52  55.42
753.8  300931.58  167234.62  55.57
755.1  301600.00  168005.07  55.70
756.4  302167.18  168667.80  55.82
757.7  303095.80  169480.55  55.92
759.0  304734.50  170682.79  56.01
760.3  305844.00  171526.08  56.08
761.6  307283.20  172541.79  56.15
762.9  307812.25  172994.03  56.20
764.2  308193.30  173322.08  56.24
765.5  308490.38  173590.58  56.27
766.8  308910.40  173913.17  56.30
768.1  309428.20  174271.31  56.32
769.3  309984.15  174648.46  56.34
770.6  310608.35  175045.26  56.36
771.9  311277.40  175477.66  56.37
773.2  311633.20  175716.48  56.39
774.5  312254.80  176076.85  56.39
775.8  312878.25  176450.45  56.40
777.1  313449.95  176781.15  56.40
778.4  313788.20  176977.64  56.40
779.6  314520.23  177402.76  56.40
780.9  314970.00  177656.00  56.40
782.2  315416.75  177914.37  56.41
783.5  315705.50  178099.67  56.41
784.8  316233.68  178378.11  56.41
786.0  316639.75  178593.33  56.40
787.3  317047.68  178811.57  56.40
788.6  317422.55  179051.69  56.41
789.9  317846.20  179302.48  56.41
791.2  318485.78  179644.61  56.41
792.4  319132.05  180008.33  56.41
793.7  319571.20  180270.93  56.41
795.0  320187.45  180607.46  56.41
796.2  320825.15  180958.98  56.40
797.5  321484.05  181324.69  56.40
798.8  322132.63  181681.16  56.40
800.0  322751.73  182042.39  56.40
801.3  323239.40  182300.19  56.40
802.6  323803.58  182617.05  56.40
803.8  324426.23  182960.48  56.40
805.1  324891.88  183218.70  56.39
806.4  325335.90  183469.28  56.39
807.7  325883.25  183751.47  56.39
808.9  326401.00  184046.54  56.39
810.2  326880.75  184334.64  56.39
811.4  327336.30  184599.01  56.39
812.7  327925.00  184930.42  56.39
814.0  328747.35  185378.01  56.39
815.2  329365.75  185698.43  56.38
816.5  329787.28  185919.81  56.38
817.7  330202.10  186174.68  56.38
819.0  330654.50  186441.05  56.39
820.2  330792.00  186536.53  56.39
821.5  331481.60  186916.81  56.39
822.7  331865.75  187118.56  56.38
824.0  332178.30  187284.24  56.38
825.2  332638.65  187529.58  56.38
826.5  332910.55  187681.75  56.38
827.7  333437.58  187969.85  56.37
829.0  333814.98  188195.44  56.38
830.2  334084.20  188351.75  56.38
831.5  334550.65  188604.12  56.38
832.7  334831.88  188755.21  56.37
834.0  335178.00  188913.49  56.36
835.2  335529.70  189097.00  56.36
836.4  335784.90  189250.23  56.36
837.7  336148.40  189461.52  56.36
838.9  336563.33  189707.67  56.37
840.1  336878.33  189909.81  56.37
841.4  337303.20  190144.63  56.37
842.6  337609.80  190323.84  56.37
843.8  337946.20  190512.51  56.37
845.1  338413.70  190790.47  56.38
846.3  338783.70  190997.80  56.38
847.5  339213.00  191226.00  56.37
848.8  339529.20  191431.68  56.38
850.0  339876.25  191592.05  56.37
851.2  340409.25  191881.26  56.37
852.5  340790.00  192059.81  56.36
853.7  341192.25  192313.50  56.37
854.9  341670.90  192544.89  56.35
856.1  342114.50  192780.29  56.35
857.4  342244.95  192867.17  56.35
858.6  342700.80  193098.72  56.35
859.8  343128.75  193297.25  56.33
861.0  343488.60  193518.00  56.34
862.2  344003.00  193750.45  56.32
863.5  344329.05  193937.08  56.32
864.7  344777.40  194180.80  56.32
865.9  345273.60  194392.56  56.30
867.1  345539.00  194539.94  56.30
868.3  345956.70  194729.76  56.29
869.5  346401.35  194955.09  56.28
870.8  346927.50  195207.60  56.27
872.0  347343.90  195456.98  56.27
873.2  347767.50  195677.18  56.27
874.4  348200.78  195868.53  56.25
875.6  348457.20  196023.13  56.25
876.8  349053.20  196280.59  56.23
878.0  349543.65  196493.45  56.21
879.2  350022.75  196695.98  56.20
880.4  350472.38  196964.75  56.20
881.6  350901.68  197149.96  56.18
882.8  351302.40  197347.95  56.18
884.0  351927.38  197656.50  56.16
885.2  352378.60  197909.67  56.16
886.5  353001.05  198171.04  56.14
887.7  353438.15  198367.09  56.12
888.8  354055.73  198663.08  56.11
890.0  354638.20  198927.75  56.09
891.2  355216.70  199193.71  56.08
892.4  355773.60  199463.81  56.06
893.6  356398.65  199739.97  56.04
894.8  357178.50  200165.93  56.04
896.0  357994.75  200604.10  56.04
897.2  358770.75  200976.10  56.02
898.4  359482.20  201340.04  56.01
899.6  359926.88  201586.75  56.01
900.8  360342.65  201755.34  55.99
902.0  360635.40  201821.78  55.96
903.2  360954.15  201957.79  55.95
904.3  361348.20  202114.24  55.93
905.5  361927.45  202372.36  55.92
906.7  362519.00  202680.73  55.91
907.9  362952.80  202925.01  55.91
909.1  363287.03  203048.37  55.89
910.2  363564.75  203138.35  55.87
911.4  363852.45  203216.91  55.85
912.6  364042.25  203312.63  55.85
913.8  364253.10  203419.83  55.85
915.0  364729.05  203618.52  55.83
916.2  364913.25  203645.00  55.81
917.3  364997.48  203641.44  55.79
918.5  365060.60  203701.91  55.80
919.7  365445.90  203832.34  55.78
920.8  365685.73  203794.30  55.73
922.0  365711.50  203831.83  55.74
923.2  365956.50  203876.40  55.71
924.4  366278.63  203909.40  55.67
925.5  366463.60  203996.20  55.67
926.7  367042.75  204241.68  55.65
927.9  367862.40  204637.92  55.63
929.0  369346.50  205342.92  55.60
930.2  371347.40  206397.51  55.58
931.4  373715.78  207568.80  55.54
932.5  376033.10  208816.83  55.53
933.7  377440.93  209459.27  55.49
934.9  377978.13  209725.25  55.49
936.0  377815.75  209467.27  55.44
937.2  376067.85  208312.58  55.39
938.3  374416.00  207355.15  55.38
939.5  373086.00  206491.68  55.35
940.7  373194.90  206532.12  55.34
941.8  374707.80  207141.84  55.28
943.0  376066.50  207738.80  55.24
944.2  376806.95  208050.53  55.21
945.3  376613.25  207751.70  55.16
946.5  375862.95  207240.66  55.14
947.6  376251.10  207227.33  55.08
948.8  376020.45  206985.87  55.05
949.9  376047.00  206875.20  55.01
951.1  375984.38  206460.54  54.91
952.2  375768.00  206148.80  54.86
953.4  375744.25  205868.33  54.79
954.5  375710.40  205601.76  54.72
955.7  375706.80  205432.08  54.68
956.8  375441.70  205058.43  54.62
958.0  374999.50  204666.00  54.58
959.1  374929.23  204356.37  54.51
960.3  374859.25  204064.48  54.44
961.4  374576.35  203870.86  54.43
962.6  374969.00  203851.43  54.36
963.7  374856.60  203717.88  54.35
964.9  374529.30  203598.01  54.36
966.0  374446.80  203408.28  54.32
967.2  374564.70  203430.72  54.31
968.3  374191.65  203331.60  54.34
969.5  374071.35  203083.28  54.29
970.6  374476.33  202992.92  54.21
971.8  374580.68  203129.92  54.23
972.9  374357.78  203112.77  54.26
974.0  374459.10  203187.79  54.26
975.2  374214.13  202992.12  54.24
976.3  374300.10  203020.76  54.24
977.5  374393.25  202853.07  54.18
978.6  374493.60  202717.33  54.13
979.7  374182.73  202961.92  54.24
980.9  373816.83  202976.37  54.30
982.0  373401.10  202858.87  54.33
983.2  373486.18  202666.92  54.26
984.3  373046.80  202438.61  54.27
985.4  373180.88  202346.96  54.22
986.6  373388.00  202497.48  54.23
987.7  373724.93  203059.38  54.33
988.9  373654.80  203143.20  54.37
990.0  374765.50  203270.87  54.24
993.1  331291.92  178214.15  53.79
996.9  331512.15  178729.75  53.91
1000.7  332254.36  179473.03  54.02
1004.5  332658.92  179989.05  54.11
1008.4  332377.46  180132.12  54.20
1012.2  332303.25  180362.01  54.28
1016.0  332223.00  180581.15  54.36
1019.8  332212.65  180809.48  54.43
1023.7  331989.58  180862.51  54.48
1027.5  331526.12  180805.86  54.54
1031.3  331579.50  180966.31  54.58
1035.1  331366.29  180961.63  54.61
1038.9  331317.07  180993.29  54.63
1042.7  331168.67  180968.36  54.65
1046.5  331091.50  180919.12  54.64
1050.3  331121.08  180934.36  54.64
1054.2  330839.25  180809.50  54.65
1058.0  330387.81  180539.53  54.64
1061.8  330328.22  180468.43  54.63
1065.6  330066.33  180272.94  54.62
1069.4  329975.93  180174.43  54.60
1073.2  329504.08  179852.37  54.58
1077.0  329013.95  179502.32  54.56
1080.8  328576.04  179126.79  54.52
1084.6  327790.40  178537.33  54.47
1088.4  327313.75  178137.25  54.42
1092.2  326634.75  177601.82  54.37
1096.0  326100.24  177147.19  54.32
1099.8  325670.37  176718.69  54.26
1103.6  325049.37  176196.82  54.21
1107.4  324189.58  175504.05  54.14
1111.2  323979.20  175155.01  54.06
1114.9  323379.58  174577.58  53.99
1118.7  322888.50  173979.42  53.88
1122.5  322292.53  173270.81  53.76
1126.3  321339.55  172323.28  53.63
1130.1  320949.06  171493.05  53.43
1133.9  319528.30  169907.70  53.17
1137.7  318268.80  168246.89  52.86
1141.4  316631.47  166209.17  52.49
1145.2  315960.53  164540.18  52.08
1149.0  314953.33  162760.84  51.68
1152.8  313503.50  160921.74  51.33
1156.6  312057.90  159355.53  51.07
1160.3  310517.67  158024.14  50.89
1164.1  308393.40  156606.19  50.78
1167.9  306834.38  155612.80  50.72
1171.7  305707.50  154919.25  50.68
1175.4  304609.90  154301.80  50.66
1179.2  303658.28  153718.20  50.62
1183.0  303359.33  153461.43  50.59
1186.7  302949.50  153119.37  50.54
1190.5  302094.40  152576.15  50.51
1194.3  301091.73  151964.06  50.47
1198.0  300011.80  151365.62  50.45
1201.8  298658.98  150672.94  50.45
1205.6  297547.00  150162.95  50.47
1209.3  296740.63  149864.30  50.50
1213.1  296015.48  149569.89  50.53
1216.8  295226.80  149316.73  50.58
1220.6  294263.20  149013.33  50.64
1224.3  293196.58  148639.62  50.70
1228.1  292105.80  148285.28  50.76
1231.9  290930.30  147851.43  50.82
1235.6  289603.80  147302.94  50.86
1239.4  288389.50  146826.20  50.91
1243.1  287277.83  146329.36  50.94
1246.9  286209.49  145819.20  50.95
1250.6  285319.33  145380.41  50.95
1254.3  284375.85  144889.69  50.95
1258.1  283452.17  144406.33  50.95
1261.8  282278.80  143773.12  50.93
1265.6  280999.05  143061.07  50.91
1269.3  279770.25  142319.91  50.87
1273.1  279783.98  142167.33  50.81
1276.8  279980.80  142096.63  50.75
1280.6  279722.70  141800.80  50.69
1284.3  278373.60  140932.23  50.63
1288.0  277066.59  140021.73  50.54
1291.8  276027.13  139163.24  50.42
1295.5  274895.87  138232.70  50.29
1299.2  273798.33  137284.37  50.14
1302.9  272505.89  136162.64  49.97
1306.7  271107.20  134939.58  49.77
1310.4  269753.69  133627.67  49.54
1314.1  268513.30  132319.79  49.28
1317.9  267408.13  130958.96  48.97
1321.6  266127.62  129446.02  48.64
1325.3  264671.40  127718.18  48.26
1329.0  263499.95  126080.95  47.85
1332.8  261646.00  124025.00  47.40
1336.5  260052.40  122065.72  46.94
1340.2  259729.17  120702.83  46.47
1343.9  259378.13  119296.34  45.99
