/*** Spectra Vista SIG Data ***/
name= 4_20220824_TITO_37_avg.sig
comm= Averaged Ref/Tar of files: HR.082422.0010_moc.sig,HR.082422.0011_moc.sig,HR.082422.0012_moc.sig
data=
337.3  3341.42  297.75  8.91
338.8  3527.33  295.01  8.36
340.3  3685.53  299.84  8.14
341.8  3871.38  292.64  7.56
343.2  4025.60  301.92  7.50
344.7  4208.13  272.96  6.49
346.2  4384.57  266.89  6.09
347.7  4587.92  267.41  5.83
349.2  4788.00  267.12  5.58
350.6  5043.57  284.01  5.63
352.1  5334.93  281.04  5.27
353.6  5621.40  282.23  5.02
355.1  5881.90  287.36  4.89
356.6  6183.55  288.42  4.66
358.0  6465.07  297.73  4.61
359.5  6756.80  300.76  4.45
361.0  7082.25  311.22  4.39
362.5  7455.37  312.27  4.19
364.0  7818.72  321.16  4.11
365.4  8186.47  325.96  3.98
366.9  8563.75  342.55  4.00
368.4  8909.83  345.48  3.88
369.9  9296.60  356.73  3.84
371.3  9736.60  377.36  3.88
372.8  10159.80  389.40  3.83
374.3  10606.67  397.75  3.75
375.8  11049.50  413.23  3.74
377.2  11459.40  412.47  3.60
378.7  11889.80  419.64  3.53
380.2  12320.20  423.23  3.44
381.7  12863.90  428.80  3.33
383.1  13385.17  445.57  3.33
384.6  13919.10  460.37  3.31
386.1  14431.35  475.64  3.30
387.6  14912.33  481.51  3.23
389.0  15418.93  493.12  3.20
390.5  15947.70  502.68  3.15
392.0  16522.43  514.89  3.12
393.4  17131.30  532.51  3.11
394.9  17695.80  542.88  3.07
396.4  18267.75  552.00  3.02
397.9  18842.92  560.33  2.97
399.3  19415.83  577.41  2.97
400.8  19989.85  584.91  2.93
402.2  20654.73  602.29  2.92
403.7  21282.30  616.32  2.90
405.2  21923.05  628.18  2.87
406.6  22519.47  640.32  2.84
408.1  23127.33  653.89  2.83
409.6  23749.90  673.13  2.83
411.0  24438.63  694.59  2.84
412.5  25142.72  710.83  2.83
414.0  25794.75  730.78  2.83
415.4  26513.25  744.65  2.81
416.9  27216.30  760.72  2.80
418.4  27925.35  776.88  2.78
419.8  28658.93  798.37  2.79
421.3  29411.25  822.33  2.80
422.7  30218.00  846.80  2.80
424.2  31027.50  870.75  2.81
425.7  31806.73  891.07  2.80
427.1  32578.40  915.74  2.81
428.6  33397.33  942.40  2.82
430.0  34153.87  965.13  2.83
431.5  35063.80  991.02  2.83
432.9  35970.63  1019.64  2.83
434.4  36891.65  1050.50  2.85
435.9  37744.00  1073.33  2.84
437.3  38600.83  1103.67  2.86
438.8  39467.05  1129.44  2.86
440.2  40362.12  1153.46  2.86
441.7  41352.40  1188.13  2.87
443.1  42294.00  1222.53  2.89
444.6  43291.13  1254.11  2.90
446.0  44253.40  1288.85  2.91
447.5  45228.88  1318.35  2.91
448.9  46190.60  1348.48  2.92
450.4  47224.33  1384.79  2.93
451.8  48126.00  1417.87  2.95
453.3  49074.83  1452.20  2.96
454.7  50117.70  1486.14  2.97
456.2  51013.23  1514.70  2.97
457.6  52020.30  1546.98  2.97
459.1  53015.73  1581.23  2.98
460.5  53972.58  1608.57  2.98
462.0  55064.78  1646.44  2.99
463.4  56124.33  1680.53  2.99
464.8  57155.75  1711.25  2.99
466.3  58175.70  1742.84  3.00
467.7  59190.07  1775.33  3.00
469.2  60278.53  1810.98  3.00
470.6  61286.10  1839.61  3.00
472.0  62352.25  1872.91  3.00
473.5  63383.58  1909.70  3.01
474.9  64448.00  1947.50  3.02
476.4  65635.20  1987.20  3.03
477.8  66738.67  2024.20  3.03
479.2  67782.67  2057.07  3.03
480.7  68929.95  2094.05  3.04
482.1  70092.13  2132.82  3.04
483.6  71315.57  2175.21  3.05
485.0  72423.25  2209.85  3.05
486.4  73652.10  2254.28  3.06
487.9  74763.00  2299.05  3.08
489.3  75971.18  2342.26  3.08
490.7  77060.83  2387.41  3.10
492.2  78331.40  2440.20  3.12
493.6  79471.37  2488.55  3.13
495.0  80622.75  2544.75  3.16
496.5  81827.80  2602.37  3.18
497.9  82962.67  2666.94  3.21
499.3  84156.23  2733.46  3.25
500.7  85438.80  2814.75  3.29
502.2  86616.93  2900.53  3.35
503.6  87901.73  2995.92  3.41
505.0  88993.87  3097.99  3.48
506.5  90334.35  3224.89  3.57
507.9  91559.20  3362.31  3.67
509.3  92963.73  3528.32  3.80
510.7  94253.25  3708.90  3.94
512.2  95689.40  3923.69  4.10
513.6  97206.90  4171.07  4.29
515.0  98655.12  4447.68  4.51
516.4  100056.60  4760.91  4.76
517.8  101709.42  5117.02  5.03
519.3  103057.15  5494.88  5.33
520.7  104653.77  5917.86  5.65
522.1  105977.08  6350.24  5.99
523.5  107363.60  6803.59  6.34
524.9  108847.20  7272.60  6.68
526.3  110274.97  7739.43  7.02
527.8  111780.90  8199.18  7.34
529.2  112922.13  8636.04  7.65
530.6  114559.60  9091.94  7.94
532.0  116330.67  9533.07  8.19
533.4  117640.95  9907.94  8.42
534.8  118522.45  10214.99  8.62
536.3  120262.40  10559.08  8.78
537.7  122413.20  10916.64  8.92
539.1  123940.20  11204.25  9.04
540.5  125143.27  11452.32  9.15
541.9  126918.80  11746.74  9.26
543.3  128220.13  11988.61  9.35
544.7  129542.00  12231.44  9.44
546.1  131338.72  12518.26  9.53
547.5  132652.80  12748.59  9.61
549.0  134478.67  13022.53  9.68
550.4  136007.08  13258.58  9.75
551.8  137568.77  13464.98  9.79
553.2  139128.95  13632.86  9.80
554.6  140497.07  13739.09  9.78
556.0  142064.10  13816.56  9.73
557.4  143689.58  13857.53  9.64
558.8  145355.40  13856.58  9.53
560.2  146813.17  13801.52  9.40
561.6  148493.70  13723.47  9.24
563.0  150099.77  13602.14  9.06
564.4  151709.00  13449.14  8.87
565.8  153240.83  13261.42  8.65
567.2  155007.83  13059.10  8.42
568.6  156527.50  12820.90  8.19
570.0  157981.47  12549.55  7.94
571.4  159738.80  12296.44  7.70
572.8  161512.75  12052.08  7.46
574.2  163154.13  11809.28  7.24
575.6  164700.00  11586.00  7.03
577.0  166253.13  11384.37  6.85
578.4  168008.75  11223.33  6.68
579.8  169539.30  11063.43  6.53
581.2  171271.42  10945.32  6.39
582.5  172699.80  10823.28  6.27
583.9  174238.80  10725.41  6.16
585.3  176060.70  10660.95  6.06
586.7  177545.12  10594.83  5.97
588.1  179053.92  10539.05  5.89
589.5  180728.33  10510.50  5.82
590.9  182370.93  10500.32  5.76
592.3  184200.53  10511.88  5.71
593.7  185654.95  10521.94  5.67
595.0  187313.40  10543.86  5.63
596.4  188767.83  10562.02  5.60
597.8  190258.68  10578.55  5.56
599.2  191831.20  10593.44  5.52
600.6  193594.48  10612.03  5.48
602.0  194904.15  10589.64  5.43
603.3  196709.87  10572.61  5.37
604.7  198387.78  10529.75  5.31
606.1  199888.40  10458.56  5.23
607.5  201550.45  10378.77  5.15
608.9  203266.03  10288.35  5.06
610.2  204668.10  10173.87  4.97
611.6  206270.45  10065.70  4.88
613.0  207848.80  9958.94  4.79
614.4  209238.70  9847.44  4.71
615.8  210697.50  9750.00  4.63
617.1  212238.60  9672.60  4.56
618.5  213869.87  9610.13  4.49
619.9  215387.65  9563.94  4.44
621.3  217019.70  9535.44  4.39
622.6  218624.00  9522.10  4.36
624.0  220080.10  9519.26  4.33
625.4  221560.90  9538.76  4.31
626.8  223130.48  9576.23  4.29
628.1  224456.65  9613.85  4.28
629.5  226326.40  9672.63  4.27
630.9  227949.88  9722.79  4.27
632.2  229320.93  9750.44  4.25
633.6  230947.75  9774.95  4.23
635.0  232475.20  9781.07  4.21
636.3  234011.33  9757.20  4.17
637.7  235384.92  9697.57  4.12
639.1  237055.00  9632.00  4.06
640.4  238541.80  9539.79  4.00
641.8  239758.13  9428.24  3.93
643.2  241354.75  9334.55  3.87
644.5  242737.17  9219.90  3.80
645.9  244401.00  9121.68  3.73
647.2  246131.08  9041.55  3.67
648.6  247914.00  8982.90  3.62
650.0  249292.80  8922.24  3.58
651.3  249812.02  8856.10  3.55
652.7  251183.53  8826.61  3.51
654.0  253350.33  8818.03  3.48
655.4  254821.88  8788.11  3.45
656.8  254875.60  8704.69  3.42
658.1  256131.67  8647.19  3.38
659.5  258709.50  8629.67  3.34
660.8  260655.00  8589.00  3.30
662.2  261587.20  8514.99  3.26
663.5  263186.30  8476.07  3.22
664.9  264419.13  8448.09  3.19
666.2  265112.40  8418.24  3.18
667.6  266798.63  8435.87  3.16
668.9  267957.40  8457.39  3.16
670.3  269275.67  8496.53  3.16
671.6  270751.00  8560.90  3.16
673.0  271931.00  8643.50  3.18
674.3  273200.20  8745.71  3.20
675.7  274524.70  8847.66  3.22
677.0  275650.22  8965.64  3.25
678.4  277001.08  9109.54  3.29
679.7  278117.02  9265.18  3.33
681.1  279469.50  9448.10  3.38
682.4  280640.53  9647.39  3.44
683.8  281907.60  9880.17  3.50
685.1  282905.00  10133.25  3.58
686.4  284219.20  10460.64  3.68
687.8  285512.00  10860.97  3.80
689.1  286594.83  11380.13  3.97
690.5  287972.30  12089.86  4.20
691.8  288728.83  13044.49  4.52
693.1  290131.40  14354.06  4.95
694.5  291321.33  16049.37  5.51
695.8  292549.83  18166.63  6.21
697.1  293793.50  20738.90  7.06
698.5  294857.87  23768.41  8.06
699.8  295954.10  27240.23  9.20
701.1  297102.97  31113.12  10.47
702.5  297900.53  35310.29  11.85
703.8  298860.00  39780.00  13.31
705.1  300061.45  44500.17  14.83
706.5  301107.83  49392.07  16.40
707.8  302097.50  54402.88  18.01
709.1  302994.90  59491.66  19.63
710.5  304155.80  64718.69  21.28
711.8  305034.27  69947.67  22.93
713.1  306045.20  75261.01  24.59
714.4  306952.07  80583.28  26.25
715.8  307799.47  85890.68  27.90
717.1  309130.30  91348.92  29.55
718.4  310075.73  96660.48  31.17
719.7  311218.82  101988.55  32.77
721.0  311775.00  107058.00  34.34
722.4  312558.03  112103.57  35.87
723.7  313536.40  117103.52  37.35
725.0  314604.90  122012.04  38.78
726.3  315563.23  126715.27  40.16
727.6  316126.25  131097.67  41.47
729.0  317068.03  135450.07  42.72
730.3  317837.10  139534.57  43.90
731.6  318760.07  143477.53  45.01
732.9  319581.27  147169.38  46.05
734.2  320408.92  150675.25  47.03
735.5  321461.28  154091.89  47.93
736.8  322241.00  157184.72  48.78
738.1  323112.07  160107.69  49.55
739.5  324090.05  162916.94  50.27
740.8  324799.57  165421.63  50.93
742.1  325593.05  167796.12  51.54
743.4  326316.67  170006.67  52.10
744.7  327308.57  172210.43  52.61
746.0  328198.00  174201.82  53.08
747.3  328796.03  175891.07  53.50
748.6  329548.50  177534.23  53.87
749.9  330304.00  179077.60  54.22
751.2  331024.13  180501.25  54.53
752.5  331948.10  181923.81  54.80
753.8  332543.17  183098.65  55.06
755.1  333285.33  184232.53  55.28
756.4  333882.65  185219.07  55.47
757.7  334889.92  186349.33  55.64
759.0  336711.52  187889.89  55.80
760.3  337902.40  189016.96  55.94
761.6  339504.67  190317.68  56.06
762.9  340063.83  190984.30  56.16
764.2  340464.33  191528.00  56.25
765.5  340731.20  191974.79  56.34
766.8  341214.93  192481.71  56.41
768.1  341732.80  193001.95  56.48
769.3  342343.87  193538.94  56.53
770.6  343002.40  194095.98  56.59
771.9  343753.78  194677.98  56.63
773.2  344170.13  195047.41  56.67
774.5  344801.60  195524.85  56.71
775.8  345488.37  196049.21  56.75
777.1  346049.37  196490.43  56.78
778.4  346410.72  196802.25  56.81
779.6  347207.82  197338.33  56.84
780.9  347680.00  197696.00  56.86
782.2  348137.17  198048.77  56.89
783.5  348472.67  198323.20  56.91
784.8  349000.65  198710.28  56.94
786.0  349399.17  199015.27  56.96
787.3  349792.17  199308.09  56.98
788.6  350223.52  199627.62  57.00
789.9  350700.93  199966.29  57.02
791.2  351332.23  200401.40  57.04
792.4  352019.12  200848.53  57.06
793.7  352503.60  201183.79  57.07
795.0  353155.55  201615.04  57.09
796.2  353818.05  202046.15  57.10
797.5  354542.25  202516.20  57.12
798.8  355208.90  202957.06  57.14
800.0  355893.80  203395.07  57.15
801.3  356379.20  203729.15  57.17
802.6  356970.00  204128.16  57.18
803.8  357623.50  204556.68  57.20
805.1  358114.75  204895.72  57.22
806.4  358571.80  205206.60  57.23
807.7  359100.00  205569.36  57.25
808.9  359690.27  205941.63  57.26
810.2  360221.40  206298.07  57.27
811.4  360766.33  206637.97  57.28
812.7  361427.08  207068.33  57.29
814.0  362257.17  207604.49  57.31
815.2  362891.00  208026.33  57.32
816.5  363311.35  208314.29  57.34
817.7  363825.07  208639.51  57.35
819.0  364342.73  208982.91  57.36
820.2  364525.33  209140.80  57.37
821.5  365237.00  209616.87  57.39
822.7  365610.72  209882.83  57.41
824.0  365945.40  210130.20  57.42
825.2  366452.10  210463.11  57.43
826.5  366790.97  210695.22  57.44
827.7  367359.23  211060.27  57.45
829.0  367841.27  211362.55  57.46
830.2  368138.77  211586.66  57.47
831.5  368635.93  211933.90  57.49
832.7  368968.60  212167.13  57.50
834.0  369282.02  212403.54  57.52
835.2  369705.97  212677.23  57.53
836.4  370035.60  212916.29  57.54
837.7  370438.93  213230.03  57.56
838.9  370875.05  213544.13  57.58
840.1  371259.00  213836.22  57.60
841.4  371708.73  214164.01  57.62
842.6  372116.40  214430.29  57.62
843.8  372500.67  214710.40  57.64
845.1  373074.10  215060.66  57.65
846.3  373501.47  215358.33  57.66
847.5  373844.80  215642.84  57.68
848.8  374302.00  215937.44  57.69
850.0  374605.23  216234.39  57.72
851.2  375243.30  216609.84  57.73
852.5  375640.60  216905.33  57.74
853.7  376144.50  217239.00  57.75
854.9  376593.73  217530.69  57.76
856.1  377107.03  217855.30  57.77
857.4  377333.08  218025.72  57.78
858.6  377803.83  218371.07  57.80
859.8  378232.50  218670.00  57.81
861.0  378799.20  218977.20  57.81
862.2  379208.82  219299.54  57.83
863.5  379619.07  219545.08  57.83
864.7  380182.00  219881.20  57.84
865.9  380603.47  220160.85  57.85
867.1  380933.27  220403.46  57.86
868.3  381435.60  220697.72  57.86
869.5  381931.63  221029.13  57.87
870.8  382449.00  221380.80  57.89
872.0  383016.50  221706.24  57.88
873.2  383456.00  221977.26  57.89
874.4  383976.45  222298.83  57.89
875.6  384355.95  222540.34  57.90
876.8  384915.57  222852.08  57.90
878.0  385388.00  223165.78  57.91
879.2  385975.50  223463.56  57.90
880.4  386514.75  223780.50  57.90
881.6  386958.82  224101.20  57.91
882.8  387482.67  224386.13  57.91
884.0  388086.87  224748.70  57.91
885.2  388627.93  225049.89  57.91
886.5  389281.47  225418.37  57.91
887.7  389808.25  225722.68  57.91
888.8  390474.45  226118.60  57.91
890.0  391063.50  226477.85  57.91
891.2  391666.00  226828.96  57.91
892.4  392389.90  227198.44  57.90
893.6  392979.53  227527.31  57.90
894.8  393867.33  228070.30  57.91
896.0  394816.50  228605.83  57.90
897.2  395678.83  229118.93  57.91
898.4  396446.60  229574.84  57.91
899.6  397079.50  229910.00  57.90
900.8  397522.53  230135.75  57.89
902.0  397711.40  230256.22  57.90
903.2  398214.40  230463.69  57.87
904.3  398488.60  230710.88  57.90
905.5  399185.78  231076.18  57.89
906.7  399822.67  231464.33  57.89
907.9  400414.93  231773.92  57.88
909.1  400771.80  231930.72  57.87
910.2  400987.05  232049.84  57.87
911.4  401269.05  232238.76  57.88
912.6  401601.20  232338.77  57.85
913.8  401795.65  232500.93  57.87
915.0  402255.70  232756.86  57.86
916.2  402473.50  232882.00  57.86
917.3  402555.00  232899.48  57.86
918.5  402789.60  233000.43  57.85
919.7  403156.90  233176.76  57.84
920.8  403243.12  233219.43  57.84
922.0  403441.50  233261.23  57.82
923.2  403676.00  233378.60  57.81
924.4  404055.00  233503.20  57.79
925.5  404251.07  233683.68  57.81
926.7  404914.50  233950.60  57.78
927.9  405844.00  234425.52  57.76
929.0  407311.20  235243.80  57.76
930.2  409572.87  236437.52  57.73
931.4  411970.95  237825.63  57.73
932.5  414961.87  239333.64  57.68
933.7  416263.12  240092.15  57.68
934.9  416990.00  240395.17  57.65
936.0  416658.67  240082.05  57.62
937.2  414617.70  238843.62  57.61
938.3  412971.93  237776.45  57.58
939.5  411494.40  236812.32  57.55
940.7  411643.20  236832.36  57.53
941.8  413301.30  237642.40  57.50
943.0  414784.50  238402.50  57.48
944.2  415589.63  238760.08  57.45
945.3  415330.50  238355.00  57.39
946.5  414581.40  237815.10  57.36
947.6  414708.93  237739.33  57.33
948.8  414696.10  237590.08  57.29
949.9  414934.80  237485.36  57.23
951.1  414685.70  236993.81  57.15
952.2  414528.00  236640.00  57.09
953.4  414223.67  236237.37  57.03
954.5  414320.40  236012.40  56.96
955.7  414405.60  235734.24  56.88
956.8  414010.00  235390.11  56.86
958.0  413762.00  234996.73  56.80
959.1  413678.68  234663.71  56.73
960.3  413341.73  234298.53  56.68
961.4  413277.10  234143.45  56.66
962.6  413329.00  234123.87  56.64
963.7  413127.30  233974.63  56.63
964.9  413187.15  233854.89  56.60
966.0  413023.05  233652.06  56.57
967.2  413306.70  233649.48  56.53
968.3  412994.70  233541.90  56.55
969.5  412839.08  233389.21  56.53
970.6  412876.75  233405.29  56.53
971.8  413206.50  233431.73  56.49
972.9  412969.60  233336.15  56.50
974.0  413241.20  233431.31  56.49
975.2  412988.67  233465.95  56.53
976.3  413020.80  233519.28  56.54
977.5  413219.22  233359.19  56.47
978.6  413169.93  233338.32  56.48
979.7  413115.85  233428.86  56.50
980.9  413047.30  233338.66  56.49
982.0  413076.97  233319.69  56.48
983.2  412486.78  233254.29  56.55
984.3  412200.40  233108.93  56.55
985.4  412331.12  233358.58  56.59
986.6  412282.58  233367.50  56.60
987.7  413510.65  233757.44  56.53
988.9  413640.00  233568.72  56.47
990.0  413818.73  233931.29  56.53
993.1  366624.48  206644.32  56.36
996.9  367006.55  207482.02  56.53
1000.7  367882.32  208526.90  56.68
1004.5  368418.17  209257.83  56.80
1008.4  368176.75  209588.37  56.93
1012.2  368086.83  210018.94  57.06
1016.0  368095.20  210493.07  57.18
1019.8  368190.90  210964.60  57.30
1023.7  368034.17  211267.63  57.40
1027.5  367660.63  211360.81  57.49
1031.3  367792.38  211686.09  57.56
1035.1  367616.32  211793.19  57.61
1038.9  367513.85  211944.62  57.67
1042.7  367345.67  212012.20  57.71
1046.5  367214.67  212071.26  57.75
1050.3  367229.63  212226.13  57.79
1054.2  366949.92  212191.39  57.83
1058.0  366462.72  211992.01  57.85
1061.8  366288.23  212001.09  57.88
1065.6  365986.20  211848.46  57.88
1069.4  365947.53  211878.70  57.90
1073.2  365479.64  211595.73  57.90
1077.0  364953.88  211269.24  57.89
1080.8  364493.75  210961.57  57.88
1084.6  363506.50  210328.14  57.86
1088.4  362914.73  209912.57  57.84
1092.2  362085.75  209352.00  57.82
1096.0  361492.53  208880.33  57.78
1099.8  361007.62  208434.58  57.74
1103.6  360350.37  207877.44  57.69
1107.4  359414.90  207157.35  57.64
1111.2  359130.50  206808.20  57.59
1114.9  358445.50  206197.70  57.53
1118.7  357845.40  205566.90  57.45
1122.5  357138.60  204789.67  57.34
1126.3  356048.70  203669.67  57.20
1130.1  355548.53  202652.81  57.00
1133.9  353975.30  200736.51  56.71
1137.7  352578.30  198626.73  56.34
1141.4  350833.93  196066.05  55.89
1145.2  350089.98  193934.80  55.40
1149.0  348967.50  191661.62  54.92
1152.8  347357.95  189351.42  54.51
1156.6  345731.28  187366.95  54.19
1160.3  344024.67  185657.92  53.97
1164.1  341665.77  183850.22  53.81
1167.9  339896.88  182567.82  53.71
1171.7  338640.75  181686.75  53.65
1175.4  337463.43  180900.13  53.61
1179.2  336406.43  180164.28  53.56
1183.0  336114.00  179808.82  53.50
1186.7  335589.33  179358.04  53.45
1190.5  334621.20  178688.00  53.40
1194.3  333476.60  177965.77  53.37
1198.0  332263.53  177279.24  53.36
1201.8  330757.10  176530.93  53.37
1205.6  329528.33  176031.33  53.42
1209.3  328620.77  175790.85  53.49
1213.1  327726.00  175606.03  53.58
1216.8  326798.27  175471.68  53.69
1220.6  325720.27  175267.97  53.81
1224.3  324506.50  174970.47  53.92
1228.1  323281.60  174694.84  54.04
1231.9  322036.18  174353.56  54.14
1235.6  320570.93  173859.33  54.23
1239.4  319213.88  173386.33  54.32
1243.1  317991.92  172930.71  54.38
1246.9  316789.68  172452.96  54.44
1250.6  315823.93  172056.39  54.48
1254.3  314770.13  171593.44  54.51
1258.1  313788.07  171124.38  54.54
1261.8  312496.13  170486.31  54.56
1265.6  311052.70  169717.87  54.56
1269.3  309659.80  168919.02  54.55
1273.1  309629.16  168832.93  54.53
1276.8  309845.20  168821.60  54.49
1280.6  309591.87  168529.39  54.44
1284.3  308188.80  167549.69  54.37
1288.0  306756.36  166487.91  54.27
1291.8  305538.23  165473.71  54.16
1295.5  304242.40  164366.40  54.02
1299.2  303037.84  163212.43  53.86
1302.9  301584.22  161854.95  53.67
1306.7  300014.75  160331.99  53.44
1310.4  298551.87  158729.80  53.17
1314.1  297181.50  157076.58  52.86
1317.9  295954.17  155368.33  52.50
1321.6  294536.03  153439.21  52.10
1325.3  292913.78  151268.83  51.64
1329.0  291606.00  149165.33  51.15
1332.8  289535.40  146584.04  50.63
1336.5  287761.40  144103.76  50.08
1340.2  287362.83  142310.52  49.52
1343.9  286874.79  140467.55  48.96
1347.6  286134.00  138545.30  48.42
1351.4  286192.00  137026.89  47.88
1355.1  286354.20  135586.33  47.35
