/*** Spectra Vista SIG Data ***/
name= 15_20220926_TITO_35_avg.sig
comm= Averaged Ref/Tar of files: HR.092622.0041_moc.sig,HR.092622.0042_moc.sig,HR.092622.0043_moc.sig
data=
337.3  6317.33  548.17  8.68
338.8  6445.40  551.55  8.56
340.3  6900.33  529.34  7.67
341.8  7076.55  508.06  7.18
343.2  7372.48  509.26  6.91
344.7  7814.63  515.25  6.59
346.2  8142.75  537.37  6.60
347.7  8548.20  517.11  6.05
349.2  8920.80  524.16  5.88
350.6  9350.40  516.22  5.52
352.1  9834.25  499.97  5.08
353.6  10320.00  495.36  4.80
355.1  10777.05  505.59  4.69
356.6  11453.20  529.28  4.62
358.0  11968.43  540.37  4.51
359.5  12499.88  544.71  4.36
361.0  13164.60  561.37  4.26
362.5  13784.33  576.75  4.18
364.0  14483.20  588.38  4.06
365.4  15159.05  612.26  4.04
366.9  15819.10  635.65  4.02
368.4  16516.05  641.40  3.88
369.9  17225.00  664.27  3.86
371.3  18068.60  700.33  3.88
372.8  18857.85  734.23  3.89
374.3  19672.40  736.40  3.74
375.8  20496.10  760.68  3.71
377.2  21323.25  772.20  3.62
378.7  22176.18  786.61  3.55
380.2  22935.38  794.39  3.46
381.7  23895.75  815.87  3.41
383.1  24886.20  829.54  3.33
384.6  25761.75  862.23  3.35
386.1  26784.30  892.81  3.33
387.6  27707.03  897.28  3.24
389.0  28728.90  929.67  3.24
390.5  29758.30  950.32  3.19
392.0  30791.25  979.80  3.18
393.4  31955.25  1013.80  3.17
394.9  32932.30  1024.79  3.11
396.4  34155.00  1032.24  3.02
397.9  35270.40  1068.80  3.03
399.3  36204.55  1104.88  3.05
400.8  37431.08  1142.24  3.05
402.2  38614.95  1173.92  3.04
403.7  39813.60  1195.66  3.00
405.2  40982.90  1217.04  2.97
406.6  42264.90  1250.28  2.96
408.1  43364.63  1285.53  2.96
409.6  44571.55  1317.47  2.96
411.0  45802.08  1350.95  2.95
412.5  47159.65  1384.11  2.93
414.0  48543.95  1419.51  2.92
415.4  49845.60  1455.12  2.92
416.9  51184.10  1511.01  2.95
418.4  52525.95  1540.18  2.93
419.8  53838.05  1588.39  2.95
421.3  55336.05  1635.48  2.96
422.7  56851.60  1676.48  2.95
424.2  58372.28  1726.15  2.96
425.7  59802.88  1779.43  2.98
427.1  61277.20  1825.63  2.98
428.6  62782.28  1873.56  2.98
430.0  64323.05  1918.51  2.98
431.5  66006.85  1974.61  2.99
432.9  67674.38  2020.30  2.99
434.4  69367.95  2081.22  3.00
435.9  71056.20  2135.48  3.01
437.3  72712.88  2193.90  3.02
438.8  74358.25  2249.14  3.02
440.2  76060.78  2305.03  3.03
441.7  77930.55  2371.27  3.04
443.1  79745.85  2435.04  3.05
444.6  81546.50  2488.60  3.05
446.0  83349.30  2564.34  3.08
447.5  85350.00  2633.33  3.09
448.9  87087.95  2701.87  3.10
450.4  89000.00  2770.00  3.11
451.8  90801.75  2834.10  3.12
453.3  92607.60  2901.57  3.13
454.7  94453.88  2976.42  3.15
456.2  96221.30  3045.56  3.17
457.6  98136.90  3115.62  3.17
459.1  99993.08  3179.61  3.18
460.5  101879.63  3240.18  3.18
462.0  103878.00  3306.00  3.18
463.4  105858.55  3368.31  3.18
464.8  107849.70  3441.48  3.19
466.3  109789.13  3516.14  3.20
467.7  111819.20  3586.77  3.21
469.2  113704.20  3648.96  3.21
470.6  115742.38  3710.70  3.21
472.0  117776.45  3782.76  3.21
473.5  119764.53  3847.59  3.21
474.9  121936.30  3930.47  3.22
476.4  124015.80  4014.32  3.24
477.8  126112.00  4095.47  3.25
479.2  128214.38  4162.65  3.25
480.7  130363.50  4241.01  3.25
482.1  132587.90  4315.34  3.25
483.6  134784.90  4404.48  3.27
485.0  137021.55  4494.65  3.28
486.4  139111.63  4593.07  3.30
487.9  141391.25  4681.97  3.31
489.3  143546.25  4775.40  3.33
490.7  145777.80  4870.64  3.34
492.2  148032.38  4978.87  3.36
493.6  150301.30  5105.32  3.40
495.0  152600.18  5236.53  3.43
496.5  154791.00  5363.82  3.47
497.9  157084.00  5508.53  3.51
499.3  159354.00  5659.87  3.55
500.7  161649.60  5833.57  3.61
502.2  164015.48  6032.62  3.68
503.6  166323.60  6256.64  3.76
505.0  168618.73  6499.64  3.85
506.5  171071.60  6791.09  3.97
507.9  173541.10  7103.75  4.09
509.3  175879.13  7471.41  4.25
510.7  178500.08  7890.61  4.42
512.2  181138.13  8366.39  4.62
513.6  184010.83  8931.15  4.85
515.0  186747.58  9542.98  5.11
516.4  189580.60  10232.99  5.40
517.8  192385.00  10990.83  5.71
519.3  195323.20  11826.56  6.05
520.7  197965.50  12708.09  6.42
522.1  200667.03  13624.17  6.79
523.5  203226.20  14574.92  7.17
524.9  206110.88  15548.29  7.54
526.3  208752.53  16486.92  7.90
527.8  211567.38  17430.72  8.24
529.2  214185.60  18362.88  8.57
530.6  216922.50  19280.76  8.89
532.0  219846.25  20137.74  9.16
533.4  222379.60  20860.73  9.38
534.8  224932.13  21534.15  9.57
536.3  228038.83  22206.51  9.74
537.7  231054.00  22843.50  9.89
539.1  233952.23  23418.16  10.01
540.5  236824.50  23966.10  10.12
541.9  239765.45  24498.07  10.22
543.3  242289.50  24990.87  10.31
544.7  245278.00  25514.13  10.40
546.1  248096.10  26025.53  10.49
547.5  251035.20  26536.32  10.57
549.0  254188.00  27045.55  10.64
550.4  257084.10  27491.10  10.69
551.8  259986.33  27895.70  10.73
553.2  262920.60  28220.79  10.73
554.6  265822.90  28468.33  10.71
556.0  268766.40  28634.90  10.65
557.4  271893.70  28738.25  10.57
558.8  274785.68  28726.54  10.45
560.2  278000.00  28672.00  10.31
561.6  280929.55  28514.53  10.15
563.0  283732.15  28252.99  9.96
564.4  286899.90  27962.57  9.75
565.8  289940.10  27582.96  9.51
567.2  293130.15  27166.95  9.27
568.6  296193.38  26697.51  9.01
570.0  299087.75  26172.47  8.75
571.4  302530.50  25680.34  8.49
572.8  305677.60  25177.81  8.24
574.2  308560.88  24684.87  8.00
575.6  311637.88  24243.07  7.78
577.0  314686.63  23859.84  7.58
578.4  318128.13  23552.08  7.40
579.8  321213.33  23249.39  7.24
581.2  324316.00  22991.67  7.09
582.5  327217.50  22761.00  6.96
583.9  330262.30  22578.93  6.84
585.3  333195.00  22405.36  6.72
586.7  336174.30  22265.32  6.62
588.1  339178.10  22156.75  6.53
589.5  342581.85  22099.32  6.45
590.9  345533.98  22055.60  6.38
592.3  348485.63  22033.44  6.32
593.7  351447.60  22041.69  6.27
595.0  354412.20  22064.56  6.23
596.4  357752.25  22122.17  6.18
597.8  360436.00  22128.16  6.14
599.2  363595.05  22159.28  6.09
600.6  366771.08  22171.82  6.05
602.0  369739.80  22150.16  5.99
603.3  372632.00  22096.53  5.93
604.7  375646.90  22001.03  5.86
606.1  378698.40  21875.41  5.78
607.5  382033.88  21743.46  5.69
608.9  385142.45  21563.59  5.60
610.2  388310.18  21391.59  5.51
611.6  391215.00  21193.33  5.42
613.0  394055.43  20974.89  5.32
614.4  396814.25  20776.20  5.24
615.8  400115.90  20606.67  5.15
617.1  402827.20  20434.90  5.07
618.5  406079.55  20329.56  5.01
619.9  408806.85  20223.08  4.95
621.3  411747.38  20170.37  4.90
622.6  414677.25  20147.40  4.86
624.0  417416.25  20137.10  4.82
625.4  420508.65  20194.36  4.80
626.8  423484.10  20264.83  4.79
628.1  426318.90  20355.49  4.77
629.5  429132.90  20445.16  4.76
630.9  432063.85  20545.99  4.76
632.2  435202.00  20617.80  4.74
633.6  437688.55  20640.36  4.72
635.0  440644.93  20624.76  4.68
636.3  443682.45  20564.08  4.63
637.7  446421.70  20403.79  4.57
639.1  449435.80  20206.05  4.50
640.4  452163.50  19959.15  4.41
641.8  454996.80  19685.52  4.33
643.2  457580.20  19398.67  4.24
644.5  460460.00  19142.67  4.16
645.9  463155.70  18872.19  4.07
647.2  466258.10  18672.76  4.00
648.6  469247.20  18505.01  3.94
650.0  472084.20  18381.60  3.89
651.3  474369.30  18305.91  3.86
652.7  477324.75  18278.20  3.83
654.0  480201.35  18247.45  3.80
655.4  482593.13  18191.11  3.77
656.8  484379.70  18086.53  3.73
658.1  486950.63  18005.19  3.70
659.5  490147.20  17948.16  3.66
660.8  493353.00  17880.10  3.62
662.2  496041.30  17770.95  3.58
663.5  498833.15  17699.71  3.55
664.9  500958.70  17618.49  3.52
666.2  503108.78  17591.99  3.50
667.6  505689.75  17613.00  3.48
668.9  508464.00  17700.48  3.48
670.3  511070.00  17807.42  3.48
671.6  513506.40  17949.33  3.50
673.0  515753.60  18124.59  3.51
674.3  518194.60  18340.37  3.54
675.7  520713.00  18595.08  3.57
677.0  523083.30  18883.02  3.61
678.4  525347.80  19215.07  3.66
679.7  527770.28  19592.40  3.71
681.1  530332.25  20016.90  3.77
682.4  532526.63  20464.30  3.84
683.8  534899.63  21006.70  3.93
685.1  537119.85  21609.88  4.02
686.4  539340.10  22343.36  4.14
687.8  541887.15  23266.41  4.29
689.1  544296.90  24441.48  4.49
690.5  546251.80  25978.53  4.76
691.8  549013.30  28127.07  5.12
693.1  551406.00  30972.00  5.62
694.5  553722.70  34610.40  6.25
695.8  556126.20  39126.07  7.04
697.1  558398.60  44539.04  7.98
698.5  560755.75  50872.57  9.07
699.8  563181.20  58069.39  10.31
701.1  565037.03  65995.79  11.68
702.5  567128.13  74593.43  13.15
703.8  569550.45  83738.56  14.70
705.1  571435.45  93163.73  16.30
706.5  573672.85  102943.51  17.94
707.8  575545.43  112834.50  19.60
709.1  577825.75  122885.14  21.27
710.5  580063.05  132987.41  22.93
711.8  581962.00  143081.07  24.59
713.1  583940.00  153183.20  26.23
714.4  586043.53  163271.27  27.86
715.8  588318.35  173356.77  29.47
717.1  590550.90  183335.72  31.04
718.4  592780.95  193185.37  32.59
719.7  595052.78  202870.02  34.09
721.0  596771.28  212222.10  35.56
722.4  598659.75  221369.52  36.98
723.7  600613.45  230294.35  38.34
725.0  602369.55  238813.57  39.65
726.3  604700.20  247248.91  40.89
727.6  606402.00  255145.50  42.08
729.0  608298.25  262735.06  43.19
730.3  610305.18  270027.61  44.24
731.6  611852.30  276733.67  45.23
732.9  613837.90  283289.41  46.15
734.2  615511.88  289353.35  47.01
735.5  617324.95  295148.55  47.81
736.8  619266.38  300696.67  48.56
738.1  621166.50  305810.76  49.23
739.5  622885.65  310614.94  49.87
740.8  624850.05  315193.89  50.44
742.1  626467.70  319355.29  50.98
743.4  628217.45  323334.39  51.47
744.7  630189.00  327143.60  51.91
746.0  631754.60  330451.19  52.31
747.3  633376.80  333566.52  52.66
748.6  634999.30  336459.69  52.99
749.9  636832.73  339299.53  53.28
751.2  638207.00  341729.60  53.55
752.5  639838.20  344149.22  53.79
753.8  641218.50  346302.06  54.01
755.1  642736.48  348433.41  54.21
756.4  643876.55  350157.49  54.38
757.7  645909.00  352238.15  54.53
759.0  649513.10  355086.27  54.67
760.3  652262.15  357351.47  54.79
761.6  655189.65  359611.78  54.89
762.9  656625.75  361019.63  54.98
764.2  657453.05  361985.42  55.06
765.5  658305.15  362971.14  55.14
766.8  658900.55  363716.08  55.20
768.1  660003.75  364696.92  55.26
769.3  661301.75  365731.13  55.30
770.6  662685.90  366825.37  55.35
771.9  663929.13  367776.16  55.39
773.2  665455.05  368840.16  55.43
774.5  666476.40  369605.70  55.46
775.8  667507.75  370441.41  55.50
777.1  668789.20  371301.18  55.52
778.4  670063.50  372234.45  55.55
779.6  671453.40  373178.40  55.58
780.9  672166.35  373765.05  55.61
782.2  673210.58  374499.42  55.63
783.5  674159.25  375190.17  55.65
784.8  674992.50  375814.25  55.68
786.0  675851.88  376451.02  55.70
787.3  676759.78  377089.17  55.72
788.6  677704.38  377767.95  55.74
789.9  678451.20  378322.36  55.76
791.2  679874.80  379243.46  55.78
792.4  681082.88  380020.85  55.80
793.7  682704.98  381049.72  55.81
795.0  683736.75  381795.59  55.84
796.2  685198.60  382692.33  55.85
797.5  686495.63  383525.58  55.87
798.8  687932.00  384464.03  55.89
800.0  689150.00  385242.67  55.90
801.3  690464.25  386098.65  55.92
802.6  691560.00  386832.00  55.94
803.8  692605.73  387594.55  55.96
805.1  693760.13  388326.40  55.97
806.4  694750.13  389010.19  55.99
807.7  695894.60  389775.54  56.01
808.9  697142.75  390583.60  56.03
810.2  698056.80  391224.68  56.04
811.4  699192.40  391961.71  56.06
812.7  700524.05  392840.71  56.08
814.0  701939.70  393717.94  56.09
815.2  703250.55  394627.68  56.11
816.5  704401.25  395386.83  56.13
817.7  705341.00  395975.00  56.14
819.0  706087.20  396506.51  56.16
820.2  706853.85  397102.94  56.18
821.5  708107.00  397886.19  56.19
822.7  709126.08  398592.81  56.21
824.0  710060.65  399262.67  56.23
825.2  710837.40  399765.08  56.24
826.5  711646.40  400276.29  56.25
827.7  712623.98  400962.45  56.27
829.0  713586.08  401606.00  56.28
830.2  714526.40  402262.00  56.30
831.5  715427.33  402870.30  56.31
832.7  716499.00  403540.80  56.32
834.0  717042.38  403976.34  56.34
835.2  718222.80  404659.59  56.34
836.4  719042.00  405160.27  56.35
837.7  719910.00  405754.50  56.36
838.9  721001.40  406553.81  56.39
840.1  721891.50  407177.76  56.40
841.4  722875.10  407873.60  56.42
842.6  723850.40  408538.85  56.44
843.8  724629.10  409099.77  56.46
845.1  725509.95  409665.74  56.47
846.3  726493.95  410307.52  56.48
847.5  727392.25  410966.40  56.50
848.8  728394.40  411633.97  56.51
850.0  729429.60  412419.07  56.54
851.2  730414.45  413053.32  56.55
852.5  731714.70  413854.55  56.56
853.7  732422.93  414296.19  56.57
854.9  733599.75  415031.50  56.57
856.1  734674.85  415755.47  56.59
857.4  735413.18  416371.86  56.62
858.6  736443.40  417032.75  56.63
859.8  737712.90  417758.13  56.63
861.0  738797.15  418461.82  56.64
862.2  739800.60  419117.16  56.65
863.5  740707.80  419734.42  56.67
864.7  741606.25  420440.00  56.69
865.9  742720.88  421102.92  56.70
867.1  743481.25  421511.67  56.69
868.3  744739.83  422271.39  56.70
869.5  746151.20  423018.95  56.69
870.8  747179.55  423750.54  56.71
872.0  748135.28  424387.82  56.73
873.2  749062.38  424969.60  56.73
874.4  750031.05  425482.03  56.73
875.6  751094.08  426237.05  56.75
876.8  752715.15  427077.42  56.74
878.0  753694.55  427725.57  56.75
879.2  754794.05  428432.98  56.76
880.4  755964.00  429076.80  56.76
881.6  756893.20  429622.52  56.76
882.8  758252.95  430430.56  56.77
884.0  759392.73  430981.59  56.75
885.2  760775.50  431814.73  56.76
886.5  762097.70  432632.29  56.77
887.7  763294.05  433284.78  56.77
888.8  764811.75  434076.79  56.76
890.0  765686.25  434630.00  56.76
891.2  766688.33  435245.07  56.77
892.4  768169.05  436089.28  56.77
893.6  770159.33  437235.25  56.77
894.8  771871.28  438165.14  56.77
896.0  773313.73  439073.20  56.78
897.2  775036.35  440136.18  56.79
898.4  777115.50  441268.52  56.78
899.6  778564.70  441965.99  56.77
900.8  779334.40  442378.65  56.76
902.0  780189.10  442746.31  56.75
903.2  780337.10  442947.37  56.76
904.3  781413.75  443605.50  56.77
905.5  782520.75  444312.00  56.78
906.7  784095.85  445059.98  56.76
907.9  785205.03  445706.95  56.76
909.1  786354.80  446346.41  56.76
910.2  786948.75  446638.50  56.76
911.4  787124.93  446683.23  56.75
912.6  787640.00  447073.00  56.76
913.8  788836.30  447679.77  56.75
915.0  789351.00  447922.40  56.75
916.2  789534.98  448069.32  56.75
917.3  790302.33  448531.01  56.75
918.5  790767.90  448777.68  56.75
919.7  791140.25  448777.00  56.73
920.8  791477.95  448911.69  56.72
922.0  791521.50  449031.40  56.73
923.2  792138.60  449314.98  56.72
924.4  792807.25  449681.60  56.72
925.5  793817.40  450007.57  56.69
926.7  794527.93  450393.81  56.69
927.9  796401.63  451188.26  56.65
929.0  799318.80  452908.08  56.66
930.2  803935.60  455303.33  56.63
931.4  809358.00  458063.93  56.60
932.5  813982.95  460495.49  56.57
933.7  816698.10  461903.72  56.56
934.9  818116.25  462574.00  56.54
936.0  817076.48  462036.12  56.55
937.2  814434.08  460264.09  56.51
938.3  810764.50  457759.47  56.46
939.5  808551.90  456426.36  56.45
940.7  808372.95  456125.41  56.43
941.8  811608.20  457660.75  56.39
943.0  813909.68  458594.60  56.34
944.2  815814.00  459403.20  56.31
945.3  815594.40  458802.80  56.25
946.5  813828.75  457620.33  56.23
947.6  814492.00  457922.10  56.22
948.8  813555.83  456722.17  56.14
949.9  814227.40  456643.23  56.08
951.1  815216.60  456209.82  55.96
952.2  814632.70  455451.25  55.91
953.4  814355.25  454928.14  55.86
954.5  812707.88  453504.80  55.80
955.7  811986.65  452718.02  55.75
956.8  812603.20  452360.79  55.67
958.0  811771.20  451399.38  55.61
959.1  811944.00  450696.96  55.51
960.3  811687.50  450413.33  55.49
961.4  812356.00  450385.28  55.44
962.6  811879.20  449918.40  55.42
963.7  812464.80  449985.57  55.39
964.9  812756.45  450069.37  55.38
966.0  813351.35  450327.78  55.37
967.2  813968.40  450474.08  55.34
968.3  815784.75  451126.22  55.30
969.5  815796.00  451256.05  55.31
970.6  815977.90  451343.87  55.31
971.8  816045.13  451322.50  55.31
972.9  817215.00  451727.73  55.28
974.0  818306.43  452130.29  55.25
975.2  817796.25  451379.25  55.19
976.3  818524.90  451984.98  55.22
977.5  817680.38  451349.33  55.20
978.6  817651.65  451469.42  55.22
979.7  818417.60  450977.71  55.10
980.9  818590.78  451492.99  55.15
982.0  818822.05  451149.15  55.10
983.2  818637.40  451446.80  55.15
984.3  816486.30  450210.69  55.14
985.4  816629.80  449970.08  55.10
986.6  818170.35  450369.00  55.05
987.7  818618.25  449666.03  54.93
988.9  818371.68  450502.14  55.05
990.0  818246.45  450800.03  55.09
993.1  836280.60  461260.13  55.16
996.9  837843.50  463035.58  55.27
1000.7  838579.50  464403.01  55.38
1004.5  838054.00  465042.02  55.49
1008.4  839304.08  466590.47  55.59
1012.2  840933.38  468238.79  55.68
1016.0  841533.75  469202.91  55.76
1019.8  841257.31  469596.25  55.82
1023.7  841278.70  470090.61  55.88
1027.5  840285.53  470140.83  55.95
1031.3  839854.37  470506.94  56.02
1035.1  839523.75  470909.93  56.09
1038.9  839350.98  471378.40  56.16
1042.7  838865.60  471682.90  56.23
1046.5  838165.13  471642.89  56.27
1050.3  836620.18  471132.40  56.31
1054.2  834691.28  470373.38  56.35
1058.0  833659.20  470060.00  56.39
1061.8  832461.00  469594.54  56.41
1065.6  830816.83  468805.44  56.43
1069.4  829337.07  468004.52  56.43
1073.2  828282.00  467322.56  56.42
1077.0  827141.33  466464.53  56.39
1080.8  826074.33  465653.22  56.37
1084.6  824649.83  464658.33  56.35
1088.4  823098.70  463680.87  56.33
1092.2  821419.20  462536.41  56.31
1096.0  820140.30  461512.87  56.27
1099.8  818726.50  460418.78  56.24
1103.6  817056.38  459161.92  56.20
1107.4  815740.70  457980.10  56.14
1111.2  814287.38  456764.55  56.09
1114.9  813030.00  455564.67  56.03
1118.7  812164.00  454405.70  55.95
1122.5  811836.78  453300.01  55.84
1126.3  809231.85  450550.80  55.68
1130.1  808570.28  448263.89  55.44
1133.9  805198.09  443782.58  55.11
1137.7  802668.60  438946.04  54.69
1141.4  799243.63  432968.62  54.17
1145.2  798509.71  428156.62  53.62
1149.0  796616.10  423031.73  53.10
1152.8  793434.05  417969.78  52.68
1156.6  790033.07  413765.61  52.37
1160.3  786829.65  410538.43  52.18
1164.1  782124.33  407171.63  52.06
1167.9  778922.54  405027.90  52.00
1171.7  776395.27  403452.23  51.96
1175.4  774311.09  402176.28  51.94
1179.2  772657.50  401079.00  51.91
1183.0  772944.63  400865.92  51.86
1186.7  772585.33  400424.89  51.83
1190.5  770543.75  399211.69  51.81
1194.3  767520.60  397519.66  51.79
1198.0  764803.33  396014.67  51.78
1201.8  762454.00  394981.48  51.80
1205.6  760706.00  394576.04  51.87
1209.3  759126.75  394540.67  51.97
1213.1  757256.54  394534.62  52.10
1216.8  754905.20  394400.06  52.24
1220.6  752564.83  394263.81  52.39
1224.3  750154.17  394034.26  52.53
1228.1  748176.94  394000.34  52.66
1231.9  746055.05  393740.39  52.78
1235.6  743818.90  393266.68  52.87
1239.4  741649.08  392798.54  52.96
1243.1  739573.20  392243.20  53.04
1246.9  737628.47  391649.85  53.10
1250.6  735643.25  390929.12  53.14
1254.3  733828.80  390220.27  53.18
1258.1  732000.00  389414.96  53.20
1261.8  729748.60  388246.60  53.20
1265.6  727312.24  386880.71  53.19
1269.3  724475.40  385211.14  53.17
1273.1  724604.32  385085.48  53.14
1276.8  725247.40  385057.05  53.09
1280.6  725444.67  384610.46  53.02
1284.3  723416.22  382801.45  52.92
1288.0  721345.19  380847.54  52.80
1291.8  719182.80  378680.40  52.65
1295.5  716838.35  376434.66  52.51
1299.2  714361.05  373900.37  52.34
1302.9  711639.04  370944.30  52.13
1306.7  708669.68  367603.25  51.87
1310.4  705818.62  363968.42  51.57
1314.1  703522.50  360342.92  51.22
1317.9  701178.51  356321.62  50.82
1321.6  698576.67  351814.93  50.36
1325.3  695787.98  346938.00  49.86
1329.0  693118.07  341885.70  49.33
1332.8  689221.25  336013.33  48.75
1336.5  685545.63  330177.41  48.16
