/*** Spectra Vista SIG Data ***/
name= 8_20221020_ACSA_07_avg.sig
comm= Averaged Ref/Tar of files: HR.102022.0022_moc.sig,HR.102022.0023_moc.sig,HR.102022.0024_moc.sig
data=
337.3  3027.13  235.37  7.78
338.8  3126.50  241.87  7.74
340.3  3279.50  228.00  6.95
341.8  3475.10  223.84  6.44
343.2  3640.80  224.54  6.17
344.7  3795.85  218.53  5.76
346.2  3921.60  214.76  5.48
347.7  4168.45  219.47  5.27
349.2  4347.00  214.56  4.94
350.6  4590.63  214.40  4.67
352.1  4858.60  218.77  4.50
353.6  5100.90  214.81  4.21
355.1  5354.33  222.57  4.16
356.6  5637.30  230.36  4.09
358.0  5901.50  234.54  3.97
359.5  6180.00  234.25  3.79
361.0  6523.65  234.56  3.60
362.5  6850.35  240.62  3.51
364.0  7168.75  247.70  3.46
365.4  7502.70  258.25  3.44
366.9  7845.50  269.93  3.44
368.4  8182.50  277.17  3.39
369.9  8539.90  289.30  3.39
371.3  8944.50  303.11  3.39
372.8  9372.15  321.89  3.43
374.3  9755.63  322.50  3.31
375.8  10133.20  332.13  3.28
377.2  10517.90  338.43  3.22
378.7  10948.30  341.76  3.12
380.2  11298.00  346.11  3.06
381.7  11782.90  357.24  3.03
383.1  12262.25  365.75  2.98
384.6  12759.18  372.26  2.92
386.1  13188.20  379.13  2.87
387.6  13636.70  382.43  2.80
389.0  14070.00  388.98  2.76
390.5  14522.85  398.25  2.74
392.0  15050.05  414.63  2.76
393.4  15607.35  425.41  2.73
394.9  16129.80  433.51  2.69
396.4  16637.63  440.61  2.65
397.9  17143.13  451.98  2.64
399.3  17676.85  463.08  2.62
400.8  18220.18  474.29  2.60
402.2  18829.85  485.39  2.58
403.7  19404.45  496.17  2.56
405.2  19981.70  510.03  2.55
406.6  20555.20  522.33  2.54
408.1  21131.00  532.07  2.52
409.6  21708.55  542.27  2.50
411.0  22332.10  556.32  2.49
412.5  22969.98  568.82  2.48
414.0  23594.25  584.86  2.48
415.4  24267.38  597.96  2.46
416.9  24903.30  620.84  2.49
418.4  25566.08  635.84  2.49
419.8  26280.80  652.60  2.48
421.3  26969.23  671.92  2.49
422.7  27718.20  696.83  2.51
424.2  28468.13  719.84  2.53
425.7  29193.30  744.68  2.55
427.1  29925.08  769.40  2.57
428.6  30705.50  794.48  2.59
430.0  31427.43  819.02  2.61
431.5  32267.85  843.62  2.61
432.9  33109.00  871.61  2.63
434.4  33964.58  900.70  2.65
435.9  34776.00  929.87  2.67
437.3  35598.75  958.96  2.69
438.8  36421.73  987.49  2.71
440.2  37258.38  1013.71  2.72
441.7  38176.60  1048.26  2.75
443.1  39061.00  1074.13  2.75
444.6  39994.30  1108.39  2.77
446.0  40923.15  1141.68  2.79
447.5  41838.23  1172.24  2.80
448.9  42737.70  1202.40  2.81
450.4  43719.20  1232.59  2.82
451.8  44577.00  1260.38  2.83
453.3  45461.78  1295.42  2.85
454.7  46441.88  1329.93  2.86
456.2  47279.38  1355.88  2.87
457.6  48214.80  1387.55  2.88
459.1  49169.25  1419.81  2.89
460.5  50089.38  1450.61  2.90
462.0  51124.50  1484.79  2.90
463.4  52128.50  1516.00  2.91
464.8  53085.75  1548.32  2.92
466.3  54052.35  1579.08  2.92
467.7  55005.10  1612.32  2.93
469.2  56046.65  1646.37  2.94
470.6  57014.90  1677.84  2.94
472.0  58031.23  1709.91  2.95
473.5  59014.25  1741.95  2.95
474.9  60021.00  1775.28  2.96
476.4  61156.80  1810.70  2.96
477.8  62190.50  1844.68  2.97
479.2  63176.50  1874.09  2.97
480.7  64240.05  1911.39  2.98
482.1  65342.90  1946.76  2.98
483.6  66498.90  1988.73  2.99
485.0  67554.83  2026.22  3.00
486.4  68705.10  2065.82  3.01
487.9  69746.63  2110.88  3.03
489.3  70871.43  2161.35  3.05
490.7  71916.90  2211.13  3.07
492.2  73117.80  2272.34  3.11
493.6  74202.25  2329.77  3.14
495.0  75289.50  2396.55  3.18
496.5  76427.40  2467.64  3.23
497.9  77498.68  2542.83  3.28
499.3  78643.33  2633.11  3.35
500.7  79886.45  2732.15  3.42
502.2  81000.80  2839.49  3.51
503.6  82241.80  2962.27  3.60
505.0  83285.25  3102.17  3.72
506.5  84557.33  3259.51  3.85
507.9  85718.15  3431.92  4.00
509.3  87053.60  3631.92  4.17
510.7  88261.88  3848.33  4.36
512.2  89629.20  4095.74  4.57
513.6  91079.45  4369.23  4.80
515.0  92476.73  4667.83  5.05
516.4  93810.15  4985.82  5.31
517.8  95414.38  5337.63  5.59
519.3  96723.40  5694.75  5.89
520.7  98265.70  6080.71  6.19
522.1  99543.93  6466.30  6.50
523.5  100858.40  6868.85  6.81
524.9  102295.35  7277.91  7.11
526.3  103678.75  7676.02  7.40
527.8  105138.00  8080.38  7.69
529.2  106222.10  8461.07  7.97
530.6  107768.10  8878.22  8.24
532.0  109382.00  9291.33  8.49
533.4  110676.98  9657.00  8.73
534.8  111539.65  9972.28  8.94
536.3  113081.40  10334.86  9.14
537.7  114975.00  10723.80  9.33
539.1  116360.33  11059.75  9.50
540.5  117535.70  11367.17  9.67
541.9  119233.65  11725.43  9.83
543.3  120530.48  12040.54  9.99
544.7  121820.40  12355.10  10.14
546.1  123585.28  12716.70  10.29
547.5  124790.40  13012.16  10.43
549.0  126434.00  13346.25  10.56
550.4  127903.75  13657.78  10.68
551.8  129425.93  13957.25  10.78
553.2  130916.55  14239.02  10.88
554.6  132215.20  14475.22  10.95
556.0  133701.30  14709.72  11.00
557.4  135278.15  14935.36  11.04
558.8  136889.10  15155.16  11.07
560.2  138319.50  15338.40  11.09
561.6  139955.63  15526.50  11.09
563.0  141517.25  15683.27  11.08
564.4  143079.10  15830.23  11.06
565.8  144574.38  15959.16  11.04
567.2  146296.75  16096.03  11.00
568.6  147758.63  16191.01  10.96
570.0  149161.23  16242.27  10.89
571.4  150854.60  16299.80  10.80
572.8  152568.25  16349.83  10.72
574.2  154156.80  16387.41  10.63
575.6  155677.50  16423.39  10.55
577.0  157183.00  16468.83  10.48
578.4  158863.25  16543.69  10.41
579.8  160374.60  16611.65  10.36
581.2  162050.00  16709.12  10.31
582.5  163449.00  16786.49  10.27
583.9  164940.40  16884.56  10.24
585.3  166699.58  17016.98  10.21
586.7  168169.63  17127.15  10.18
588.1  169628.75  17250.64  10.17
589.5  171255.00  17399.32  10.16
590.9  172843.60  17555.09  10.16
592.3  174608.15  17742.12  10.16
593.7  176030.40  17909.17  10.17
595.0  177626.25  18094.24  10.19
596.4  179059.65  18265.54  10.20
597.8  180526.53  18427.91  10.21
599.2  182028.00  18587.36  10.21
600.6  183751.75  18744.85  10.20
602.0  185023.35  18836.04  10.18
603.3  186773.20  18947.16  10.14
604.7  188414.15  19008.51  10.09
606.1  189874.20  19021.26  10.02
607.5  191482.68  19012.27  9.93
608.9  193145.35  18980.35  9.83
610.2  194495.18  18895.68  9.72
611.6  196066.28  18816.10  9.60
613.0  197603.75  18721.15  9.47
614.4  198971.25  18606.95  9.35
615.8  200406.38  18503.13  9.23
617.1  201919.20  18422.74  9.12
618.5  203500.00  18369.90  9.03
619.9  205024.73  18334.58  8.94
621.3  206602.88  18338.95  8.88
622.6  208162.50  18376.10  8.83
624.0  209610.15  18436.41  8.80
625.4  211032.53  18529.49  8.78
626.8  212550.98  18656.97  8.78
628.1  213796.83  18780.36  8.78
629.5  215552.10  18964.88  8.80
630.9  217068.50  19117.91  8.81
632.2  218349.43  19229.60  8.81
633.6  219867.88  19311.62  8.78
635.0  221312.40  19314.78  8.73
636.3  222789.40  19231.34  8.63
637.7  224120.13  19041.51  8.50
639.1  225715.00  18766.67  8.31
640.4  227159.10  18394.96  8.10
641.8  228338.25  17929.06  7.85
643.2  229872.83  17452.49  7.59
644.5  231227.50  16940.69  7.33
645.9  232783.65  16445.10  7.06
647.2  233783.20  15954.51  6.82
648.6  235244.25  15551.81  6.61
650.0  236563.20  15201.05  6.43
651.3  237585.43  14897.98  6.27
652.7  239766.10  14702.61  6.13
654.0  241846.90  14510.31  6.00
655.4  243168.68  14252.81  5.86
656.8  243321.30  13883.75  5.71
658.1  244660.60  13534.82  5.53
659.5  246835.05  13189.82  5.34
660.8  248152.50  12771.64  5.15
662.2  249110.40  12299.52  4.94
663.5  250582.95  11861.22  4.73
664.9  251608.50  11446.54  4.55
666.2  252347.40  11067.65  4.39
667.6  254036.18  10791.91  4.25
668.9  254937.95  10564.44  4.14
670.3  256753.13  10424.62  4.06
671.6  257756.25  10319.31  4.00
673.0  258928.88  10279.91  3.97
674.3  260183.30  10291.44  3.96
675.7  261500.45  10353.38  3.96
677.0  262560.03  10456.84  3.98
678.4  263903.55  10626.12  4.03
679.7  264960.75  10847.84  4.09
681.1  266246.58  11166.17  4.19
682.4  267365.80  11612.60  4.34
683.8  268537.10  12240.24  4.56
685.1  269548.88  13111.06  4.86
686.4  270884.40  14332.74  5.29
687.8  272139.75  15963.21  5.87
689.1  273207.75  18079.29  6.62
690.5  274592.10  20770.18  7.56
691.8  275408.65  24037.55  8.73
693.1  276737.70  27976.20  10.11
694.5  277936.75  32444.97  11.67
695.8  279210.75  37337.30  13.37
697.1  280393.75  42536.87  15.17
698.5  281457.30  47932.67  17.03
699.8  282507.83  53415.18  18.91
701.1  283686.93  58903.60  20.76
702.5  284468.25  64197.70  22.57
703.8  285412.50  69330.00  24.29
705.1  286569.08  74259.00  25.91
706.5  287585.88  78898.51  27.43
707.8  288560.85  83248.85  28.85
709.1  289398.98  87283.95  30.16
710.5  290492.90  91162.97  31.38
711.8  291327.20  94725.94  32.52
713.1  292308.40  98130.41  33.57
714.4  293222.70  101297.86  34.55
715.8  294025.50  104266.09  35.46
717.1  295332.90  107233.17  36.31
718.4  296284.80  109908.27  37.10
719.7  297366.73  112475.39  37.82
721.0  297900.00  114696.00  38.50
722.4  298652.20  116862.05  39.13
723.7  299568.90  118982.17  39.72
725.0  300560.85  121007.38  40.26
726.3  301495.43  122892.63  40.76
727.6  302020.40  124496.03  41.22
729.0  302930.95  126151.47  41.64
730.3  303722.78  127659.81  42.03
731.6  304584.55  129117.47  42.39
732.9  305344.73  130453.27  42.72
734.2  306142.38  131719.68  43.03
735.5  307118.88  132996.01  43.30
736.8  307910.40  134118.30  43.56
738.1  308716.30  135193.42  43.79
739.5  309657.58  136256.75  44.00
740.8  310343.00  137160.00  44.20
742.1  311025.35  138039.46  44.38
743.4  311700.00  138871.91  44.55
744.7  312572.80  139756.02  44.71
746.0  313452.75  140576.13  44.85
747.3  314034.08  141227.64  44.97
748.6  314768.00  141916.10  45.09
749.9  315432.00  142552.06  45.19
751.2  316022.75  143167.76  45.30
752.5  316833.40  143818.03  45.39
753.8  317358.83  144325.62  45.48
755.1  318006.00  144859.87  45.55
756.4  318557.40  145324.43  45.62
757.7  319496.98  145953.20  45.68
759.0  321230.03  146921.69  45.74
760.3  322317.60  147600.64  45.79
761.6  323828.40  148443.45  45.84
762.9  324317.00  148814.84  45.89
764.2  324656.10  149098.76  45.93
765.5  324921.58  149328.31  45.96
766.8  325284.80  149615.02  46.00
768.1  325758.60  149944.28  46.03
769.3  326297.65  150294.87  46.06
770.6  326931.15  150672.59  46.09
771.9  327590.73  151071.94  46.12
773.2  327934.80  151302.76  46.14
774.5  328471.00  151637.47  46.16
775.8  329120.80  151995.26  46.18
777.1  329628.20  152317.08  46.21
778.4  329883.68  152522.95  46.24
779.6  330601.45  152919.84  46.26
780.9  330990.00  153184.86  46.28
782.2  331419.00  153445.57  46.30
783.5  331657.00  153626.47  46.32
784.8  332108.55  153898.36  46.34
786.0  332463.95  154115.37  46.36
787.3  332816.65  154329.42  46.37
788.6  333175.93  154564.33  46.39
789.9  333559.80  154811.16  46.41
791.2  334154.35  155133.63  46.43
792.4  334762.20  155458.91  46.44
793.7  335202.40  155706.66  46.45
795.0  335746.95  156016.36  46.47
796.2  336329.08  156336.87  46.48
797.5  336901.95  156678.54  46.51
798.8  337525.95  157015.61  46.52
800.0  338127.65  157330.83  46.53
801.3  338545.80  157546.93  46.54
802.6  339097.05  157841.87  46.55
803.8  339705.15  158170.77  46.56
805.1  340054.75  158405.19  46.58
806.4  340461.60  158641.14  46.60
807.7  340926.98  158910.91  46.61
808.9  341435.70  159176.04  46.62
810.2  341949.30  159420.78  46.62
811.4  342373.80  159668.65  46.64
812.7  342956.25  159995.95  46.65
814.0  343684.80  160387.81  46.67
815.2  344270.50  160709.67  46.68
816.5  344668.08  160925.63  46.69
817.7  345113.90  161155.18  46.70
819.0  345557.85  161410.96  46.71
820.2  345708.00  161505.98  46.72
821.5  346350.05  161844.34  46.73
822.7  346715.95  162040.95  46.74
824.0  347004.00  162211.47  46.75
825.2  347449.50  162444.73  46.75
826.5  347754.90  162625.10  46.76
827.7  348277.30  162906.75  46.78
829.0  348676.10  163104.85  46.78
830.2  349018.10  163264.12  46.78
831.5  349495.35  163508.10  46.78
832.7  349752.90  163666.65  46.79
834.0  350126.53  163855.44  46.80
835.2  350499.33  164057.09  46.81
836.4  350776.25  164218.41  46.82
837.7  351161.80  164436.61  46.83
838.9  351653.88  164678.97  46.83
840.1  352005.08  164874.64  46.84
841.4  352438.60  165102.12  46.85
842.6  352869.00  165317.91  46.85
843.8  353240.80  165534.40  46.86
845.1  353785.35  165797.90  46.86
846.3  354169.30  166000.78  46.87
847.5  354559.80  166226.26  46.88
848.8  354917.40  166432.11  46.89
850.0  355288.15  166661.53  46.91
851.2  355891.05  166935.14  46.91
852.5  356286.30  167124.27  46.91
853.7  356852.25  167381.16  46.90
854.9  357336.60  167612.60  46.91
856.1  357780.80  167851.94  46.91
857.4  357980.35  167973.46  46.92
858.6  358558.95  168253.31  46.92
859.8  359015.63  168458.36  46.92
861.0  359494.20  168676.56  46.92
862.2  359923.80  168905.34  46.93
863.5  360274.20  169083.57  46.93
864.7  360749.40  169352.29  46.94
865.9  361201.40  169548.41  46.94
867.1  361555.40  169730.06  46.94
868.3  361974.60  169952.27  46.95
869.5  362439.15  170181.52  46.95
870.8  362992.50  170417.23  46.95
872.0  363427.50  170662.90  46.96
873.2  363944.55  170874.60  46.95
874.4  364390.65  171100.47  46.96
875.6  364811.08  171277.68  46.95
876.8  365263.85  171505.68  46.95
878.0  365792.00  171727.06  46.95
879.2  366304.80  171957.66  46.94
880.4  366779.25  172186.26  46.95
881.6  367224.65  172397.68  46.95
882.8  367737.60  172577.75  46.93
884.0  368290.05  172869.66  46.94
885.2  368778.50  173052.15  46.93
886.5  369349.45  173316.73  46.92
887.7  369732.68  173510.76  46.93
888.8  370393.95  173807.60  46.93
890.0  370909.40  174051.65  46.93
891.2  371520.50  174288.25  46.91
892.4  372117.90  174556.40  46.91
893.6  372585.45  174785.32  46.91
894.8  373405.00  175163.35  46.91
896.0  374271.75  175509.92  46.89
897.2  374991.50  175895.11  46.91
898.4  375747.90  176211.26  46.90
899.6  376339.13  176423.28  46.88
900.8  376683.53  176547.72  46.87
902.0  376784.85  176619.27  46.88
903.2  377124.38  176736.58  46.86
904.3  377312.70  176859.40  46.87
905.5  377911.28  177121.86  46.87
906.7  378409.00  177374.56  46.87
907.9  378958.65  177555.82  46.85
909.1  379168.43  177625.90  46.85
910.2  379315.28  177676.98  46.84
911.4  379442.70  177743.70  46.84
912.6  379600.65  177824.18  46.85
913.8  379902.68  177864.14  46.82
915.0  380222.85  178009.72  46.82
916.2  380250.00  178048.74  46.82
917.3  380157.53  177966.02  46.81
918.5  380282.30  177999.10  46.81
919.7  380442.60  178053.55  46.80
920.8  380584.53  178030.53  46.78
922.0  380668.75  178040.68  46.77
923.2  380835.00  178064.90  46.76
924.4  380808.00  178075.45  46.76
925.5  381054.80  178136.90  46.75
926.7  381565.00  178334.86  46.74
927.9  382322.40  178674.65  46.73
929.0  383767.20  179249.72  46.71
930.2  385757.00  180177.18  46.71
931.4  388118.93  181206.81  46.69
932.5  390592.25  182333.04  46.68
933.7  391939.50  182873.24  46.66
934.9  392385.00  183018.96  46.64
936.0  391930.50  182700.82  46.62
937.2  389800.20  181642.04  46.60
938.3  388122.30  180749.64  46.57
939.5  386622.00  179922.45  46.54
940.7  386775.00  179884.35  46.51
941.8  388040.10  180428.79  46.50
943.0  389151.75  180941.78  46.50
944.2  389957.75  181171.40  46.46
945.3  389395.50  180823.41  46.44
946.5  388623.15  180328.07  46.40
947.6  388646.60  180258.72  46.38
948.8  388244.03  180018.24  46.37
949.9  388285.80  179885.92  46.33
951.1  388015.88  179513.80  46.26
952.2  387804.00  179211.09  46.21
953.4  387557.50  178825.17  46.14
954.5  387293.40  178578.77  46.11
955.7  387059.40  178261.32  46.06
956.8  386772.50  177947.52  46.01
958.0  386296.00  177630.34  45.98
959.1  385989.75  177308.06  45.94
960.3  385438.10  176931.82  45.90
961.4  385365.65  176678.70  45.85
962.6  385278.25  176590.72  45.83
963.7  384914.93  176299.89  45.80
964.9  384821.33  176131.10  45.77
966.0  384476.63  175961.58  45.77
967.2  384602.40  175913.84  45.74
968.3  383960.25  175687.50  45.76
969.5  383856.48  175495.89  45.72
970.6  383715.53  175448.56  45.72
971.8  383862.85  175397.46  45.69
972.9  383724.53  175244.46  45.67
974.0  383910.20  175250.40  45.65
975.2  383765.63  175133.58  45.64
976.3  383980.28  175062.64  45.59
977.5  383847.63  175012.19  45.59
978.6  383695.90  174931.34  45.59
979.7  383526.68  174893.67  45.60
980.9  383286.25  174808.59  45.61
982.0  383000.10  174669.80  45.61
983.2  382682.83  174546.58  45.61
984.3  382291.40  174326.74  45.60
985.4  382438.08  174283.32  45.57
986.6  381985.75  174183.40  45.60
987.7  382856.08  174454.66  45.57
988.9  381927.60  174391.94  45.66
990.0  382770.20  174696.51  45.64
993.1  387713.84  176584.10  45.54
996.9  386140.25  176164.73  45.62
1000.7  385980.06  176374.16  45.70
1004.5  385981.08  176657.44  45.77
1008.4  385582.79  176791.94  45.85
1012.2  385409.13  176951.78  45.91
1016.0  384958.20  176977.03  45.97
1019.8  384158.78  176790.08  46.02
1023.7  382717.59  176282.40  46.06
1027.5  380829.82  175541.27  46.09
1031.3  379565.85  175052.60  46.12
1035.1  378386.98  174605.01  46.14
1038.9  377818.28  174448.71  46.17
1042.7  377556.92  174410.93  46.19
1046.5  377443.67  174412.26  46.21
1050.3  377406.82  174443.64  46.22
1054.2  377059.67  174339.08  46.24
1058.0  376735.10  174187.67  46.24
1061.8  376695.33  174191.60  46.24
1065.6  375987.30  173824.35  46.23
1069.4  375043.80  173318.47  46.21
1073.2  373576.37  172577.60  46.20
1077.0  372910.50  172189.09  46.17
1080.8  373254.17  172260.86  46.15
1084.6  373598.87  172325.65  46.13
1088.4  374034.43  172470.65  46.11
1092.2  373639.50  172157.14  46.08
1096.0  372933.63  171694.92  46.04
1099.8  372190.65  171192.05  46.00
1103.6  371192.82  170573.47  45.95
1107.4  369990.83  169813.59  45.90
1111.2  369656.50  169460.69  45.84
1114.9  369083.17  168992.42  45.79
1118.7  368844.30  168569.42  45.70
1122.5  368530.07  168058.68  45.60
1126.3  367645.08  167227.73  45.49
1130.1  367292.83  166452.24  45.32
1133.9  365630.30  164864.60  45.09
1137.7  364091.90  163143.60  44.81
1141.4  362015.98  161049.04  44.49
1145.2  361065.53  159288.67  44.12
1149.0  359776.67  157501.46  43.78
1152.8  357988.10  155625.95  43.47
1156.6  356167.35  154005.13  43.24
1160.3  354390.67  152639.52  43.07
1164.1  352110.33  151250.62  42.96
1167.9  350534.38  150307.74  42.88
1171.7  349224.75  149573.25  42.83
1175.4  347727.23  148784.93  42.79
1179.2  346291.78  147999.15  42.74
1183.0  346006.67  147686.76  42.68
1186.7  346123.63  147587.93  42.64
1190.5  345905.53  147371.07  42.60
1194.3  344993.27  146844.08  42.56
1198.0  343447.78  146112.61  42.54
1201.8  341749.30  145376.35  42.54
1205.6  340695.00  145042.24  42.57
1209.3  340201.53  145045.80  42.64
1213.1  339777.30  145101.74  42.70
1216.8  339183.35  145136.39  42.79
1220.6  338040.27  144903.73  42.87
1224.3  336737.25  144594.26  42.94
1228.1  335212.60  144183.57  43.01
1231.9  333565.33  143665.93  43.07
1235.6  331828.28  143067.31  43.11
1239.4  330277.13  142569.05  43.17
1243.1  328879.78  142083.51  43.20
1246.9  327595.53  141603.94  43.23
1250.6  326548.07  141201.94  43.24
1254.3  325402.83  140742.26  43.25
1258.1  324164.28  140213.57  43.25
1261.8  322714.13  139576.14  43.25
1265.6  321654.82  139084.36  43.24
1269.3  321033.40  138760.82  43.22
1273.1  321404.47  138810.08  43.19
1276.8  320980.80  138462.86  43.14
1280.6  319608.27  137690.43  43.08
1284.3  317536.80  136583.89  43.01
1288.0  316387.67  135861.54  42.94
1291.8  316111.56  135457.82  42.85
1295.5  315503.47  134870.06  42.75
1299.2  314348.67  133991.35  42.63
1302.9  312666.13  132811.31  42.48
1306.7  310829.87  131499.32  42.31
1310.4  309060.35  130096.96  42.09
1314.1  307452.75  128702.56  41.86
1317.9  306037.29  127272.02  41.59
1321.6  304456.19  125689.34  41.28
1325.3  302749.13  123959.78  40.94
1329.0  301479.03  122338.72  40.58
1332.8  299560.80  120375.20  40.18
1336.5  297913.73  118502.05  39.78
1340.2  297767.17  117225.33  39.37
1343.9  297657.50  115957.02  38.96
