/*** Spectra Vista SIG Data ***/
name= 10_20221020_ACSA_01_avg.sig
comm= Averaged Ref/Tar of files: HR.102022.0028_moc.sig,HR.102022.0029_moc.sig,HR.102022.0030_moc.sig
data=
337.3  3027.13  230.64  7.62
338.8  3174.60  232.71  7.33
340.3  3326.35  222.20  6.68
341.8  3520.83  224.27  6.37
343.2  3685.20  223.69  6.07
344.7  3838.50  225.84  5.88
346.2  4003.30  216.31  5.40
347.7  4207.78  215.72  5.13
349.2  4384.80  220.68  5.03
350.6  4590.63  222.80  4.85
352.1  4858.60  234.08  4.82
353.6  5170.30  237.61  4.60
355.1  5421.68  242.46  4.47
356.6  5670.08  242.22  4.27
358.0  5933.40  243.05  4.10
359.5  6180.00  253.38  4.10
361.0  6493.73  257.07  3.96
362.5  6879.63  270.44  3.93
364.0  7197.43  283.47  3.94
365.4  7558.90  292.24  3.87
366.9  7900.75  303.35  3.84
368.4  8209.78  311.71  3.80
369.9  8566.93  319.41  3.73
371.3  8971.20  342.27  3.82
372.8  9398.70  359.31  3.82
374.3  9809.38  362.94  3.70
375.8  10187.10  365.75  3.59
377.2  10571.70  381.47  3.61
378.7  10975.20  382.23  3.48
380.2  11378.70  390.18  3.43
381.7  11863.98  398.17  3.36
383.1  12316.15  410.92  3.34
384.6  12786.15  426.98  3.34
386.1  13242.25  441.67  3.34
387.6  13663.65  453.53  3.32
389.0  14096.80  459.68  3.26
390.5  14549.40  463.24  3.18
392.0  15102.95  480.38  3.18
393.4  15633.63  496.72  3.18
394.9  16129.80  515.29  3.19
396.4  16663.50  535.00  3.21
397.9  17168.75  539.83  3.14
399.3  17727.50  560.53  3.16
400.8  18245.10  573.51  3.14
402.2  18878.95  587.80  3.11
403.7  19428.53  605.31  3.12
405.2  20029.05  627.28  3.13
406.6  20578.40  644.74  3.13
408.1  21131.00  665.30  3.15
409.6  21708.55  684.42  3.15
411.0  22353.45  702.92  3.14
412.5  22990.80  720.55  3.13
414.0  23614.63  741.26  3.14
415.4  24287.25  762.82  3.14
416.9  24922.58  784.03  3.15
418.4  25584.75  809.60  3.16
419.8  26280.80  832.52  3.17
421.3  26987.05  852.20  3.16
422.7  27735.60  880.77  3.18
424.2  28468.13  908.68  3.19
425.7  29193.30  931.89  3.19
427.1  29940.90  951.76  3.18
428.6  30705.50  979.31  3.19
430.0  31427.43  1005.74  3.20
431.5  32282.78  1031.10  3.19
432.9  33109.00  1062.19  3.21
434.4  33964.58  1089.11  3.21
435.9  34776.00  1114.13  3.20
437.3  35598.75  1140.86  3.20
438.8  36421.73  1170.55  3.21
440.2  37258.38  1197.22  3.21
441.7  38203.40  1228.21  3.21
443.1  39074.25  1260.26  3.23
444.6  40007.40  1292.53  3.23
446.0  40923.15  1326.66  3.24
447.5  41864.08  1357.49  3.24
448.9  42763.50  1390.25  3.25
450.4  43732.15  1426.60  3.26
451.8  44590.00  1460.21  3.27
453.3  45487.93  1493.54  3.28
454.7  46468.23  1527.92  3.29
456.2  47305.83  1560.68  3.30
457.6  48241.35  1597.43  3.31
459.1  49209.23  1629.33  3.31
460.5  50102.75  1662.58  3.32
462.0  51151.55  1695.65  3.31
463.4  52169.60  1733.51  3.32
464.8  53113.50  1769.53  3.33
466.3  54066.38  1804.95  3.34
467.7  55019.18  1837.79  3.34
469.2  56060.73  1874.12  3.34
470.6  57028.95  1907.99  3.35
472.0  58059.38  1946.78  3.35
473.5  59042.50  1982.48  3.36
474.9  60049.50  2022.55  3.37
476.4  61185.60  2067.98  3.38
477.8  62219.50  2104.85  3.38
479.2  63191.00  2139.51  3.39
480.7  64269.00  2180.21  3.39
482.1  65357.35  2225.44  3.41
483.6  66513.35  2270.71  3.41
485.0  67569.30  2315.31  3.43
486.4  68734.20  2364.44  3.44
487.9  69790.50  2414.80  3.46
489.3  70900.88  2462.72  3.47
490.7  71946.35  2516.85  3.50
492.2  73117.80  2581.32  3.53
493.6  74202.25  2639.09  3.56
495.0  75289.50  2703.54  3.59
496.5  76427.40  2775.25  3.63
497.9  77528.03  2854.36  3.68
499.3  78658.00  2941.01  3.74
500.7  79886.45  3038.13  3.80
502.2  81000.80  3145.95  3.88
503.6  82241.80  3268.45  3.97
505.0  83299.90  3400.61  4.08
506.5  84586.88  3563.17  4.21
507.9  85732.98  3747.48  4.37
509.3  87024.00  3958.08  4.55
510.7  88218.00  4193.61  4.75
512.2  89585.78  4467.95  4.99
513.6  91036.40  4787.43  5.26
515.0  92448.28  5140.24  5.56
516.4  93810.15  5520.83  5.89
517.8  95386.13  5952.01  6.24
519.3  96681.18  6392.87  6.61
520.7  98223.55  6882.49  7.01
522.1  99502.00  7362.56  7.40
523.5  100830.60  7858.13  7.79
524.9  102253.50  8355.92  8.17
526.3  103621.35  8832.90  8.52
527.8  105063.75  9309.68  8.86
529.2  106132.70  9747.72  9.18
530.6  107681.40  10207.89  9.48
532.0  109326.00  10646.40  9.74
533.4  110609.10  11022.51  9.97
534.8  111473.53  11326.90  10.16
536.3  113004.00  11675.12  10.33
537.7  114899.40  12040.44  10.48
539.1  116274.05  12340.85  10.61
540.5  117451.35  12610.27  10.74
541.9  119139.45  12928.17  10.85
543.3  120426.30  13201.57  10.96
544.7  121717.80  13475.45  11.07
546.1  123483.80  13804.68  11.18
547.5  124689.60  14064.11  11.28
549.0  126324.00  14362.44  11.37
550.4  127786.88  14623.95  11.44
551.8  129310.15  14872.43  11.50
553.2  130769.90  15087.59  11.54
554.6  132069.60  15251.16  11.55
556.0  133546.05  15390.84  11.52
557.4  135123.28  15503.43  11.47
558.8  136733.85  15584.44  11.40
560.2  138163.88  15605.38  11.29
561.6  139799.25  15607.91  11.16
563.0  141339.18  15562.46  11.01
564.4  142920.85  15483.18  10.83
565.8  144404.38  15362.74  10.64
567.2  146124.75  15234.90  10.43
568.6  147584.63  15060.84  10.20
570.0  148974.65  14857.64  9.97
571.4  150644.65  14672.82  9.74
572.8  152368.00  14494.18  9.51
574.2  153955.20  14316.48  9.30
575.6  155486.25  14150.25  9.10
577.0  156979.60  14005.97  8.92
578.4  158647.13  13897.87  8.76
579.8  160133.63  13790.22  8.61
581.2  161818.50  13718.47  8.48
582.5  163203.30  13638.75  8.36
583.9  164704.40  13578.43  8.24
585.3  166461.08  13555.43  8.14
586.7  167917.10  13515.64  8.05
588.1  169362.00  13490.62  7.97
589.5  170961.00  13492.85  7.89
590.9  172558.40  13505.96  7.83
592.3  174332.05  13545.03  7.77
593.7  175751.55  13568.41  7.72
595.0  177331.28  13605.13  7.67
596.4  178748.85  13625.74  7.62
597.8  180199.65  13645.57  7.57
599.2  181698.00  13658.23  7.52
600.6  183418.63  13670.82  7.45
602.0  184687.73  13634.17  7.38
603.3  186434.45  13610.01  7.30
604.7  188072.28  13556.22  7.21
606.1  189515.40  13472.88  7.11
607.5  191092.78  13385.64  7.00
608.9  192766.00  13288.76  6.89
610.2  194098.28  13161.83  6.78
611.6  195679.50  13050.48  6.67
613.0  197213.60  12937.15  6.56
614.4  198563.85  12818.96  6.46
615.8  199982.25  12714.98  6.36
617.1  201492.90  12630.10  6.27
618.5  203085.60  12569.29  6.19
619.9  204562.05  12525.06  6.12
621.3  206150.63  12508.66  6.07
622.6  207705.00  12517.78  6.03
624.0  209146.65  12542.60  6.00
625.4  210593.63  12584.94  5.98
626.8  212105.08  12650.97  5.96
628.1  213358.75  12715.30  5.96
629.5  215105.93  12806.88  5.95
630.9  216582.03  12877.61  5.95
632.2  217823.20  12917.01  5.93
633.6  219319.88  12939.32  5.90
635.0  220727.60  12908.85  5.85
636.3  222201.20  12817.65  5.77
637.7  223546.75  12663.23  5.66
639.1  225137.50  12470.67  5.54
640.4  226593.50  12229.08  5.40
641.8  227767.85  11950.90  5.25
643.2  229278.00  11685.35  5.10
644.5  230607.00  11421.89  4.95
645.9  232174.80  11182.63  4.82
647.2  233134.65  10962.31  4.70
648.6  234555.75  10816.01  4.61
650.0  235850.40  10699.61  4.54
651.3  236855.03  10609.28  4.48
652.7  239074.60  10580.39  4.43
654.0  241159.90  10554.72  4.38
655.4  242485.43  10511.86  4.34
656.8  242663.00  10425.14  4.30
658.1  244002.30  10372.39  4.25
659.5  246180.38  10344.51  4.20
660.8  247455.00  10281.00  4.15
662.2  248416.00  10206.08  4.11
663.5  249874.15  10169.80  4.07
664.9  250835.00  10144.95  4.04
666.2  251592.60  10133.14  4.03
667.6  253277.13  10191.68  4.02
668.9  254149.58  10248.88  4.03
670.3  256014.75  10353.87  4.04
671.6  256981.88  10463.44  4.07
673.0  258154.50  10608.20  4.11
674.3  259409.80  10777.01  4.15
675.7  260705.75  10971.70  4.21
677.0  261745.10  11180.10  4.27
678.4  263066.60  11425.94  4.34
679.7  264123.80  11693.81  4.43
681.1  265407.73  12014.90  4.53
682.4  266503.90  12379.58  4.65
683.8  267697.30  12824.31  4.79
685.1  268686.00  13362.87  4.97
686.4  269996.40  14067.40  5.21
687.8  271205.25  14981.03  5.52
689.1  272295.50  16196.73  5.95
690.5  273653.40  17844.88  6.52
691.8  274464.70  19973.00  7.28
693.1  275786.40  22730.03  8.24
694.5  276958.50  26034.88  9.40
695.8  278187.00  29858.83  10.73
697.1  279347.25  34120.45  12.21
698.5  280413.10  38736.36  13.81
699.8  281487.45  43612.23  15.49
701.1  282643.88  48642.19  17.21
702.5  283430.95  53641.08  18.93
703.8  284332.50  58597.93  20.61
705.1  285492.68  63451.64  22.23
706.5  286511.88  68105.24  23.77
707.8  287465.70  72539.16  25.23
709.1  288305.05  76715.29  26.61
710.5  289398.98  80758.46  27.91
711.8  290189.90  84518.06  29.13
713.1  291148.80  88135.76  30.27
714.4  292063.10  91542.56  31.34
715.8  292888.20  94748.45  32.35
717.1  294170.70  97942.38  33.29
718.4  295120.00  100864.85  34.18
719.7  296175.55  103678.89  35.01
721.0  296685.00  106163.36  35.78
722.4  297434.50  108577.39  36.50
723.7  298368.45  110945.31  37.18
725.0  299379.15  113197.99  37.81
726.3  300308.53  115293.86  38.39
727.6  300810.68  117123.34  38.94
729.0  301693.00  118974.64  39.44
730.3  302479.43  120674.24  39.90
731.6  303334.45  122309.39  40.32
732.9  304111.15  123807.04  40.71
734.2  304903.50  125223.44  41.07
735.5  305872.05  126638.43  41.40
736.8  306678.00  127876.85  41.70
738.1  307497.40  129058.86  41.97
739.5  308424.65  130204.94  42.22
740.8  309094.78  131184.60  42.44
742.1  309761.83  132109.27  42.65
743.4  310425.00  132973.10  42.84
744.7  311263.70  133874.90  43.01
746.0  312109.20  134706.76  43.16
747.3  312706.78  135368.31  43.29
748.6  313429.00  136041.66  43.40
749.9  314080.00  136643.62  43.51
751.2  314689.10  137194.36  43.60
752.5  315395.15  137790.82  43.69
753.8  315898.63  138240.96  43.76
755.1  316524.00  138703.07  43.82
756.4  317076.83  139110.97  43.87
757.7  318036.78  139667.63  43.92
759.0  319761.43  140547.02  43.95
760.3  320892.00  141134.65  43.98
761.6  322365.40  141889.72  44.02
762.9  322872.50  142186.70  44.04
764.2  323203.50  142399.12  44.06
765.5  323408.18  142562.79  44.08
766.8  323788.80  142767.10  44.09
768.1  324251.60  143014.95  44.11
769.3  324776.90  143279.67  44.12
770.6  325393.90  143584.47  44.13
771.9  326041.10  143892.95  44.13
773.2  326372.80  144066.71  44.14
774.5  326955.20  144327.04  44.14
775.8  327534.05  144612.69  44.15
777.1  328024.95  144858.01  44.16
778.4  328294.73  144994.07  44.17
779.6  328966.58  145318.17  44.17
780.9  329370.00  145513.14  44.18
782.2  329815.75  145725.77  44.18
783.5  330071.00  145853.03  44.19
784.8  330505.65  146068.22  44.20
786.0  330844.15  146235.90  44.20
787.3  331148.48  146397.42  44.21
788.6  331489.20  146567.76  44.21
789.9  331885.40  146768.21  44.22
791.2  332460.45  147039.21  44.23
792.4  333047.50  147313.15  44.23
793.7  333465.60  147512.85  44.24
795.0  334021.88  147768.86  44.24
796.2  334617.83  148043.66  44.24
797.5  335200.43  148335.94  44.25
798.8  335799.93  148615.62  44.26
800.0  336343.90  148896.24  44.27
801.3  336740.80  149069.96  44.27
802.6  337299.98  149315.10  44.27
803.8  337846.40  149597.86  44.28
805.1  338248.75  149793.37  44.28
806.4  338632.80  149989.90  44.29
807.7  339118.65  150228.75  44.30
808.9  339605.05  150446.42  44.30
810.2  340090.45  150651.60  44.30
811.4  340529.20  150860.78  44.30
812.7  341087.50  151132.35  44.31
814.0  341791.90  151491.18  44.32
815.2  342391.75  151776.76  44.33
816.5  342807.98  151961.72  44.33
817.7  343228.50  152154.64  44.33
819.0  343689.50  152373.77  44.33
820.2  343816.00  152434.86  44.34
821.5  344430.10  152748.08  44.35
822.7  344814.40  152908.77  44.35
824.0  345122.10  153050.27  44.35
825.2  345539.93  153252.15  44.35
826.5  345816.63  153405.58  44.36
827.7  346356.30  153647.53  44.36
829.0  346727.10  153825.29  44.36
830.2  347040.10  153965.64  44.37
831.5  347589.65  154192.62  44.36
832.7  347868.68  154333.31  44.37
834.0  348212.70  154487.31  44.37
835.2  348555.90  154659.11  44.37
836.4  348855.65  154804.93  44.38
837.7  349264.80  155005.81  44.38
838.9  349726.25  155209.74  44.38
840.1  350156.25  155391.48  44.38
841.4  350560.90  155568.39  44.38
842.6  350961.60  155758.34  44.38
843.8  351307.00  155933.48  44.39
845.1  351767.45  156191.11  44.40
846.3  352246.10  156381.92  44.40
847.5  352671.90  156572.16  44.40
848.8  353125.20  156757.17  44.39
850.0  353471.30  156948.99  44.40
851.2  354051.00  157195.26  44.40
852.5  354421.60  157376.39  44.40
853.7  354960.00  157620.39  44.41
854.9  355419.70  157832.32  44.41
856.1  355906.20  158030.69  44.40
857.4  356149.08  158125.27  44.40
858.6  356636.75  158389.93  44.41
859.8  357073.13  158563.50  44.41
861.0  357528.60  158773.68  44.41
862.2  358004.78  158985.30  44.41
863.5  358406.75  159148.47  44.40
864.7  358934.40  159360.46  44.40
865.9  359293.00  159537.35  44.40
867.1  359627.50  159715.57  44.41
868.3  360103.35  159905.26  44.41
869.5  360623.55  160120.79  44.40
870.8  361233.00  160353.47  44.39
872.0  361726.35  160571.62  44.39
873.2  362147.10  160742.64  44.39
874.4  362574.23  160944.28  44.39
875.6  362976.25  161118.15  44.39
876.8  363489.55  161324.58  44.38
878.0  363995.70  161531.69  44.38
879.2  364486.50  161750.77  44.38
880.4  365023.13  161962.51  44.37
881.6  365448.58  162149.61  44.37
882.8  365940.00  162322.87  44.36
884.0  366471.98  162577.13  44.36
885.2  367112.20  162788.74  44.34
886.5  367572.45  163032.14  44.35
887.7  368022.20  163211.04  44.35
888.8  368659.73  163457.88  44.34
890.0  369245.30  163695.49  44.33
891.2  369740.20  163932.16  44.34
892.4  370312.43  164190.53  44.34
893.6  370851.15  164410.72  44.33
894.8  371743.25  164759.95  44.32
896.0  372485.25  165092.45  44.32
897.2  373379.50  165422.86  44.30
898.4  374008.80  165717.23  44.31
899.6  374573.25  165920.03  44.30
900.8  374891.30  166107.63  44.31
902.0  375073.65  166171.78  44.30
903.2  375387.98  166266.50  44.29
904.3  375551.10  166353.76  44.30
905.5  376122.88  166576.69  44.29
906.7  376706.50  166797.44  44.28
907.9  377231.40  167015.75  44.27
909.1  377533.58  167128.38  44.27
910.2  377657.33  167164.22  44.26
911.4  377763.75  167215.43  44.26
912.6  377898.95  167227.33  44.25
913.8  378054.30  167293.78  44.25
915.0  378348.60  167427.05  44.25
916.2  378475.50  167463.31  44.25
917.3  378487.35  167426.17  44.24
918.5  378591.00  167449.85  44.23
919.7  378732.45  167529.55  44.23
920.8  378589.15  167486.08  44.24
922.0  378782.25  167481.42  44.22
923.2  378924.00  167503.70  44.21
924.4  379147.50  167510.18  44.18
925.5  379371.20  167576.99  44.17
926.7  379856.50  167750.29  44.16
927.9  380587.20  168081.66  44.16
929.0  381854.25  168639.51  44.16
930.2  383955.80  169512.93  44.15
931.4  386280.23  170457.71  44.13
932.5  388713.65  171525.12  44.13
933.7  390186.93  172057.35  44.10
934.9  390604.38  172242.71  44.10
936.0  390125.13  171979.55  44.08
937.2  387980.25  170982.33  44.07
938.3  386116.50  170130.05  44.06
939.5  384760.80  169340.20  44.01
940.7  384712.20  169331.32  44.02
941.8  386110.43  169866.53  43.99
943.0  387359.25  170413.83  43.99
944.2  388131.25  170676.86  43.97
945.3  387543.00  170327.67  43.95
946.5  386934.30  169901.89  43.91
947.6  386739.60  169779.30  43.90
948.8  386691.83  169553.83  43.85
949.9  386509.20  169491.40  43.85
951.1  386010.63  169191.54  43.83
952.2  385764.00  168933.37  43.79
953.4  385485.00  168636.37  43.75
954.5  385398.00  168421.83  43.70
955.7  385345.80  168198.00  43.65
956.8  385029.30  167905.44  43.61
958.0  384524.00  167620.65  43.59
959.1  384183.95  167389.06  43.57
960.3  383598.30  167069.17  43.55
961.4  383489.25  166905.78  43.52
962.6  383600.00  166824.90  43.49
963.7  383197.65  166636.42  43.49
964.9  383064.15  166491.74  43.46
966.0  382676.40  166330.99  43.47
967.2  382753.35  166258.53  43.44
968.3  382332.15  166063.62  43.43
969.5  382179.03  165939.75  43.42
970.6  382271.90  165939.88  43.41
971.8  382365.73  165947.04  43.40
972.9  381851.18  165910.42  43.45
974.0  382280.70  165932.76  43.41
975.2  382060.00  165861.48  43.41
976.3  382187.65  165764.89  43.37
977.5  381956.75  165773.91  43.40
978.6  382095.50  165744.28  43.38
979.7  382252.50  165751.97  43.36
980.9  381933.48  165691.32  43.38
982.0  382040.20  165564.46  43.34
983.2  381660.98  165471.58  43.36
984.3  381203.80  165278.95  43.36
985.4  381859.50  165191.43  43.26
986.6  381371.63  165141.14  43.30
987.7  382203.85  165391.84  43.27
988.9  381238.20  165252.46  43.35
990.0  382042.50  165444.33  43.31
993.1  385825.24  166961.24  43.27
996.9  384337.80  166607.78  43.35
1000.7  384214.43  166816.32  43.42
1004.5  384253.58  167073.93  43.48
1008.4  383972.08  167194.50  43.54
1012.2  383795.54  167358.42  43.61
1016.0  383381.40  167391.09  43.66
1019.8  382663.05  167272.88  43.71
1023.7  381389.63  166845.77  43.75
1027.5  379573.90  166196.22  43.78
1031.3  378433.13  165789.75  43.81
1035.1  377309.92  165382.63  43.83
1038.9  376800.97  165245.98  43.85
1042.7  376487.17  165213.86  43.88
1046.5  376350.00  165217.19  43.90
1050.3  376367.04  165256.71  43.91
1054.2  376008.50  165165.67  43.93
1058.0  375641.00  165035.44  43.93
1061.8  375615.63  165069.85  43.95
1065.6  374966.17  164775.74  43.94
1069.4  374098.73  164369.87  43.94
1073.2  372745.93  163760.61  43.93
1077.0  372069.80  163443.23  43.93
1080.8  372347.92  163509.08  43.91
1084.6  372571.50  163567.13  43.90
1088.4  372958.33  163720.93  43.90
1092.2  372498.75  163461.54  43.88
1096.0  371835.75  163089.33  43.86
1099.8  371140.47  162681.10  43.83
1103.6  370212.23  162176.48  43.81
1107.4  369019.28  161545.57  43.78
1111.2  368659.30  161289.19  43.75
1114.9  368123.58  160912.33  43.71
1118.7  367864.20  160611.94  43.66
1122.5  367536.00  160236.64  43.60
1126.3  366685.38  159576.79  43.52
1130.1  366316.33  159002.25  43.41
1133.9  364646.10  157679.20  43.24
1137.7  363089.60  156285.37  43.04
1141.4  361056.80  154565.54  42.81
1145.2  360088.25  153220.97  42.55
1149.0  358834.58  151834.80  42.31
1152.8  357055.20  150351.22  42.11
1156.6  355192.02  149055.32  41.96
1160.3  353417.33  147967.52  41.87
1164.1  351116.77  146819.38  41.81
1167.9  349528.13  146073.96  41.79
1171.7  348232.50  145499.63  41.78
1175.4  346766.47  144871.56  41.78
1179.2  345378.20  144244.46  41.76
1183.0  345036.33  144055.62  41.75
1186.7  345157.40  144049.57  41.73
1190.5  344858.53  143907.66  41.73
1194.3  343933.73  143507.54  41.73
1198.0  342443.48  142884.50  41.72
1201.8  340758.20  142222.85  41.74
1205.6  339690.00  141870.91  41.76
1209.3  339166.75  141796.77  41.81
1213.1  338715.23  141751.41  41.85
1216.8  338133.77  141687.75  41.90
1220.6  336993.07  141369.07  41.95
1224.3  335713.00  140990.74  42.00
1228.1  334184.40  140525.28  42.05
1231.9  332557.00  139977.80  42.09
1235.6  330811.73  139361.48  42.13
1239.4  329252.75  138836.07  42.17
1243.1  327868.24  138339.49  42.19
1246.9  326613.18  137864.25  42.21
1250.6  325597.60  137469.25  42.22
1254.3  324429.78  137011.85  42.23
1258.1  323195.37  136514.07  42.24
1261.8  321753.47  135913.12  42.24
1265.6  320675.37  135441.49  42.24
1269.3  319984.05  135117.11  42.23
1273.1  320341.53  135198.95  42.20
1276.8  319996.80  134950.92  42.17
1280.6  318724.47  134304.87  42.14
1284.3  316700.40  133317.94  42.10
1288.0  315510.62  132666.57  42.05
1291.8  315153.30  132313.90  41.98
1295.5  314503.20  131807.03  41.91
1299.2  313362.35  131050.58  41.82
1302.9  311714.03  130019.65  41.71
1306.7  309914.38  128879.22  41.59
1310.4  308166.67  127666.85  41.43
1314.1  306585.40  126483.11  41.26
1317.9  305185.63  125290.60  41.05
1321.6  303620.65  123961.83  40.83
1325.3  301926.98  122498.18  40.57
1329.0  300638.45  121164.08  40.30
1332.8  298729.20  119497.40  40.00
1336.5  297074.07  117928.46  39.70
1340.2  296933.00  116956.67  39.39
1343.9  296866.67  115991.79  39.07
1347.6  296949.00  115076.02  38.75
