/*** Spectra Vista SIG Data ***/
name= 26_20221020_TITO_37_avg.sig
comm= Averaged Ref/Tar of files: HR.102022.0074_moc.sig,HR.102022.0075_moc.sig,HR.102022.0076_moc.sig
data=
337.3  3027.13  223.08  7.37
338.8  3126.50  222.63  7.12
340.3  3279.50  215.06  6.56
341.8  3475.10  230.80  6.64
343.2  3685.20  225.81  6.13
344.7  3838.50  226.65  5.90
346.2  4003.30  217.09  5.42
347.7  4168.45  194.75  4.67
349.2  4347.00  208.08  4.79
350.6  4553.90  205.66  4.52
352.1  4858.60  209.59  4.31
353.6  5135.60  216.13  4.21
355.1  5421.68  209.75  3.87
356.6  5702.85  212.88  3.73
358.0  5933.40  216.31  3.65
359.5  6210.90  228.95  3.69
361.0  6463.80  231.42  3.58
362.5  6850.35  240.89  3.52
364.0  7197.43  247.42  3.44
365.4  7558.90  255.31  3.38
366.9  7900.75  256.25  3.24
368.4  8237.05  265.48  3.22
369.9  8566.93  281.57  3.29
371.3  8944.50  297.51  3.33
372.8  9372.15  311.52  3.32
374.3  9809.38  315.33  3.21
375.8  10187.10  316.21  3.10
377.2  10598.60  322.80  3.05
378.7  11002.10  329.97  3.00
380.2  11378.70  335.10  2.94
381.7  11836.95  347.98  2.94
383.1  12289.20  356.77  2.90
384.6  12786.15  361.72  2.83
386.1  13242.25  358.79  2.71
387.6  13690.60  367.55  2.68
389.0  14123.60  377.75  2.67
390.5  14575.95  388.89  2.67
392.0  15102.95  410.10  2.72
393.4  15633.63  416.90  2.67
394.9  16182.00  423.57  2.62
396.4  16689.38  431.74  2.59
397.9  17194.38  442.70  2.57
399.3  17702.18  458.26  2.59
400.8  18270.03  474.76  2.60
402.2  18878.95  487.73  2.58
403.7  19452.60  494.80  2.54
405.2  20052.73  509.13  2.54
406.6  20578.40  518.80  2.52
408.1  21153.60  532.07  2.52
409.6  21752.45  541.85  2.49
411.0  22374.80  557.13  2.49
412.5  23011.63  577.55  2.51
414.0  23655.38  596.50  2.52
415.4  24327.00  607.23  2.50
416.9  24961.13  623.04  2.50
418.4  25640.78  632.46  2.47
419.8  26317.20  647.92  2.46
421.3  27022.70  667.84  2.47
422.7  27753.00  686.72  2.47
424.2  28501.88  704.25  2.47
425.7  29242.20  720.30  2.46
427.1  29988.38  734.58  2.45
428.6  30752.00  747.84  2.43
430.0  31472.95  765.98  2.43
431.5  32297.70  786.62  2.44
432.9  33152.95  803.38  2.42
434.4  34021.88  825.94  2.43
435.9  34832.00  842.93  2.42
437.3  35653.75  864.81  2.43
438.8  36476.03  882.25  2.42
440.2  37312.28  902.70  2.42
441.7  38243.60  923.20  2.41
443.1  39127.25  945.92  2.42
444.6  40072.90  966.16  2.41
446.0  40988.03  991.78  2.42
447.5  41915.78  1018.49  2.43
448.9  42828.00  1041.83  2.43
450.4  43809.85  1068.81  2.44
451.8  44668.00  1092.99  2.45
453.3  45566.38  1119.47  2.46
454.7  46547.28  1142.34  2.45
456.2  47385.18  1168.33  2.47
457.6  48334.28  1193.99  2.47
459.1  49275.85  1216.00  2.47
460.5  50196.38  1239.42  2.47
462.0  51246.23  1265.68  2.47
463.4  52265.50  1292.50  2.47
464.8  53224.50  1317.20  2.47
466.3  54178.58  1341.06  2.48
467.7  55117.70  1363.80  2.47
469.2  56159.25  1393.29  2.48
470.6  57127.30  1419.45  2.48
472.0  58157.90  1445.03  2.48
473.5  59155.50  1466.85  2.48
474.9  60177.75  1496.11  2.49
476.4  61315.20  1525.58  2.49
477.8  62335.50  1558.54  2.50
479.2  63307.00  1587.54  2.51
480.7  64370.33  1613.76  2.51
482.1  65487.40  1645.10  2.51
483.6  66643.40  1679.23  2.52
485.0  67699.58  1712.46  2.53
486.4  68865.15  1749.05  2.54
487.9  69907.50  1783.97  2.55
489.3  71033.40  1823.38  2.57
490.7  72064.15  1859.56  2.58
492.2  73250.10  1905.68  2.60
493.6  74334.10  1949.15  2.62
495.0  75421.13  1998.75  2.65
496.5  76574.15  2054.78  2.68
497.9  77674.78  2115.16  2.72
499.3  78804.75  2188.95  2.78
500.7  80018.30  2271.45  2.84
502.2  81161.40  2359.64  2.91
503.6  82402.40  2463.92  2.99
505.0  83446.40  2582.31  3.09
506.5  84734.63  2728.45  3.22
507.9  85881.23  2895.82  3.37
509.3  87172.00  3096.44  3.55
510.7  88364.25  3317.79  3.75
512.2  89730.53  3577.12  3.99
513.6  91194.25  3873.95  4.25
515.0  92590.53  4216.02  4.55
516.4  93951.90  4598.10  4.89
517.8  95541.50  5026.08  5.26
519.3  96836.00  5480.40  5.66
520.7  98378.10  5982.09  6.08
522.1  99655.73  6489.46  6.51
523.5  100969.60  7021.22  6.95
524.9  102420.90  7571.00  7.39
526.3  103807.90  8105.43  7.81
527.8  105227.10  8643.27  8.21
529.2  106251.90  9148.32  8.61
530.6  107782.55  9685.35  8.99
532.0  109424.00  10208.80  9.33
533.4  110731.28  10662.71  9.63
534.8  111605.78  11036.96  9.89
536.3  113120.10  11455.20  10.13
537.7  115000.20  11887.44  10.34
539.1  116384.98  12252.93  10.53
540.5  117547.75  12583.87  10.71
541.9  119245.43  12960.13  10.87
543.3  120518.90  13284.57  11.02
544.7  121820.40  13606.82  11.17
546.1  123574.00  13981.00  11.31
547.5  124790.40  14282.88  11.45
549.0  126390.00  14622.04  11.57
550.4  127850.63  14920.33  11.67
551.8  129383.83  15200.10  11.75
553.2  130843.23  15433.37  11.80
554.6  132142.40  15602.18  11.81
556.0  133608.15  15739.89  11.78
557.4  135174.90  15833.04  11.71
558.8  136795.95  15888.73  11.61
560.2  138215.75  15869.20  11.48
561.6  139840.95  15826.94  11.32
563.0  141391.55  15722.68  11.12
564.4  142973.60  15576.82  10.89
565.8  144446.88  15381.96  10.65
567.2  146167.75  15168.35  10.38
568.6  147606.38  14897.51  10.09
570.0  148985.63  14591.94  9.79
571.4  150655.70  14297.23  9.49
572.8  152379.13  14010.08  9.19
574.2  153966.40  13724.37  8.91
575.6  155486.25  13447.71  8.65
577.0  156968.30  13202.27  8.41
578.4  158635.75  12992.85  8.19
579.8  160133.63  12796.92  7.99
581.2  161806.93  12633.51  7.81
582.5  163191.60  12470.64  7.64
583.9  164680.80  12329.54  7.49
585.3  166425.30  12227.78  7.35
586.7  167881.03  12122.12  7.22
588.1  169325.63  12033.77  7.11
589.5  170936.50  11972.33  7.00
590.9  172521.20  11923.37  6.91
592.3  174281.85  11904.33  6.83
593.7  175713.53  11879.25  6.76
595.0  177292.80  11876.19  6.70
596.4  178710.00  11866.39  6.64
597.8  180160.43  11865.38  6.59
599.2  181645.20  11857.87  6.53
600.6  183365.33  11854.68  6.47
602.0  184620.60  11804.03  6.39
603.3  186380.25  11766.30  6.31
604.7  188003.90  11697.20  6.22
606.1  189460.20  11593.58  6.12
607.5  191064.93  11481.63  6.01
608.9  192723.85  11351.60  5.89
610.2  194069.93  11193.66  5.77
611.6  195636.53  11041.98  5.64
613.0  197170.25  10888.97  5.52
614.4  198520.20  10722.93  5.40
615.8  199938.38  10572.34  5.29
617.1  201448.80  10435.60  5.18
618.5  203026.40  10323.07  5.08
619.9  204532.20  10232.01  5.00
621.3  206105.40  10165.14  4.93
622.6  207674.50  10126.58  4.88
624.0  209115.75  10109.89  4.83
625.4  210562.28  10112.61  4.80
626.8  212073.23  10140.74  4.78
628.1  213310.08  10168.90  4.77
629.5  215056.35  10230.08  4.76
630.9  216498.15  10273.01  4.75
632.2  217738.33  10284.59  4.72
633.6  219217.13  10272.39  4.69
635.0  220624.40  10215.49  4.63
636.3  222080.10  10107.15  4.55
637.7  223425.13  9939.82  4.45
639.1  225015.00  9739.00  4.33
640.4  226487.45  9498.71  4.19
641.8  227660.90  9226.56  4.05
643.2  229187.88  8964.09  3.91
644.5  230534.00  8696.39  3.77
645.9  232045.65  8451.15  3.64
647.2  232982.05  8210.97  3.52
648.6  234373.50  8035.97  3.43
650.0  235656.00  7905.19  3.35
651.3  236740.90  7792.67  3.29
652.7  238982.40  7749.63  3.24
654.0  241091.20  7713.59  3.20
655.4  242439.88  7658.91  3.16
656.8  242640.30  7565.37  3.12
658.1  244025.00  7491.86  3.07
659.5  246180.38  7417.50  3.01
660.8  247432.50  7316.57  2.96
662.2  248438.40  7201.28  2.90
663.5  249940.60  7116.69  2.85
664.9  250923.40  7034.11  2.80
666.2  251703.60  6964.88  2.77
667.6  253388.75  6948.82  2.74
668.9  254262.20  6944.99  2.73
670.3  256126.63  6966.51  2.72
671.6  257114.63  7002.88  2.72
673.0  258287.25  7071.99  2.74
674.3  259564.50  7144.82  2.75
675.7  260860.28  7240.60  2.78
677.0  261899.28  7351.74  2.81
678.4  263176.73  7479.27  2.84
679.7  264211.90  7629.88  2.89
681.1  265429.80  7817.07  2.95
682.4  266503.90  8028.40  3.01
683.8  267675.20  8286.87  3.10
685.1  268686.00  8616.53  3.21
686.4  269974.20  9072.82  3.36
687.8  271160.75  9694.22  3.58
689.1  272273.25  10571.08  3.88
690.5  273541.65  11816.13  4.32
691.8  274329.85  13510.26  4.92
693.1  275673.15  15789.85  5.73
694.5  276844.75  18635.07  6.73
695.8  278073.25  22044.97  7.93
697.1  279233.50  25964.90  9.30
698.5  280254.20  30339.31  10.83
699.8  281283.38  35096.58  12.48
701.1  282439.80  40149.43  14.22
702.5  283228.00  45329.37  16.00
703.8  284130.00  50610.43  17.81
705.1  285268.43  55933.08  19.61
706.5  286288.13  61203.08  21.38
707.8  287219.85  66389.72  23.11
709.1  288059.48  71435.32  24.80
710.5  289131.08  76454.41  26.44
711.8  289944.60  81296.88  28.04
713.1  290925.80  86072.90  29.59
714.4  291817.80  90715.98  31.09
715.8  292642.90  95226.95  32.54
717.1  293924.85  99765.29  33.94
718.4  294873.60  104058.03  35.29
719.7  295905.85  108261.43  36.59
721.0  296392.50  112120.71  37.83
722.4  297163.90  115913.87  39.01
723.7  298096.65  119616.16  40.13
725.0  299083.73  123182.92  41.19
726.3  300011.80  126539.19  42.18
727.6  300513.95  129574.26  43.12
729.0  301417.90  132573.75  43.98
730.3  302180.10  135371.65  44.80
731.6  303056.65  138032.65  45.55
732.9  303808.58  140479.48  46.24
734.2  304599.63  142796.32  46.88
735.5  305589.75  145059.63  47.47
736.8  306369.90  147083.55  48.01
738.1  307234.50  149006.26  48.50
739.5  308134.55  150853.38  48.96
740.8  308825.55  152446.62  49.36
742.1  309464.53  153939.58  49.74
743.4  310100.00  155318.57  50.09
744.7  310961.60  156728.52  50.40
746.0  311830.35  158052.18  50.69
747.3  312400.48  159146.19  50.94
748.6  313120.00  160229.25  51.17
749.9  313768.00  161200.00  51.38
751.2  314323.00  162082.68  51.57
752.5  315055.20  162980.75  51.73
753.8  315507.50  163703.82  51.89
755.1  316134.00  164456.69  52.02
756.4  316713.18  165130.25  52.14
757.7  317671.73  165971.10  52.25
759.0  319420.50  167172.64  52.34
760.3  320548.80  168023.18  52.42
761.6  322019.60  169041.23  52.49
762.9  322498.00  169503.29  52.56
764.2  322826.90  169861.97  52.62
765.5  323083.88  170145.28  52.66
766.8  323435.20  170490.64  52.71
768.1  323895.40  170869.01  52.75
769.3  324445.10  171267.26  52.79
770.6  325058.50  171702.97  52.82
771.9  325731.18  172141.20  52.85
773.2  326032.00  172403.15  52.88
774.5  326583.40  172783.77  52.91
775.8  327187.85  173178.58  52.93
777.1  327704.30  173524.68  52.95
778.4  327971.05  173731.93  52.97
779.6  328639.60  174168.12  53.00
780.9  329040.00  174438.86  53.01
782.2  329452.75  174726.30  53.04
783.5  329674.50  174915.47  53.06
784.8  330166.58  175225.15  53.07
786.0  330501.50  175446.89  53.09
787.3  330802.25  175674.86  53.11
788.6  331139.13  175900.72  53.12
789.9  331499.00  176164.05  53.14
791.2  332102.13  176511.21  53.15
792.4  332717.75  176881.04  53.16
793.7  333131.60  177147.24  53.18
795.0  333649.80  177489.76  53.20
796.2  334241.35  177842.23  53.21
797.5  334818.45  178192.16  53.22
798.8  335447.68  178552.51  53.23
800.0  336022.83  178911.14  53.24
801.3  336379.80  179150.20  53.26
802.6  336896.55  179472.78  53.27
803.8  337474.65  179823.62  53.29
805.1  337872.50  180061.78  53.29
806.4  338251.80  180313.15  53.31
807.7  338733.90  180605.31  53.32
808.9  339215.55  180900.86  53.33
810.2  339655.40  181191.73  53.35
811.4  340088.10  181463.58  53.36
812.7  340681.25  181788.75  53.36
814.0  341421.55  182227.09  53.37
815.2  342016.00  182586.67  53.39
816.5  342385.23  182825.28  53.40
817.7  342800.00  183091.11  53.41
819.0  343255.00  183380.52  53.42
820.2  343376.00  183480.84  53.43
821.5  344028.25  183878.06  53.45
822.7  344316.38  184096.77  53.47
824.0  344663.10  184285.44  53.47
825.2  345074.18  184562.09  53.48
826.5  345343.88  184751.60  53.50
827.7  345876.05  185081.95  53.51
829.0  346288.58  185315.56  53.51
830.2  346595.05  185518.50  53.53
831.5  347038.00  185786.17  53.53
832.7  347359.43  185981.98  53.54
834.0  347643.73  186208.03  53.56
835.2  347978.13  186438.74  53.58
836.4  348268.80  186639.64  53.59
837.7  348722.80  186911.54  53.60
838.9  349120.43  187183.66  53.62
840.1  349483.95  187413.76  53.63
841.4  349878.10  187680.04  53.64
842.6  350210.20  187911.65  53.66
843.8  350545.20  188161.81  53.68
845.1  351114.60  188485.43  53.68
846.3  351524.90  188734.61  53.69
847.5  351941.10  188986.04  53.70
848.8  352260.00  189237.49  53.72
850.0  352656.85  189494.17  53.73
851.2  353099.25  189803.73  53.75
852.5  353521.40  190023.03  53.75
853.7  354046.50  190331.14  53.76
854.9  354560.40  190618.55  53.76
856.1  354901.95  190882.74  53.78
857.4  355131.70  191044.29  53.80
858.6  355607.00  191349.13  53.81
859.8  356032.50  191576.75  53.81
861.0  356405.40  191838.55  53.83
862.2  356867.58  192094.74  53.83
863.5  357257.55  192314.52  53.83
864.7  357772.80  192611.26  53.84
865.9  358118.60  192842.07  53.85
867.1  358441.10  193066.83  53.86
868.3  358905.75  193301.19  53.86
869.5  359413.15  193563.13  53.86
870.8  359856.00  193843.71  53.87
872.0  360334.50  194131.41  53.88
873.2  360740.40  194370.21  53.88
874.4  361152.68  194606.43  53.88
875.6  361540.30  194822.71  53.89
876.8  362037.85  195094.65  53.89
878.0  362526.00  195339.46  53.88
879.2  362998.80  195623.89  53.89
880.4  363517.88  195891.16  53.89
881.6  363926.23  196130.23  53.89
882.8  364313.60  196332.16  53.89
884.0  364827.05  196629.14  53.90
885.2  365270.50  196883.99  53.90
886.5  365795.45  197181.00  53.90
887.7  366221.70  197411.96  53.91
888.8  366834.23  197746.85  53.91
890.0  367396.30  198019.10  53.90
891.2  367959.90  198303.11  53.89
892.4  368411.93  198585.96  53.90
893.6  368924.15  198881.08  53.91
894.8  369690.50  199305.73  53.91
896.0  370599.50  199698.56  53.89
897.2  371364.50  200116.37  53.89
898.4  372065.10  200498.26  53.89
899.6  372495.75  200761.69  53.90
900.8  372782.80  200911.94  53.90
902.0  372934.65  200988.59  53.89
903.2  373217.48  201097.86  53.88
904.3  373459.20  201254.41  53.89
905.5  373999.15  201512.23  53.88
906.7  374436.50  201800.84  53.89
907.9  374928.40  202032.32  53.89
909.1  375198.08  202160.88  53.88
910.2  375170.40  202154.86  53.88
911.4  375485.18  202241.52  53.86
912.6  375589.50  202286.98  53.86
913.8  375713.03  202363.62  53.86
915.0  375849.60  202521.34  53.88
916.2  376067.25  202546.50  53.86
917.3  375917.85  202505.97  53.87
918.5  375989.00  202514.90  53.86
919.7  376233.00  202589.51  53.85
920.8  376194.70  202588.21  53.85
922.0  376087.25  202587.00  53.87
923.2  376194.00  202586.80  53.85
924.4  376241.63  202578.36  53.84
925.5  376424.90  202630.61  53.83
926.7  377009.00  202864.04  53.81
927.9  377839.80  203260.78  53.80
929.0  379205.55  203916.27  53.77
930.2  381103.90  204939.39  53.78
931.4  383368.95  206115.35  53.76
932.5  385895.75  207451.11  53.76
933.7  387159.75  208014.72  53.73
934.9  387690.63  208254.50  53.72
936.0  387335.00  207866.66  53.67
937.2  385002.15  206626.57  53.67
938.3  383274.95  205559.48  53.63
939.5  381715.20  204628.87  53.61
940.7  381789.90  204574.10  53.58
941.8  383128.20  205190.45  53.56
943.0  384491.25  205792.66  53.52
944.2  385026.20  206043.12  53.51
945.3  384579.00  205641.61  53.47
946.5  383744.25  205031.75  53.43
947.6  383688.40  204993.42  53.43
948.8  383587.43  204609.53  53.34
949.9  383350.80  204525.20  53.35
951.1  382802.23  204061.88  53.31
952.2  382500.00  203611.43  53.23
953.4  382169.00  203211.59  53.17
954.5  382028.40  202982.30  53.13
955.7  381918.60  202645.44  53.06
956.8  381542.90  202314.96  53.03
958.0  381201.50  201881.43  52.96
959.1  380798.08  201514.38  52.92
960.3  380148.68  201116.42  52.90
961.4  379971.00  200886.49  52.87
962.6  380243.50  200805.47  52.81
963.7  379763.10  200535.66  52.81
964.9  379549.80  200380.11  52.79
966.0  379333.13  200180.12  52.77
967.2  379055.25  200145.20  52.80
968.3  379075.95  199915.17  52.74
969.5  378544.55  199685.78  52.75
970.6  378518.48  199671.21  52.75
971.8  378772.63  199707.92  52.73
972.9  378416.70  199687.22  52.77
974.0  378369.90  199810.84  52.81
975.2  378648.75  199717.32  52.74
976.3  378602.40  199572.09  52.71
977.5  378553.18  199525.13  52.71
978.6  378494.60  199455.57  52.70
979.7  378854.70  199604.57  52.69
980.9  378326.08  199532.17  52.74
982.0  378680.55  199357.52  52.65
983.2  378084.50  199143.97  52.67
984.3  377397.20  198927.22  52.71
985.4  377809.48  198765.31  52.61
986.6  377686.88  198777.64  52.63
987.7  378290.50  199046.65  52.62
988.9  377791.20  198954.27  52.66
990.0  376948.60  199126.44  52.83
993.1  386769.54  203601.57  52.64
996.9  385308.35  203322.52  52.77
1000.7  385223.36  203692.43  52.88
1004.5  385290.08  204113.72  52.98
1008.4  384959.29  204323.26  53.08
1012.2  384839.63  204619.24  53.17
1016.0  384388.80  204760.13  53.27
1019.8  383754.53  204712.20  53.34
1023.7  382452.00  204320.09  53.42
1027.5  380686.28  203625.96  53.49
1031.3  379497.20  203211.63  53.55
1035.1  378353.33  202765.28  53.59
1038.9  377818.28  202639.27  53.63
1042.7  377524.50  202647.39  53.68
1046.5  377443.67  202707.19  53.71
1050.3  377438.33  202815.64  53.73
1054.2  377090.58  202724.02  53.76
1058.0  376735.10  202584.10  53.77
1061.8  376695.33  202637.03  53.79
1065.6  376077.40  202317.88  53.80
1069.4  375250.53  201870.18  53.80
1073.2  373902.61  201136.22  53.79
1077.0  373180.73  200693.77  53.78
1080.8  373465.63  200771.30  53.76
1084.6  373689.52  200813.25  53.74
1088.4  374094.21  200945.07  53.72
1092.2  373668.75  200609.50  53.69
1096.0  372962.53  200110.10  53.65
1099.8  372275.80  199604.22  53.62
1103.6  371360.92  198961.92  53.58
1107.4  370212.89  198188.33  53.53
1111.2  369905.80  197858.02  53.49
1114.9  369412.17  197393.91  53.43
1118.7  369198.23  197036.40  53.37
1122.5  368906.20  196532.65  53.27
1126.3  368044.95  195612.93  53.15
1130.1  367662.31  194758.77  52.97
1133.9  365967.00  192920.47  52.72
1137.7  364400.30  190911.02  52.39
1141.4  362369.37  188443.06  52.00
1145.2  361416.34  186472.98  51.60
1149.0  360123.75  184450.00  51.22
1152.8  358282.70  182384.68  50.91
1156.6  356411.18  180588.39  50.67
1160.3  354585.33  179098.74  50.51
1164.1  352279.97  177560.33  50.40
1167.9  350678.13  176519.67  50.34
1171.7  349390.13  175738.50  50.30
1175.4  347891.27  174885.57  50.27
1179.2  346479.18  174037.34  50.23
1183.0  346196.00  173734.37  50.18
1186.7  346288.60  173654.91  50.15
1190.5  346021.87  173424.56  50.12
1194.3  345085.40  172903.55  50.10
1198.0  343561.90  172136.01  50.10
1201.8  341861.93  171340.16  50.12
1205.6  340829.00  170969.11  50.16
1209.3  340333.63  170908.04  50.22
1213.1  339929.03  170938.68  50.29
1216.8  339330.29  170928.15  50.37
1220.6  338184.00  170622.87  50.45
1224.3  336897.92  170226.33  50.53
1228.1  335367.80  169741.38  50.61
1231.9  333736.55  169140.71  50.68
1235.6  331978.88  168441.92  50.74
1239.4  330388.88  167831.94  50.80
1243.1  328990.13  167274.25  50.84
1246.9  327704.68  166732.69  50.88
1250.6  326655.67  166289.82  50.91
1254.3  325491.28  165759.12  50.93
1258.1  324217.13  165169.95  50.94
1261.8  322766.53  164450.60  50.95
1265.6  321672.00  163860.27  50.94
1269.3  321016.48  163461.65  50.92
1273.1  321387.86  163569.94  50.89
1276.8  321079.20  163278.40  50.85
1280.6  319853.77  162477.36  50.80
1284.3  317832.00  161215.65  50.72
1288.0  316647.53  160330.51  50.63
1291.8  316257.73  159796.35  50.53
1295.5  315584.13  159078.25  50.41
1299.2  314444.12  158047.52  50.26
1302.9  312791.00  156676.45  50.09
1306.7  311000.55  155152.87  49.89
1310.4  309245.25  153542.33  49.65
1314.1  307665.78  151916.44  49.38
1317.9  306250.21  150238.05  49.06
1321.6  304729.64  148402.33  48.70
1325.3  303038.40  146390.07  48.31
1329.0  301754.13  144509.01  47.89
1332.8  299838.00  142241.24  47.44
1336.5  298203.80  140086.93  46.98
1340.2  298131.17  138667.15  46.51
1343.9  298189.79  137331.25  46.05
1347.6  298648.50  136162.57  45.59
1351.4  300545.00  135683.56  45.15
