/*** Spectra Vista SIG Data ***/
name= 6_20220824_ACSA_2_avg.sig
comm= Averaged Ref/Tar of files: HR.082422.0016_moc.sig,HR.082422.0017_moc.sig,HR.082422.0018_moc.sig
data=
337.3  3424.13  272.23  7.95
338.8  3559.40  248.29  6.98
340.3  3701.15  250.76  6.78
341.8  3886.63  253.45  6.52
343.2  4084.80  248.64  6.09
344.7  4265.00  252.65  5.92
346.2  4452.65  243.54  5.47
347.7  4679.68  247.19  5.28
349.2  4838.40  221.76  4.58
350.6  5104.78  239.24  4.69
352.1  5358.75  231.36  4.32
353.6  5690.80  245.88  4.32
355.1  5960.48  254.01  4.26
356.6  6260.03  260.95  4.17
358.0  6539.50  253.99  3.88
359.5  6828.90  254.85  3.73
361.0  7152.08  265.05  3.71
362.5  7523.68  278.25  3.70
364.0  7885.63  284.57  3.61
365.4  8261.40  290.63  3.52
366.9  8646.63  293.62  3.40
368.4  9028.03  307.56  3.41
369.9  9431.73  322.24  3.42
371.3  9852.30  329.55  3.34
372.8  10248.30  341.36  3.33
374.3  10696.25  341.95  3.20
375.8  11157.30  351.63  3.15
377.2  11593.90  353.54  3.05
378.7  12024.30  364.81  3.03
380.2  12454.70  369.94  2.97
381.7  12999.03  384.01  2.95
383.1  13501.95  388.08  2.87
384.6  14027.00  403.34  2.88
386.1  14539.45  404.09  2.78
387.6  15038.10  416.83  2.77
389.0  15570.80  422.16  2.71
390.5  16089.30  435.42  2.71
392.0  16689.95  438.82  2.63
393.4  17288.95  455.43  2.63
394.9  17852.40  465.82  2.61
396.4  18423.00  480.04  2.61
397.9  18988.13  494.44  2.60
399.3  19576.23  507.46  2.59
400.8  20164.33  515.59  2.56
402.2  20867.50  528.41  2.53
403.7  21498.98  537.45  2.50
405.2  22088.78  550.61  2.49
406.6  22712.80  559.01  2.46
408.1  23323.20  575.12  2.47
409.6  23947.45  589.10  2.46
411.0  24659.25  606.75  2.46
412.5  25344.03  617.21  2.44
414.0  25998.50  628.72  2.42
415.4  26731.88  653.04  2.44
416.9  27428.33  671.14  2.45
418.4  28143.23  691.87  2.46
419.8  28901.60  714.13  2.47
421.3  29642.98  733.37  2.47
422.7  30467.40  754.00  2.47
424.2  31269.38  774.64  2.48
425.7  32045.80  800.41  2.50
427.1  32836.88  823.50  2.51
428.6  33666.00  851.47  2.53
430.0  34447.25  876.68  2.54
431.5  35357.33  906.02  2.56
432.9  36258.75  934.25  2.58
434.4  37187.70  957.73  2.58
435.9  38038.00  986.13  2.59
437.3  38926.25  1013.31  2.60
438.8  39788.33  1042.82  2.62
440.2  40694.50  1069.02  2.63
441.7  41700.80  1096.76  2.63
443.1  42638.50  1123.35  2.63
444.6  43636.10  1155.79  2.65
446.0  44621.03  1189.50  2.67
447.5  45612.33  1220.37  2.68
448.9  46581.90  1249.21  2.68
450.4  47617.15  1281.93  2.69
451.8  48516.00  1311.14  2.70
453.3  49475.80  1343.61  2.72
454.7  50526.13  1375.22  2.72
456.2  51445.25  1402.61  2.73
457.6  52449.53  1433.45  2.73
459.1  53446.58  1462.45  2.74
460.5  54422.88  1491.12  2.74
462.0  55520.13  1519.18  2.74
463.4  56594.70  1551.36  2.74
464.8  57622.88  1578.31  2.74
466.3  58652.55  1608.47  2.74
467.7  59678.00  1638.33  2.75
469.2  60761.78  1669.96  2.75
470.6  61777.85  1696.44  2.75
472.0  62844.88  1730.82  2.75
473.5  63901.50  1758.23  2.75
474.9  64965.75  1788.99  2.75
476.4  66153.60  1824.00  2.76
477.8  67251.00  1859.59  2.77
479.2  68295.00  1892.73  2.77
480.7  69436.58  1929.17  2.78
482.1  70617.15  1964.92  2.78
483.6  71859.85  2001.26  2.78
485.0  72997.43  2037.81  2.79
486.4  74219.55  2082.17  2.81
487.9  75348.00  2122.99  2.82
489.3  76555.28  2166.96  2.83
490.7  77659.65  2208.19  2.84
492.2  78924.30  2259.88  2.86
493.6  80062.25  2309.40  2.88
495.0  81212.63  2364.79  2.91
496.5  82429.48  2425.43  2.94
497.9  83574.13  2484.41  2.97
499.3  84792.15  2555.41  3.01
500.7  86068.75  2630.30  3.06
502.2  87249.60  2711.71  3.11
503.6  88549.00  2799.58  3.16
505.0  89643.35  2899.86  3.23
506.5  90999.23  3015.51  3.31
507.9  92226.33  3143.75  3.41
509.3  93639.60  3285.32  3.51
510.7  94930.88  3444.82  3.63
512.2  96374.55  3628.13  3.76
513.6  97895.70  3841.43  3.92
515.0  99347.40  4075.67  4.10
516.4  100770.08  4339.44  4.31
517.8  102434.50  4639.99  4.53
519.3  103789.05  4950.11  4.77
520.7  105403.10  5296.72  5.03
522.1  106727.08  5655.75  5.30
523.5  108128.10  6029.42  5.58
524.9  109619.10  6415.67  5.85
526.3  111069.00  6795.34  6.12
527.8  112592.70  7176.37  6.37
529.2  113746.60  7529.47  6.62
530.6  115311.00  7899.61  6.85
532.0  117068.00  8254.13  7.05
533.4  118428.30  8553.03  7.22
534.8  119368.85  8793.74  7.37
536.3  121105.20  9074.96  7.49
537.7  123190.20  9360.48  7.60
539.1  124692.03  9583.69  7.69
540.5  125910.45  9779.09  7.77
541.9  127699.88  10014.81  7.84
543.3  128991.80  10209.15  7.91
544.7  130324.80  10406.79  7.99
546.1  132154.28  10640.38  8.05
547.5  133436.80  10827.31  8.11
549.0  135245.00  11043.79  8.17
550.4  136786.25  11231.53  8.21
551.8  138351.13  11398.88  8.24
553.2  139914.58  11538.46  8.25
554.6  141284.00  11628.39  8.23
556.0  142861.05  11698.26  8.19
557.4  144519.03  11735.89  8.12
558.8  146214.45  11744.59  8.03
560.2  147698.50  11700.03  7.92
561.6  149421.53  11646.21  7.79
563.0  151039.03  11551.83  7.65
564.4  152658.50  11430.17  7.49
565.8  154200.63  11277.48  7.31
567.2  155993.25  11119.80  7.13
568.6  157535.25  10929.06  6.94
570.0  159005.80  10716.20  6.74
571.4  160777.50  10522.97  6.55
572.8  162580.75  10335.87  6.36
574.2  164236.80  10154.24  6.18
575.6  165825.00  9983.14  6.02
577.0  167386.90  9832.72  5.87
578.4  169157.63  9716.85  5.74
579.8  170702.10  9605.56  5.63
581.2  172479.08  9524.35  5.52
582.5  173932.20  9432.20  5.42
583.9  175477.80  9360.66  5.33
585.3  177324.75  9312.63  5.25
586.7  178811.75  9262.46  5.18
588.1  180335.13  9224.70  5.12
589.5  182035.00  9205.70  5.06
590.9  183706.00  9200.09  5.01
592.3  185564.30  9215.52  4.97
593.7  187032.30  9222.33  4.93
595.0  188681.40  9247.92  4.90
596.4  190157.80  9263.32  4.87
597.8  191666.43  9286.24  4.85
599.2  193261.20  9304.36  4.81
600.6  195051.35  9329.79  4.78
602.0  196367.48  9321.04  4.75
603.3  198195.85  9324.46  4.70
604.7  199901.15  9308.64  4.66
606.1  201411.00  9270.97  4.60
607.5  203082.20  9230.55  4.55
608.9  204820.90  9178.53  4.48
610.2  206232.08  9108.99  4.42
611.6  207870.08  9049.85  4.35
613.0  209452.75  8984.87  4.29
614.4  210844.05  8913.47  4.23
615.8  212340.38  8851.05  4.17
617.1  213899.70  8804.04  4.12
618.5  215547.20  8769.49  4.07
619.9  217099.05  8744.91  4.03
621.3  218768.40  8740.05  4.00
622.6  220377.75  8744.79  3.97
624.0  221862.00  8755.88  3.95
625.4  223353.08  8776.81  3.93
626.8  224988.40  8816.08  3.92
628.1  226306.30  8848.96  3.91
629.5  228177.20  8903.99  3.90
630.9  229767.18  8948.90  3.89
632.2  231148.58  8974.12  3.88
633.6  232763.00  8998.29  3.87
635.0  234298.40  8994.45  3.84
636.3  235850.90  8969.31  3.80
637.7  237255.63  8906.92  3.75
639.1  238945.00  8842.33  3.70
640.4  240450.70  8758.72  3.64
641.8  241671.35  8657.18  3.58
643.2  243283.43  8566.85  3.52
644.5  244659.50  8477.39  3.46
645.9  246399.75  8405.12  3.41
647.2  248165.75  8355.58  3.37
648.6  250047.00  8327.96  3.33
650.0  251510.40  8297.69  3.30
651.3  251942.35  8251.35  3.28
652.7  253204.25  8242.24  3.26
654.0  255266.30  8256.65  3.23
655.4  256810.90  8249.75  3.21
656.8  257009.40  8203.56  3.19
658.1  258348.70  8179.35  3.17
659.5  260854.13  8181.61  3.14
660.8  262665.00  8169.00  3.11
662.2  263580.80  8126.29  3.08
663.5  265224.10  8108.59  3.06
664.9  266503.90  8091.13  3.04
666.2  267265.80  8074.88  3.02
667.6  269016.25  8109.72  3.01
668.9  270142.33  8142.47  3.01
670.3  271453.50  8189.25  3.02
671.6  272934.00  8263.37  3.03
673.0  274150.88  8359.88  3.05
674.3  275454.40  8473.77  3.08
675.7  276776.35  8608.83  3.11
677.0  277933.48  8742.04  3.15
678.4  279299.03  8904.81  3.19
679.7  280422.30  9078.08  3.24
681.1  281765.30  9291.68  3.30
682.4  282946.30  9518.15  3.36
683.8  284228.10  9776.20  3.44
685.1  285257.63  10053.18  3.52
686.4  286579.80  10386.22  3.62
687.8  287870.50  10785.95  3.75
689.1  288960.75  11274.18  3.90
690.5  290326.50  11927.66  4.11
691.8  291118.68  12759.38  4.38
693.1  292502.10  13895.02  4.75
694.5  293702.50  15340.87  5.22
695.8  294953.75  17170.40  5.82
697.1  296159.50  19408.57  6.55
698.5  297256.50  22080.83  7.43
699.8  298380.33  25177.46  8.44
701.1  299559.43  28668.54  9.57
702.5  300366.00  32442.79  10.80
703.8  301342.50  36475.29  12.10
705.1  302558.10  40716.11  13.46
706.5  303628.75  45063.68  14.84
707.8  304630.50  49488.01  16.25
709.1  305562.28  53943.15  17.65
710.5  306723.18  58476.62  19.06
711.8  307606.20  62976.48  20.47
713.1  308632.00  67512.51  21.87
714.4  309568.60  72021.35  23.27
715.8  310416.00  76505.14  24.65
717.1  311782.50  81090.06  26.01
718.4  312748.80  85541.55  27.35
719.7  313908.33  89996.32  28.67
721.0  314460.00  94229.57  29.97
722.4  315249.00  98438.70  31.23
723.7  316239.30  102610.11  32.45
725.0  317309.18  106709.67  33.63
726.3  318294.63  110641.25  34.76
727.6  318865.25  114299.77  35.85
729.0  319803.75  117949.78  36.88
730.3  320600.10  121397.01  37.87
731.6  321507.20  124721.62  38.79
732.9  322335.48  127857.33  39.67
734.2  323159.38  130841.67  40.49
735.5  324221.55  133745.67  41.25
736.8  325045.50  136397.79  41.96
738.1  325924.30  138920.00  42.62
739.5  326918.53  141338.56  43.23
740.8  327646.83  143488.30  43.79
742.1  328392.63  145522.22  44.31
743.4  329100.00  147419.52  44.79
744.7  330094.60  149308.37  45.23
746.0  330994.95  151015.02  45.62
747.3  331569.75  152457.66  45.98
748.6  332303.75  153862.87  46.30
749.9  333034.00  155152.65  46.59
751.2  333726.30  156347.61  46.85
752.5  334615.40  157524.61  47.08
753.8  335246.28  158491.30  47.28
755.1  335998.00  159433.98  47.45
756.4  336610.03  160249.42  47.61
757.7  337645.18  161196.64  47.74
759.0  339508.85  162482.11  47.86
760.3  340718.40  163411.48  47.96
761.6  342342.00  164494.40  48.05
762.9  342881.50  165040.87  48.13
764.2  343270.90  165466.77  48.20
765.5  343568.83  165818.19  48.26
766.8  344025.60  166212.20  48.31
768.1  344582.40  166614.96  48.35
769.3  345210.25  167036.55  48.39
770.6  345853.30  167469.48  48.42
771.9  346608.85  167933.73  48.45
773.2  347019.60  168216.72  48.47
774.5  347633.00  168605.44  48.50
775.8  348334.90  169019.24  48.52
777.1  348925.50  169370.38  48.54
778.4  349274.75  169587.21  48.55
779.6  350071.33  170017.37  48.57
780.9  350550.00  170301.14  48.58
782.2  351021.00  170587.53  48.60
783.5  351360.00  170802.32  48.61
784.8  351929.03  171101.06  48.62
786.0  352306.50  171341.02  48.63
787.3  352708.85  171565.13  48.64
788.6  353162.03  171816.20  48.65
789.9  353620.40  172083.55  48.66
791.2  354318.28  172437.16  48.67
792.4  355008.85  172816.63  48.68
793.7  355509.60  173074.98  48.68
795.0  356143.43  173417.23  48.69
796.2  356829.85  173765.87  48.70
797.5  357598.05  174149.51  48.70
798.8  358273.48  174515.39  48.71
800.0  358961.85  174877.49  48.72
801.3  359447.70  175131.76  48.72
802.6  360075.15  175444.12  48.72
803.8  360746.20  175788.18  48.73
805.1  361275.25  176057.05  48.73
806.4  361683.30  176312.28  48.75
807.7  362319.08  176599.52  48.74
808.9  362897.15  176893.10  48.74
810.2  363424.95  177171.19  48.75
811.4  363987.70  177442.88  48.75
812.7  364609.38  177771.91  48.76
814.0  365494.30  178212.42  48.76
815.2  366105.75  178544.47  48.77
816.5  366524.25  178766.08  48.77
817.7  367053.10  179024.03  48.77
819.0  367587.00  179292.91  48.78
820.2  367796.00  179409.37  48.78
821.5  368496.45  179781.31  48.79
822.7  368855.43  179987.53  48.80
824.0  369265.50  180178.92  48.79
825.2  369712.35  180459.94  48.81
826.5  370021.43  180621.12  48.81
827.7  370656.95  180915.21  48.81
829.0  371040.88  181149.34  48.82
830.2  371418.95  181337.39  48.82
831.5  371912.40  181610.82  48.83
832.7  372261.75  181802.25  48.84
834.0  372626.90  181985.30  48.84
835.2  372980.03  182190.72  48.85
836.4  373289.95  182371.64  48.86
837.7  373709.00  182619.93  48.87
838.9  374179.55  182893.06  48.88
840.1  374583.15  183127.05  48.89
841.4  375027.90  183390.33  48.90
842.6  375411.00  183602.53  48.91
843.8  375801.80  183813.13  48.91
845.1  376397.70  184100.31  48.91
846.3  376766.90  184327.27  48.92
847.5  377214.60  184590.80  48.94
848.8  377659.80  184829.09  48.94
850.0  378030.10  185043.04  48.95
851.2  378606.15  185357.39  48.96
852.5  379048.50  185594.30  48.96
853.7  379559.25  185863.07  48.97
854.9  380075.00  186101.09  48.96
856.1  380543.80  186373.50  48.98
857.4  380769.55  186490.33  48.98
858.6  381282.10  186765.92  48.98
859.8  381701.25  187001.97  48.99
861.0  382239.00  187253.49  48.99
862.2  382809.95  187498.56  48.98
863.5  383186.38  187699.93  48.98
864.7  383763.60  187971.77  48.98
865.9  384175.60  188203.19  48.99
867.1  384541.90  188380.55  48.99
868.3  385028.40  188616.30  48.99
869.5  385588.05  188872.83  48.98
870.8  386248.50  189148.80  48.97
872.0  386779.65  189440.36  48.98
873.2  387233.25  189661.86  48.98
874.4  387767.25  189911.56  48.98
875.6  388105.38  190098.51  48.98
876.8  388652.35  190360.12  48.98
878.0  389225.55  190605.31  48.97
879.2  389777.40  190860.10  48.97
880.4  390277.88  191147.64  48.98
881.6  390905.65  191379.53  48.96
882.8  391363.20  191592.37  48.96
884.0  392011.60  191901.32  48.95
885.2  392545.20  192143.18  48.95
886.5  393161.25  192440.64  48.95
887.7  393769.35  192694.65  48.94
888.8  394490.55  193014.46  48.93
890.0  395131.30  193343.77  48.93
891.2  395695.10  193621.68  48.93
892.4  396349.28  193892.63  48.92
893.6  396962.00  194162.69  48.91
894.8  397940.25  194628.63  48.91
896.0  398885.75  195040.43  48.90
897.2  399776.00  195466.51  48.89
898.4  400606.80  195827.53  48.88
899.6  401165.25  196094.23  48.88
900.8  401563.83  196269.22  48.88
902.0  401918.10  196396.87  48.86
903.2  402302.18  196552.21  48.86
904.3  402635.70  196730.88  48.86
905.5  403395.98  197030.58  48.84
906.7  404060.00  197332.18  48.84
907.9  404637.10  197593.01  48.83
909.1  404858.93  197703.41  48.83
910.2  405013.50  197792.31  48.84
911.4  405346.50  197903.66  48.82
912.6  405612.35  198013.05  48.82
913.8  406026.38  198150.49  48.80
915.0  406462.35  198332.54  48.79
916.2  406740.75  198413.24  48.78
917.3  406751.85  198399.66  48.78
918.5  407082.90  198453.30  48.75
919.7  407278.80  198582.87  48.76
920.8  407455.58  198594.92  48.74
922.0  407753.50  198644.60  48.72
923.2  407998.50  198736.20  48.71
924.4  408206.25  198801.39  48.70
925.5  408553.60  198897.30  48.68
926.7  409043.38  199129.74  48.68
927.9  410085.60  199503.93  48.65
929.0  411578.55  200149.22  48.63
930.2  413975.80  201194.04  48.60
931.4  416465.55  202388.34  48.60
932.5  419240.90  203664.09  48.58
933.7  420777.33  204278.93  48.55
934.9  421360.63  204536.00  48.54
936.0  421144.75  204234.02  48.49
937.2  419084.85  203128.48  48.47
938.3  417373.55  202206.93  48.45
939.5  415893.60  201428.57  48.43
940.7  415998.00  201443.88  48.42
941.8  417686.93  202139.72  48.40
943.0  419086.50  202702.73  48.37
944.2  420095.00  202953.72  48.31
945.3  419776.50  202663.50  48.28
946.5  418834.80  202190.20  48.27
947.6  419158.60  202167.43  48.23
948.8  419094.00  202004.05  48.20
949.9  419475.00  201908.24  48.13
951.1  419097.25  201540.99  48.09
952.2  418812.00  201217.83  48.04
953.4  418645.00  200866.70  47.98
954.5  418672.80  200655.67  47.93
955.7  418761.00  200438.16  47.86
956.8  418368.00  200181.62  47.85
958.0  418192.00  199780.34  47.77
959.1  418042.70  199515.10  47.73
960.3  417634.60  199175.87  47.69
961.4  417499.00  198992.22  47.66
962.6  417644.50  198933.13  47.63
963.7  417543.15  198811.38  47.61
964.9  417454.58  198701.83  47.60
966.0  417652.20  198568.49  47.54
967.2  417621.15  198595.52  47.55
968.3  417064.95  198380.11  47.57
969.5  416846.33  198269.26  47.56
970.6  416918.90  198219.34  47.54
971.8  417099.03  198350.53  47.55
972.9  417132.60  198259.90  47.53
974.0  417477.90  198426.54  47.53
975.2  417195.88  198378.81  47.55
976.3  417323.10  198342.86  47.53
977.5  417127.03  198358.19  47.55
978.6  416904.20  198281.94  47.56
979.7  417079.95  198471.97  47.59
980.9  417105.63  198424.18  47.57
982.0  416116.65  198425.04  47.68
983.2  415892.95  198326.49  47.69
984.3  416007.00  198140.00  47.63
985.4  415995.43  198137.14  47.63
986.6  415762.63  198169.37  47.66
987.7  416771.78  198785.76  47.70
988.9  416397.60  198442.15  47.66
990.0  416972.10  198766.06  47.67
993.1  368985.23  174380.74  47.26
996.9  369432.93  175075.33  47.39
1000.7  370278.53  175923.74  47.51
1004.5  370721.50  176484.69  47.61
1008.4  370359.00  176725.14  47.72
1012.2  370222.46  177060.26  47.83
1016.0  370110.00  177421.28  47.94
1019.8  370090.88  177771.83  48.03
1023.7  369931.25  177978.94  48.11
1027.5  369526.57  178058.22  48.19
1031.3  369748.90  178288.96  48.22
1035.1  369568.50  178321.85  48.25
1038.9  369515.67  178382.02  48.27
1042.7  369355.50  178375.02  48.29
1046.5  369176.83  178332.00  48.31
1050.3  369214.65  178382.18  48.31
1054.2  368897.67  178292.00  48.33
1058.0  368377.39  178043.07  48.33
1061.8  368207.69  177987.69  48.34
1065.6  367938.37  177801.62  48.32
1069.4  367985.33  177786.45  48.31
1073.2  367526.07  177530.55  48.30
1077.0  366965.55  177229.00  48.30
1080.8  366396.88  176869.79  48.27
1084.6  365289.28  176253.82  48.25
1088.4  364618.55  175848.40  48.23
1092.2  363811.50  175307.79  48.19
1096.0  363254.93  174877.13  48.14
1099.8  362739.00  174439.91  48.09
1103.6  362087.40  173947.48  48.04
1107.4  361163.68  173303.21  47.98
1111.2  360931.00  172978.59  47.93
1114.9  360255.00  172411.67  47.86
1118.7  359642.25  171805.31  47.77
1122.5  358911.80  171106.13  47.67
1126.3  357808.15  170144.91  47.55
1130.1  357290.38  169313.85  47.39
1133.9  355710.60  167750.60  47.16
1137.7  354300.20  166106.44  46.88
1141.4  352550.36  164124.92  46.55
1145.2  351819.00  162474.65  46.18
1149.0  350702.92  160717.29  45.83
1152.8  349027.35  158870.07  45.52
1156.6  347389.35  157272.50  45.27
1160.3  345679.33  155900.19  45.10
1164.1  343337.87  154432.11  44.98
1167.9  341550.00  153401.79  44.91
1171.7  340247.25  152691.75  44.88
1175.4  339033.47  152095.72  44.86
1179.2  337975.90  151543.02  44.84
1183.0  337652.33  151294.24  44.81
1186.7  337097.60  150927.67  44.77
1190.5  336087.00  150349.20  44.74
1194.3  334904.67  149729.83  44.71
1198.0  333701.50  149154.85  44.70
1201.8  332176.18  148504.11  44.71
1205.6  330935.33  148034.91  44.73
1209.3  330007.82  147763.29  44.78
1213.1  329113.20  147479.80  44.81
1216.8  328246.69  147244.55  44.86
1220.6  327219.20  146936.53  44.90
1224.3  326052.92  146559.56  44.95
1228.1  324814.20  146206.72  45.01
1231.9  323577.20  145804.88  45.06
1235.6  322114.58  145275.22  45.10
1239.4  320741.13  144812.04  45.15
1243.1  319481.64  144343.06  45.18
1246.9  318281.40  143870.10  45.20
1250.6  317294.47  143464.10  45.21
1254.3  316185.47  143006.80  45.23
1258.1  315179.78  142559.10  45.23
1261.8  313841.07  141974.06  45.24
1265.6  312393.00  141288.73  45.23
1269.3  310929.18  140559.71  45.21
1273.1  310908.00  140421.09  45.16
1276.8  311206.40  140386.34  45.11
1280.6  311032.13  140161.79  45.06
1284.3  309615.60  139362.51  45.01
1288.0  308088.18  138481.09  44.95
1291.8  306788.84  137601.72  44.85
1295.5  305436.27  136665.47  44.74
1299.2  304230.97  135718.54  44.61
1302.9  302817.28  134617.42  44.45
1306.7  301302.63  133401.22  44.27
1310.4  299815.35  132113.25  44.06
1314.1  298474.92  130815.51  43.83
1317.9  297216.46  129475.06  43.56
1321.6  295812.13  127965.92  43.26
1325.3  294177.45  126250.05  42.92
1329.0  292843.95  124611.57  42.55
1332.8  290782.80  122555.40  42.15
1336.5  288982.73  120591.40  41.73
1340.2  288621.67  119220.83  41.31
1343.9  288197.92  117801.58  40.88
1347.6  287586.30  116314.22  40.44
1351.4  287788.50  115198.22  40.03
1355.1  288088.53  114157.42  39.63
1358.8  288192.00  112971.43  39.20
