/*** Spectra Vista SIG Data ***/
name= 46_20221021_QUPH_05_avg.sig
comm= Averaged Ref/Tar of files: HR.102122.0054_moc.sig,HR.102122.0055_moc.sig
data=
337.3  6217.05  446.23  7.18
338.8  6445.40  447.33  6.94
340.3  6805.80  482.08  7.08
341.8  6985.83  485.38  6.95
343.2  7461.30  457.45  6.13
344.7  7814.63  459.43  5.88
346.2  8225.00  440.04  5.35
347.7  8627.35  459.07  5.32
349.2  8920.80  438.48  4.92
350.6  9350.40  456.57  4.88
352.1  9763.50  470.49  4.82
353.6  10388.80  443.76  4.27
355.1  10843.58  445.72  4.11
356.6  11518.28  462.04  4.01
358.0  12095.08  462.28  3.82
359.5  12560.85  472.56  3.76
361.0  13164.60  515.91  3.92
362.5  13784.33  539.26  3.91
364.0  14483.20  543.12  3.75
365.4  15159.05  553.25  3.65
366.9  15819.10  576.97  3.65
368.4  16462.60  593.30  3.60
369.9  17172.00  636.00  3.70
371.3  18016.08  677.58  3.76
372.8  18805.90  716.91  3.81
374.3  19619.80  702.21  3.58
375.8  20443.28  715.78  3.50
377.2  21165.30  702.88  3.32
378.7  21965.48  713.75  3.25
380.2  22777.20  735.52  3.23
381.7  23632.00  759.60  3.21
383.1  24569.85  793.51  3.23
384.6  25446.30  793.89  3.12
386.1  26362.50  806.70  3.06
387.6  27233.85  828.06  3.04
389.0  28204.65  859.77  3.05
390.5  29186.03  874.02  2.99
392.0  30170.25  903.04  2.99
393.4  31287.38  922.18  2.95
394.9  32219.70  936.56  2.91
396.4  33345.40  989.23  2.97
397.9  34418.70  999.50  2.90
399.3  35316.70  1038.29  2.94
400.8  36457.58  1078.15  2.96
402.2  37610.10  1114.91  2.96
403.7  38780.70  1136.19  2.93
405.2  39922.60  1187.08  2.97
406.6  41177.70  1207.25  2.93
408.1  42219.98  1252.51  2.97
409.6  43331.08  1291.81  2.98
411.0  44514.80  1320.50  2.97
412.5  45862.05  1378.70  3.01
414.0  47193.30  1424.14  3.02
415.4  48452.40  1462.86  3.02
416.9  49720.63  1510.38  3.04
418.4  51000.30  1551.08  3.04
419.8  52318.00  1604.89  3.07
421.3  53707.50  1635.48  3.05
422.7  55127.80  1693.38  3.07
424.2  56602.43  1735.44  3.07
425.7  58031.88  1794.72  3.09
427.1  59496.60  1831.26  3.08
428.6  60950.75  1878.07  3.08
430.0  62410.43  1925.87  3.09
431.5  64039.95  1977.03  3.09
432.9  65659.75  2027.40  3.09
434.4  67316.30  2072.45  3.08
435.9  68942.40  2121.93  3.08
437.3  70582.88  2173.93  3.08
438.8  72177.43  2238.63  3.10
440.2  73818.33  2297.21  3.11
441.7  75649.15  2364.36  3.13
443.1  77411.70  2423.93  3.13
444.6  79165.95  2488.18  3.14
446.0  80942.10  2552.64  3.15
447.5  82875.00  2633.75  3.18
448.9  84570.53  2709.35  3.20
450.4  86400.00  2788.75  3.23
451.8  88163.63  2869.28  3.25
453.3  89979.00  2942.01  3.27
454.7  91733.40  3020.49  3.29
456.2  93487.45  3086.44  3.30
457.6  95366.70  3161.37  3.31
459.1  97163.33  3227.20  3.32
460.5  98961.40  3303.02  3.34
462.0  100954.80  3378.65  3.35
463.4  102898.95  3461.68  3.36
464.8  104824.13  3538.32  3.38
466.3  106702.58  3614.52  3.39
467.7  108664.00  3697.84  3.40
469.2  110500.50  3776.57  3.42
470.6  112514.50  3857.18  3.43
472.0  114542.63  3937.66  3.44
473.5  116491.53  4012.16  3.44
474.9  118630.30  4096.69  3.45
476.4  120652.00  4189.46  3.47
477.8  122668.00  4282.60  3.49
479.2  124683.23  4366.30  3.50
480.7  126782.70  4470.41  3.53
482.1  128957.65  4572.72  3.55
483.6  131102.10  4667.67  3.56
485.0  133300.88  4785.13  3.59
486.4  135349.58  4901.90  3.62
487.9  137521.00  5034.15  3.66
489.3  139623.60  5171.93  3.70
490.7  141766.35  5334.38  3.76
492.2  143946.38  5507.59  3.83
493.6  146169.50  5699.62  3.90
495.0  148415.48  5919.37  3.99
496.5  150566.85  6167.55  4.10
497.9  152799.38  6442.55  4.22
499.3  155041.00  6768.86  4.37
500.7  157291.40  7130.19  4.53
502.2  159612.38  7527.61  4.72
503.6  161868.00  7982.01  4.93
505.0  164086.73  8501.75  5.18
506.5  166475.05  9088.90  5.46
507.9  168838.40  9756.67  5.78
509.3  171107.10  10505.60  6.14
510.7  173693.33  11336.86  6.53
512.2  176298.45  12234.87  6.94
513.6  179075.78  13230.37  7.39
515.0  181747.13  14300.74  7.87
516.4  184566.40  15452.23  8.37
517.8  187316.50  16677.00  8.90
519.3  190209.60  17977.84  9.45
520.7  192870.70  19289.78  10.00
522.1  195460.85  20621.04  10.55
523.5  197968.50  21965.65  11.10
524.9  200779.73  23311.67  11.61
526.3  203383.58  24612.76  12.10
527.8  206128.63  25912.78  12.57
529.2  208656.00  27182.88  13.03
530.6  211370.40  28466.37  13.47
532.0  214154.53  29688.69  13.86
533.4  216678.90  30806.01  14.22
534.8  219177.75  31870.29  14.54
536.3  222056.83  32919.70  14.82
537.7  224943.00  33959.70  15.10
539.1  227783.73  34969.47  15.35
540.5  230616.75  35944.50  15.59
541.9  233552.50  36939.85  15.82
543.3  236112.40  37864.29  16.04
544.7  239074.00  38859.70  16.25
546.1  241868.20  39815.16  16.46
547.5  244684.80  40770.00  16.66
549.0  247616.00  41721.60  16.85
550.4  250470.68  42645.33  17.03
551.8  253437.50  43544.62  17.18
553.2  256283.03  44366.85  17.31
554.6  259066.05  45113.51  17.41
556.0  261943.50  45799.22  17.48
557.4  265008.30  46475.46  17.54
558.8  267891.63  47062.85  17.57
560.2  271040.00  47661.00  17.58
561.6  273963.53  48164.95  17.58
563.0  276719.95  48580.65  17.56
564.4  279855.80  49049.88  17.53
565.8  282864.40  49461.40  17.49
567.2  286017.95  49861.90  17.43
568.6  288995.18  50186.52  17.37
570.0  291841.88  50382.07  17.26
571.4  295211.90  50604.72  17.14
572.8  298316.00  50765.08  17.02
574.2  301134.75  50878.65  16.90
575.6  304198.88  51050.14  16.78
577.0  307148.05  51248.19  16.69
578.4  310537.50  51547.35  16.60
579.8  313575.38  51836.52  16.53
581.2  316617.50  52155.12  16.47
582.5  319500.00  52483.50  16.43
583.9  322498.90  52860.36  16.39
585.3  325340.30  53253.95  16.37
586.7  328297.20  53675.16  16.35
588.1  331256.10  54135.22  16.34
589.5  334574.85  54703.12  16.35
590.9  337481.13  55245.41  16.37
592.3  340372.35  55810.67  16.40
593.7  343298.73  56434.00  16.44
595.0  346195.80  57074.46  16.49
596.4  349468.88  57787.12  16.54
597.8  352102.80  58390.13  16.58
599.2  355178.85  59057.90  16.63
600.6  358305.75  59693.33  16.66
602.0  361225.80  60231.39  16.67
603.3  364078.00  60687.90  16.67
604.7  367045.10  61074.09  16.64
606.1  370041.08  61370.38  16.58
607.5  373321.53  61626.52  16.51
608.9  376329.80  61746.50  16.41
610.2  379462.05  61840.23  16.30
611.6  382332.50  61842.00  16.17
613.0  385127.98  61794.87  16.05
614.4  387850.33  61732.40  15.92
615.8  391067.70  61746.94  15.79
617.1  393738.75  61699.85  15.67
618.5  396955.13  61800.22  15.57
619.9  399610.20  61905.49  15.49
621.3  402520.30  62101.98  15.43
622.6  405405.00  62380.02  15.39
624.0  408114.00  62716.13  15.37
625.4  411155.33  63187.58  15.37
626.8  414074.70  63719.67  15.39
628.1  416818.15  64264.01  15.42
629.5  419472.03  64838.73  15.46
630.9  422258.10  65396.32  15.49
632.2  425168.90  65920.40  15.50
633.6  427545.63  66231.01  15.49
635.0  430389.70  66428.14  15.43
636.3  433365.03  66436.26  15.33
637.7  436024.30  66143.46  15.17
639.1  438934.65  65638.90  14.95
640.4  441628.38  64890.95  14.69
641.8  444394.80  63972.81  14.40
643.2  446938.80  62891.37  14.07
644.5  449750.00  61762.75  13.73
645.9  452303.25  60570.46  13.39
647.2  454554.10  59412.43  13.07
648.6  457141.60  58500.70  12.80
650.0  459871.20  57798.54  12.57
651.3  462749.05  57246.18  12.37
652.7  466616.25  56821.43  12.18
654.0  469326.55  56191.59  11.97
655.4  471568.65  55534.16  11.78
656.8  473355.23  54762.88  11.57
658.1  475969.73  53815.13  11.31
659.5  479001.60  52637.04  10.99
660.8  481772.55  51244.57  10.64
662.2  484365.70  49715.74  10.26
663.5  487123.85  48190.56  9.89
664.9  489065.38  46656.97  9.54
666.2  491272.93  45291.29  9.22
667.6  493805.25  44124.42  8.94
668.9  496368.00  43184.88  8.70
670.3  499322.25  42403.38  8.49
671.6  501422.40  41846.68  8.35
673.0  503712.00  41528.68  8.24
674.3  506124.85  41441.60  8.19
675.7  508615.20  41572.44  8.17
677.0  510880.28  41878.76  8.20
678.4  513025.40  42413.11  8.27
679.7  515356.13  43278.52  8.40
681.1  517804.05  44564.00  8.61
682.4  519941.25  46404.87  8.93
683.8  522271.88  48983.38  9.38
685.1  524512.20  52476.69  10.00
686.4  526737.90  56952.58  10.81
687.8  529041.98  62508.21  11.82
689.1  531444.20  69169.73  13.02
690.5  533396.80  76832.20  14.40
691.8  535974.45  85698.06  15.99
693.1  538443.00  95428.13  17.72
694.5  540743.80  105760.56  19.56
695.8  543147.30  116408.06  21.43
697.1  545376.00  127108.01  23.31
698.5  547668.25  137800.47  25.16
699.8  549970.40  148281.42  26.96
701.1  551920.95  158316.69  28.68
702.5  553942.13  167984.87  30.33
703.8  556336.33  177236.08  31.86
705.1  558188.40  185778.01  33.28
706.5  560405.75  193943.04  34.61
707.8  562207.68  201542.01  35.85
709.1  564444.98  208845.50  37.00
710.5  566639.25  215772.53  38.08
711.8  568503.00  222260.55  39.10
713.1  570438.00  228510.60  40.06
714.4  572490.65  234537.88  40.97
715.8  574706.65  240427.42  41.83
717.1  576958.65  246088.77  42.65
718.4  579149.33  251538.10  43.43
719.7  581330.48  256713.40  44.16
721.0  582973.85  261515.61  44.86
722.4  584822.70  266153.70  45.51
723.7  586713.00  270631.24  46.13
725.0  588385.50  274795.38  46.70
726.3  590600.40  278999.24  47.24
727.6  592330.50  282786.27  47.74
729.0  594163.15  286406.91  48.20
730.3  596053.85  289887.14  48.63
731.6  597529.20  292952.30  49.03
732.9  599336.73  296061.14  49.40
734.2  600946.50  298871.52  49.73
735.5  602762.60  301591.29  50.03
736.8  604722.48  304303.50  50.32
738.1  606542.63  306750.87  50.57
739.5  608237.25  309036.64  50.81
740.8  610101.80  311290.36  51.02
742.1  611629.80  313257.94  51.22
743.4  613281.90  315193.62  51.39
744.7  615097.00  317105.95  51.55
746.0  616513.18  318723.36  51.70
747.3  618069.20  320289.17  51.82
748.6  619603.25  321812.55  51.94
749.9  621275.50  323321.71  52.04
751.2  622455.73  324527.24  52.14
752.5  623883.03  325837.30  52.23
753.8  625149.90  327003.64  52.31
755.1  626656.65  328254.16  52.38
756.4  627812.58  329260.82  52.45
757.7  629730.75  330682.42  52.51
759.0  633239.45  332855.00  52.56
760.3  635920.80  334526.00  52.60
761.6  638625.58  336229.96  52.65
762.9  639958.00  337208.44  52.69
764.2  640689.60  337801.91  52.72
765.5  641559.63  338457.70  52.76
766.8  641998.85  338900.35  52.79
768.1  643028.40  339630.17  52.82
769.3  644276.00  340417.71  52.84
770.6  645635.10  341297.45  52.86
771.9  646690.65  342024.01  52.89
773.2  648060.08  342872.74  52.91
774.5  648908.10  343496.64  52.93
775.8  649959.58  344150.18  52.95
777.1  651054.43  344884.35  52.97
778.4  652257.38  345675.09  53.00
779.6  653527.80  346423.86  53.01
780.9  654137.78  346891.51  53.03
782.2  655028.50  347493.81  53.05
783.5  655875.75  348082.59  53.07
784.8  656638.50  348626.38  53.09
786.0  657300.28  349139.28  53.12
787.3  658133.93  349669.50  53.13
788.6  658991.88  350216.92  53.14
789.9  659710.50  350697.18  53.16
791.2  660975.20  351491.06  53.18
792.4  662018.50  352167.48  53.20
793.7  663440.63  353074.91  53.22
795.0  664428.90  353715.17  53.24
796.2  665725.10  354521.79  53.25
797.5  666807.50  355234.41  53.27
798.8  668162.25  356055.97  53.29
800.0  669270.00  356706.00  53.30
801.3  670335.75  357419.08  53.32
802.6  671328.00  358034.40  53.33
803.8  672391.65  358715.91  53.35
805.1  673370.63  359350.17  53.37
806.4  674248.08  359968.11  53.39
807.7  675338.20  360602.34  53.40
808.9  676481.00  361293.66  53.41
810.2  677388.60  361860.56  53.42
811.4  678310.40  362539.10  53.45
812.7  679603.35  363305.53  53.46
814.0  680837.85  364047.34  53.47
815.2  682163.70  364892.76  53.49
816.5  683287.50  365571.28  53.50
817.7  684110.00  366099.95  53.51
819.0  684822.60  366545.34  53.52
820.2  685649.10  367075.86  53.54
821.5  686683.80  367728.35  53.55
822.7  687659.00  368356.30  53.57
824.0  688467.00  368971.33  53.59
825.2  689208.00  369390.75  53.60
826.5  689965.75  369864.45  53.61
827.7  690977.75  370490.74  53.62
829.0  691907.03  371052.29  53.63
830.2  692903.60  371624.83  53.63
831.5  693795.60  372169.39  53.64
832.7  694723.05  372770.15  53.66
834.0  695332.35  373183.10  53.67
835.2  696373.75  373774.08  53.67
836.4  697160.40  374259.52  53.68
837.7  698000.63  374773.22  53.69
838.9  699162.75  375483.54  53.70
840.1  700002.60  376024.77  53.72
841.4  701088.90  376609.28  53.72
842.6  701943.20  377168.96  53.73
843.8  702877.50  377777.86  53.75
845.1  703720.05  378318.36  53.76
846.3  704662.35  378938.44  53.78
847.5  705627.00  379472.93  53.78
848.8  706547.45  380082.01  53.79
850.0  707764.60  380796.42  53.80
851.2  708603.55  381358.58  53.82
852.5  709853.50  382043.54  53.82
853.7  710634.60  382572.05  53.84
854.9  711911.85  383248.71  53.83
856.1  712837.10  383848.09  53.85
857.4  713676.83  384518.72  53.88
858.6  714715.40  385128.80  53.89
859.8  716019.50  385778.68  53.88
861.0  716982.00  386364.37  53.89
862.2  718132.80  387009.42  53.89
863.5  719089.60  387627.13  53.91
864.7  720043.75  388175.32  53.91
865.9  721205.38  388841.78  53.92
867.1  722037.50  389328.91  53.92
868.3  723232.70  390042.84  53.93
869.5  724408.45  390679.73  53.93
870.8  725493.60  391370.74  53.95
872.0  726370.23  391947.17  53.96
873.2  727372.88  392541.22  53.97
874.4  728427.15  393042.26  53.96
875.6  729575.48  393766.65  53.97
876.8  731108.40  394539.26  53.96
878.0  732141.90  395150.83  53.97
879.2  733139.45  395721.41  53.98
880.4  734218.00  396325.00  53.98
881.6  735234.10  396949.18  53.99
882.8  736486.55  397746.95  54.01
884.0  737558.25  398204.09  53.99
885.2  738994.25  398971.52  53.99
886.5  740202.40  399659.86  53.99
887.7  741286.28  400246.28  53.99
888.8  742674.85  400968.21  53.99
890.0  743452.50  401558.07  54.01
891.2  744713.78  402115.65  54.00
892.4  746064.83  402910.90  54.00
893.6  747919.23  403849.54  54.00
894.8  749312.18  404702.48  54.01
896.0  751004.70  405530.70  54.00
897.2  752783.63  406533.23  54.00
898.4  754504.80  407542.59  54.01
899.6  756012.60  408286.12  54.01
900.8  756449.85  408457.73  54.00
902.0  757179.70  408811.00  53.99
903.2  757430.50  408850.40  53.98
904.3  758160.00  409386.66  54.00
905.5  759577.50  410038.20  53.98
906.7  760794.68  410745.42  53.99
907.9  761793.48  411320.28  53.99
909.1  762829.38  411811.40  53.98
910.2  763323.75  411960.94  53.97
911.4  763207.43  412062.65  53.99
912.6  763632.50  412286.38  53.99
913.8  764723.40  412859.60  53.99
915.0  765159.20  413031.34  53.98
916.2  765502.35  413209.37  53.98
917.3  765918.20  413541.93  53.99
918.5  766332.60  413671.44  53.98
919.7  766441.75  413634.19  53.97
920.8  766760.88  413731.95  53.96
922.0  766752.80  413704.60  53.96
923.2  767043.30  413990.62  53.97
924.4  767634.38  414176.78  53.95
925.5  768563.40  414572.47  53.94
926.7  769476.53  414842.65  53.91
927.9  770673.95  415415.23  53.90
929.0  774009.00  417096.68  53.89
930.2  778118.40  419154.25  53.87
931.4  782992.55  421847.20  53.88
932.5  787695.15  424141.14  53.85
933.7  790579.05  425469.77  53.82
934.9  792216.25  426249.25  53.80
936.0  790814.48  425493.64  53.80
937.2  787584.60  423674.77  53.79
938.3  783649.75  421215.93  53.75
939.5  781747.20  419765.00  53.70
940.7  781496.10  419468.38  53.68
941.8  784531.15  420889.89  53.65
943.0  786264.75  421890.28  53.66
944.2  788364.00  422675.10  53.61
945.3  787739.40  422058.96  53.58
946.5  785986.25  420873.25  53.55
947.6  786934.00  420814.49  53.48
948.8  785542.43  419811.93  53.44
949.9  786109.63  419727.10  53.39
951.1  785814.03  419167.95  53.34
952.2  785538.68  418605.65  53.29
953.4  785196.75  418112.07  53.25
954.5  783546.75  416687.12  53.18
955.7  783186.70  416073.31  53.13
956.8  783706.75  415714.84  53.04
958.0  782842.95  414853.36  52.99
959.1  782006.40  414023.40  52.94
960.3  781162.50  413405.63  52.92
961.4  782128.80  413309.73  52.84
962.6  781488.00  412837.92  52.83
963.7  781824.40  412582.87  52.77
964.9  782391.95  412602.95  52.74
966.0  782208.35  412540.94  52.74
967.2  782497.80  412424.88  52.71
968.3  783373.10  413138.67  52.74
969.5  784070.60  413308.32  52.71
970.6  784369.00  413081.50  52.66
971.8  783888.70  412815.69  52.66
972.9  784273.00  412851.95  52.64
974.0  785230.18  413287.75  52.63
975.2  784586.25  412530.47  52.58
976.3  785754.78  412976.40  52.56
977.5  784666.05  412295.18  52.54
978.6  784327.88  412036.29  52.53
979.7  783921.60  411278.56  52.46
980.9  783757.13  411220.41  52.47
982.0  784663.80  411118.94  52.39
983.2  784310.80  411087.04  52.41
984.3  782189.45  409902.68  52.40
985.4  782505.50  409256.26  52.30
986.6  781890.63  409147.73  52.33
987.7  780204.13  408779.28  52.39
988.9  781874.83  409466.59  52.37
990.0  782734.85  408531.37  52.19
993.1  863881.20  452860.80  52.42
996.9  863312.70  453476.00  52.53
1000.7  862720.43  454112.92  52.64
1004.5  861612.20  454471.58  52.75
1008.4  862469.34  455816.24  52.85
1012.2  863626.75  457170.29  52.94
1016.0  863285.68  457709.06  53.02
1019.8  861791.29  457562.57  53.09
1023.7  860321.04  457386.23  53.16
1027.5  857833.60  456707.98  53.24
1031.3  856106.62  456352.86  53.31
1035.1  854870.70  456229.88  53.37
1038.9  854394.98  456433.23  53.42
1042.7  854023.18  456704.33  53.48
1046.5  853343.75  456690.21  53.52
1050.3  851744.96  456157.53  53.56
1054.2  849719.48  455391.57  53.59
1058.0  848844.00  455088.00  53.61
1061.8  847697.17  454658.00  53.63
1065.6  845725.13  453702.27  53.65
1069.4  843521.70  452582.60  53.65
1073.2  841540.38  451428.79  53.64
1077.0  840027.47  450519.91  53.63
1080.8  839573.17  450051.56  53.60
1084.6  839234.00  449712.39  53.59
1088.4  838646.57  449279.74  53.57
1092.2  837483.03  448432.29  53.55
1096.0  836072.90  447451.32  53.52
1099.8  834569.13  446286.96  53.48
1103.6  832697.73  444951.39  53.43
1107.4  831193.17  443739.18  53.39
1111.2  829816.55  442560.55  53.33
1114.9  829020.00  441611.00  53.27
1118.7  828717.58  440716.25  53.18
1122.5  828853.13  439810.30  53.06
1126.3  826468.65  437383.80  52.92
1130.1  825937.85  435374.88  52.71
1133.9  822481.02  431277.84  52.44
1137.7  819835.20  427007.14  52.08
1141.4  816007.00  421698.33  51.68
1145.2  815005.28  417548.74  51.23
1149.0  812953.50  413022.90  50.81
1152.8  809459.10  408204.42  50.43
1156.6  805849.16  403980.82  50.13
1160.3  802573.95  400580.50  49.91
1164.1  797871.07  397051.78  49.76
1167.9  794775.71  394736.61  49.67
1171.7  792251.00  392911.50  49.59
1175.4  789843.06  391242.44  49.53
1179.2  787833.75  389807.75  49.48
1183.0  788137.38  389408.50  49.41
1186.7  788256.00  389029.67  49.35
1190.5  787013.79  388043.37  49.31
1194.3  784230.88  386466.78  49.28
1198.0  781055.85  384798.87  49.27
1201.8  778572.67  383614.00  49.27
1205.6  777012.67  383019.82  49.29
1209.3  775960.50  382854.75  49.34
1213.1  774814.25  382791.02  49.40
1216.8  772950.93  382582.32  49.50
1220.6  770736.17  382160.00  49.58
1224.3  768395.83  381684.72  49.67
1228.1  766135.32  381353.12  49.78
1231.9  763649.25  380757.65  49.86
1235.6  761088.90  380026.35  49.93
1239.4  758634.07  379345.56  50.00
1243.1  756450.90  378627.30  50.05
1246.9  754427.03  377946.62  50.10
1250.6  752293.87  377124.76  50.13
1254.3  750271.20  376339.20  50.16
1258.1  748144.67  375380.45  50.17
1261.8  745572.33  374172.09  50.19
1265.6  743288.39  372962.30  50.18
1269.3  741185.33  371818.85  50.17
1273.1  741842.18  371964.06  50.14
1276.8  741900.13  371683.45  50.10
1280.6  741076.63  370867.15  50.04
1284.3  738357.95  368943.93  49.97
1288.0  736468.53  367295.36  49.87
1291.8  735021.00  365740.20  49.76
1295.5  733401.58  364002.85  49.63
1299.2  731107.65  361780.90  49.48
1302.9  728233.64  359052.31  49.30
1306.7  725115.83  355946.85  49.09
1310.4  722026.12  352519.13  48.82
1314.1  719518.13  349136.88  48.52
1317.9  716967.77  345415.27  48.18
1321.6  714152.08  341280.84  47.79
1325.3  711278.55  336845.48  47.36
1329.0  708641.27  332287.51  46.89
