/*** Spectra Vista SIG Data ***/
name= 6_20220926_BENI_QUPA_26_avg.sig
comm= Averaged Ref/Tar of files: HR.092622.0015_moc.sig,HR.092622.0016_moc.sig,HR.092622.0017_moc.sig
data=
337.3  6116.78  420.20  6.87
338.8  6253.00  403.12  6.45
340.3  6616.75  383.50  5.80
341.8  6895.10  377.59  5.48
343.2  7283.65  363.76  4.99
344.7  7642.88  368.86  4.83
346.2  7978.25  368.95  4.62
347.7  8310.75  349.77  4.21
349.2  8618.40  341.28  3.96
350.6  8985.15  336.73  3.75
352.1  9409.75  344.99  3.67
353.6  9976.00  333.52  3.34
355.1  10444.43  335.79  3.22
356.6  11062.75  345.21  3.12
358.0  11588.48  350.40  3.02
359.5  12012.08  357.14  2.97
361.0  12690.20  368.79  2.91
362.5  13265.25  381.20  2.87
364.0  13974.03  377.71  2.70
365.4  14661.13  387.28  2.64
366.9  15277.35  398.83  2.61
368.4  15928.10  414.36  2.60
369.9  16642.00  421.48  2.53
371.3  17543.35  445.22  2.54
372.8  18286.40  464.09  2.54
374.3  19093.80  471.40  2.47
375.8  19915.03  485.49  2.44
377.2  20638.80  485.88  2.35
378.7  21491.40  489.63  2.28
380.2  22302.68  496.62  2.23
381.7  23210.00  510.92  2.20
383.1  24200.78  517.21  2.14
384.6  25130.85  531.26  2.11
386.1  26046.15  555.37  2.13
387.6  26970.98  565.81  2.10
389.0  27994.95  576.18  2.06
390.5  28977.93  599.03  2.07
392.0  30066.75  609.66  2.03
393.4  31133.25  620.42  1.99
394.9  32117.90  646.19  2.01
396.4  33294.80  668.88  2.01
397.9  34368.60  678.50  1.97
399.3  35316.70  698.54  1.98
400.8  36506.25  714.83  1.96
402.2  37705.80  738.71  1.96
403.7  38921.55  758.80  1.95
405.2  40060.90  787.21  1.97
406.6  41313.60  803.32  1.94
408.1  42352.05  823.90  1.95
409.6  43544.95  846.54  1.94
411.0  44805.48  859.77  1.92
412.5  46145.90  895.58  1.94
414.0  47471.38  922.76  1.94
415.4  48762.00  959.76  1.97
416.9  50058.35  983.51  1.96
418.4  51399.88  1004.30  1.95
419.8  52742.20  1029.19  1.95
421.3  54227.25  1057.65  1.95
422.7  55668.60  1088.04  1.95
424.2  57159.60  1129.02  1.98
425.7  58537.88  1165.91  1.99
427.1  60049.20  1197.88  1.99
428.6  61521.23  1230.45  2.00
430.0  63057.78  1257.99  1.99
431.5  64705.23  1296.12  2.00
432.9  66312.38  1333.63  2.01
434.4  68009.43  1377.28  2.03
435.9  69674.10  1418.75  2.04
437.3  71355.00  1452.97  2.04
438.8  72965.68  1488.92  2.04
440.2  74652.73  1529.49  2.05
441.7  76530.60  1576.49  2.06
443.1  78335.10  1623.52  2.07
444.6  80102.98  1666.63  2.08
446.0  81920.03  1705.82  2.08
447.5  83825.00  1748.10  2.09
448.9  85592.45  1790.80  2.09
450.4  87450.00  1835.48  2.10
451.8  89269.13  1879.11  2.10
453.3  91116.38  1924.99  2.11
454.7  92928.38  1969.59  2.12
456.2  94713.85  2013.34  2.13
457.6  96597.90  2056.40  2.13
459.1  98423.85  2093.53  2.13
460.5  100278.48  2140.53  2.13
462.0  102312.00  2182.95  2.13
463.4  104299.48  2231.78  2.14
464.8  106243.20  2276.90  2.14
466.3  108218.78  2322.78  2.15
467.7  110241.60  2366.40  2.15
469.2  112102.35  2409.11  2.15
470.6  114142.00  2456.49  2.15
472.0  116200.30  2504.50  2.16
473.5  118209.85  2549.30  2.16
474.9  120365.95  2602.82  2.16
476.4  122459.00  2648.15  2.16
477.8  124544.00  2695.47  2.16
479.2  126673.00  2741.12  2.16
480.7  128824.88  2795.64  2.17
482.1  131024.10  2846.22  2.17
483.6  133250.40  2905.59  2.18
485.0  135510.90  2958.16  2.18
486.4  137623.65  3012.85  2.19
487.9  139894.00  3074.14  2.20
489.3  142068.15  3136.77  2.21
490.7  144298.40  3200.76  2.22
492.2  146556.88  3261.78  2.23
493.6  148829.70  3335.36  2.24
495.0  151158.15  3407.27  2.25
496.5  153345.15  3487.59  2.27
497.9  155636.88  3577.68  2.30
499.3  157963.63  3674.16  2.33
500.7  160291.20  3774.41  2.35
502.2  162688.90  3890.75  2.39
503.6  164998.20  4015.41  2.43
505.0  167315.78  4157.03  2.48
506.5  169786.85  4315.94  2.54
507.9  172222.05  4492.42  2.61
509.3  174564.68  4699.09  2.69
510.7  177255.98  4941.93  2.79
512.2  179879.25  5218.80  2.90
513.6  182763.20  5539.46  3.03
515.0  185511.20  5902.94  3.18
516.4  188347.60  6320.01  3.36
517.8  191158.75  6795.63  3.55
519.3  194072.00  7330.01  3.78
520.7  196746.00  7914.49  4.02
522.1  199453.15  8538.75  4.28
523.5  202019.08  9206.60  4.56
524.9  204899.25  9906.09  4.83
526.3  207534.83  10598.73  5.11
527.8  210279.25  11310.15  5.38
529.2  212889.60  12032.64  5.65
530.6  215806.50  12764.91  5.91
532.0  218740.28  13461.04  6.15
533.4  221150.55  14079.66  6.37
534.8  223551.08  14651.55  6.55
536.3  226568.25  15216.59  6.72
537.7  229671.75  15764.81  6.86
539.1  232599.90  16271.29  7.00
540.5  235406.25  16748.41  7.11
541.9  238291.58  17225.44  7.23
543.3  240817.70  17668.18  7.34
544.7  243694.00  18129.68  7.44
546.1  246468.60  18577.06  7.54
547.5  249415.20  19026.51  7.63
549.0  252555.60  19456.15  7.70
550.4  255425.63  19831.70  7.76
551.8  258303.50  20160.11  7.80
553.2  261165.38  20433.43  7.82
554.6  263998.35  20628.01  7.81
556.0  266931.00  20765.48  7.78
557.4  270003.20  20835.87  7.72
558.8  272852.95  20835.67  7.64
560.2  276000.00  20791.43  7.53
561.6  278901.98  20677.63  7.41
563.0  281676.85  20492.55  7.28
564.4  284809.00  20292.27  7.12
565.8  287813.30  20031.65  6.96
567.2  290959.28  19730.06  6.78
568.6  293975.33  19377.15  6.59
570.0  296827.38  18978.90  6.39
571.4  300211.53  18587.46  6.19
572.8  303302.20  18190.41  6.00
574.2  306171.60  17798.72  5.81
575.6  309172.63  17442.93  5.64
577.0  312209.98  17125.72  5.49
578.4  315612.50  16863.54  5.34
579.8  318652.63  16626.68  5.22
581.2  321690.50  16419.86  5.10
582.5  324562.50  16236.21  5.00
583.9  327606.40  16085.65  4.91
585.3  330469.90  15956.28  4.83
586.7  333471.60  15851.66  4.75
588.1  336405.40  15777.87  4.69
589.5  339732.30  15744.86  4.63
590.9  342674.98  15718.60  4.59
592.3  345620.70  15718.68  4.55
593.7  348577.25  15735.27  4.51
595.0  351509.40  15767.19  4.49
596.4  354792.13  15815.53  4.46
597.8  357449.10  15839.06  4.43
599.2  360578.40  15866.44  4.40
600.6  363753.23  15875.50  4.36
602.0  366721.20  15844.15  4.32
603.3  369590.00  15769.12  4.27
604.7  372604.80  15677.56  4.21
606.1  375627.30  15547.38  4.14
607.5  378960.50  15404.80  4.07
608.9  382016.25  15233.94  3.99
610.2  385206.53  15051.02  3.91
611.6  388107.50  14851.31  3.83
613.0  390922.50  14657.29  3.75
614.4  393686.65  14475.26  3.68
615.8  396968.70  14323.51  3.61
617.1  399666.00  14183.47  3.55
618.5  402924.38  14083.64  3.50
619.9  405626.70  14002.48  3.45
621.3  408594.55  13945.43  3.41
622.6  411547.50  13917.15  3.38
624.0  414276.00  13911.34  3.36
625.4  417380.85  13944.49  3.34
626.8  420368.00  13996.85  3.33
628.1  423203.90  14047.76  3.32
629.5  425997.08  14121.92  3.32
630.9  428881.00  14198.05  3.31
632.2  431977.08  14283.37  3.31
633.6  434438.88  14321.08  3.30
635.0  437413.38  14352.92  3.28
636.3  440464.48  14354.03  3.26
637.7  443155.85  14294.52  3.23
639.1  446215.00  14212.74  3.19
640.4  448945.38  14075.22  3.14
641.8  451782.00  13924.61  3.08
643.2  454401.60  13746.95  3.03
644.5  457275.00  13580.00  2.97
645.9  459974.20  13414.82  2.92
647.2  462929.78  13269.76  2.87
648.6  465716.40  13150.24  2.82
650.0  468441.00  13042.58  2.78
651.3  470949.00  12953.71  2.75
652.7  474448.50  12898.24  2.72
654.0  477482.65  12830.09  2.69
655.4  479760.75  12742.16  2.66
656.8  481285.88  12619.32  2.62
658.1  483813.23  12515.16  2.59
659.5  487209.60  12402.93  2.55
660.8  490554.75  12324.19  2.51
662.2  493208.25  12215.64  2.48
663.5  495990.68  12127.49  2.45
664.9  497995.95  12069.88  2.42
666.2  500085.95  12023.18  2.40
667.6  502611.75  12029.44  2.39
668.9  505440.00  12067.61  2.39
670.3  508283.13  12112.80  2.38
671.6  510580.80  12187.78  2.39
673.0  512912.80  12291.96  2.40
674.3  515399.50  12424.28  2.41
675.7  517963.50  12586.87  2.43
677.0  520338.68  12753.56  2.45
678.4  522562.60  12944.55  2.48
679.7  524983.43  13178.63  2.51
681.1  527538.80  13447.66  2.55
682.4  529772.25  13752.91  2.60
683.8  532187.63  14117.33  2.65
685.1  534445.50  14543.37  2.72
686.4  536657.88  15052.49  2.80
687.8  539198.63  15706.03  2.91
689.1  541606.80  16533.85  3.05
690.5  543595.10  17621.55  3.24
691.8  546379.63  19110.49  3.50
693.1  548839.50  21082.17  3.84
694.5  551188.10  23637.54  4.29
695.8  553591.60  26863.01  4.85
697.1  555864.00  30830.14  5.55
698.5  558225.50  35595.92  6.38
699.8  560652.40  41149.68  7.34
701.1  562553.25  47383.04  8.42
702.5  564655.75  54255.52  9.61
703.8  567124.25  61685.31  10.88
705.1  568975.90  69429.58  12.20
706.5  571303.73  77511.62  13.57
707.8  573222.08  85725.88  14.96
709.1  575545.43  94110.02  16.35
710.5  577782.73  102554.39  17.75
711.8  579726.00  110952.29  19.14
713.1  581704.00  119353.26  20.52
714.4  583849.25  127726.88  21.88
715.8  586164.60  136051.37  23.21
717.1  588479.70  144259.08  24.51
718.4  590747.03  152301.63  25.78
719.7  593011.80  160178.28  27.01
721.0  594769.13  167722.97  28.20
722.4  596608.20  175055.62  29.34
723.7  598640.20  182182.13  30.43
725.0  600390.68  188974.40  31.48
726.3  602755.40  195675.50  32.46
727.6  604543.50  201912.75  33.40
729.0  606475.80  207890.96  34.28
730.3  608518.18  213611.18  35.10
731.6  610056.30  218854.57  35.87
732.9  612030.90  223991.42  36.60
734.2  613742.25  228733.65  37.27
735.5  615635.90  233261.94  37.89
736.8  617655.50  237626.64  38.47
738.1  619588.05  241649.20  39.00
739.5  621336.30  245413.46  39.50
740.8  623327.65  249005.74  39.95
742.1  624926.10  252284.22  40.37
743.4  626806.60  255451.88  40.75
744.7  628817.00  258482.00  41.11
746.0  630422.83  261139.71  41.42
747.3  632034.90  263650.45  41.71
748.6  633645.25  265982.70  41.98
749.9  635515.18  268278.76  42.21
751.2  636830.68  270234.50  42.43
752.5  638512.85  272168.63  42.63
753.8  639947.25  273872.29  42.80
755.1  641569.80  275562.84  42.95
756.4  642812.38  276948.53  43.08
757.7  644789.75  278625.42  43.21
759.0  648489.60  280912.25  43.32
760.3  651334.25  282714.44  43.41
761.6  654203.08  284527.74  43.49
762.9  655789.75  285654.73  43.56
764.2  656612.25  286453.05  43.63
765.5  657618.43  287252.79  43.68
766.8  658209.60  287860.40  43.73
768.1  659414.70  288639.09  43.77
769.3  660761.25  289483.56  43.81
770.6  662194.05  290362.22  43.85
771.9  663433.45  291127.50  43.88
773.2  664954.88  291986.29  43.91
774.5  666028.80  292590.79  43.93
775.8  667282.05  293242.88  43.95
777.1  668561.10  293941.61  43.97
778.4  669948.25  294677.79  43.99
779.6  671337.00  295409.34  44.00
780.9  672166.35  295875.01  44.02
782.2  673210.58  296442.00  44.03
783.5  674219.00  296980.83  44.05
784.8  675173.63  297448.65  44.06
786.0  676095.98  297937.42  44.07
787.3  677006.48  298418.90  44.08
788.6  678078.63  298942.58  44.09
789.9  678829.80  299377.65  44.10
791.2  680257.90  300094.39  44.11
792.4  681535.25  300698.28  44.12
793.7  683294.70  301471.79  44.12
795.0  684400.25  302030.26  44.13
796.2  685870.10  302705.80  44.13
797.5  687176.88  303343.76  44.14
798.8  688692.38  304070.34  44.15
800.0  689850.00  304657.33  44.16
801.3  691243.88  305278.88  44.16
802.6  692424.00  305821.03  44.17
803.8  693627.38  306387.28  44.17
805.1  694646.63  306919.67  44.18
806.4  695722.85  307448.09  44.19
807.7  696952.65  307994.04  44.19
808.9  698214.10  308587.43  44.20
810.2  699222.30  309035.10  44.20
811.4  700374.40  309585.69  44.20
812.7  701721.80  310243.87  44.21
814.0  703071.60  310880.57  44.22
815.2  704481.30  311568.86  44.23
816.5  705648.13  312117.75  44.23
817.7  706604.75  312550.65  44.23
819.0  707282.80  312912.92  44.24
820.2  708152.10  313365.40  44.25
821.5  709336.20  313917.61  44.26
822.7  710373.13  314450.02  44.27
824.0  711325.55  314909.33  44.27
825.2  712028.85  315231.48  44.27
826.5  712763.00  315606.99  44.28
827.7  713852.80  316102.40  44.28
829.0  714833.10  316568.03  44.29
830.2  715792.60  317034.22  44.29
831.5  716711.40  317472.26  44.30
832.7  717602.85  317936.52  44.31
834.0  718265.48  318242.85  44.31
835.2  719154.75  318731.83  44.32
836.4  719883.60  319104.66  44.33
837.7  720658.13  319491.11  44.33
838.9  721870.60  320093.25  44.34
840.1  722775.90  320545.52  44.35
841.4  723661.20  321019.71  44.36
842.6  724420.90  321460.99  44.37
843.8  725207.60  321881.81  44.38
845.1  725978.55  322314.24  44.40
846.3  726849.90  322769.81  44.41
847.5  727753.00  323232.00  44.42
848.8  728516.45  323659.16  44.43
850.0  729553.40  324234.56  44.44
851.2  730414.45  324670.83  44.45
852.5  731460.50  325234.37  44.46
853.7  732036.15  325556.50  44.47
854.9  733077.15  326109.87  44.49
856.1  734013.10  326588.12  44.49
857.4  734876.48  326998.53  44.50
858.6  735764.40  327460.36  44.51
859.8  736751.80  327986.16  44.52
861.0  737546.60  328444.72  44.53
862.2  738393.60  328886.92  44.54
863.5  739427.78  329347.05  44.54
864.7  740312.50  329774.82  44.55
865.9  741121.75  330220.01  44.56
867.1  741718.75  330533.10  44.56
868.3  742811.60  331050.10  44.57
869.5  743752.00  331546.59  44.58
870.8  744753.15  332015.29  44.58
872.0  745682.88  332457.86  44.58
873.2  746583.58  332833.49  44.58
874.4  747056.60  333226.37  44.61
875.6  748246.03  333747.76  44.60
876.8  749674.20  334335.30  44.60
878.0  750615.60  334773.69  44.60
879.2  751513.05  335201.02  44.60
880.4  752478.00  335659.90  44.61
881.6  753199.40  336046.25  44.62
882.8  754511.85  336616.40  44.61
884.0  755266.53  336953.35  44.61
885.2  756767.75  337518.93  44.60
886.5  758036.48  338115.90  44.60
887.7  758999.85  338486.91  44.60
888.8  760094.05  339071.29  44.61
890.0  761092.50  339454.50  44.60
891.2  762032.70  339858.85  44.60
892.4  763445.93  340433.86  44.59
893.6  765174.48  341237.63  44.60
894.8  766620.45  341912.98  44.60
896.0  767983.25  342506.05  44.60
897.2  769623.53  343302.94  44.61
898.4  771615.60  344099.74  44.59
899.6  772771.50  344677.67  44.60
900.8  773455.80  344873.87  44.59
902.0  774223.70  345155.20  44.58
903.2  774286.30  345222.84  44.59
904.3  775490.63  345624.27  44.57
905.5  776283.75  346115.31  44.59
906.7  777535.33  346621.95  44.58
907.9  778548.80  347013.38  44.57
909.1  779599.98  347466.43  44.57
910.2  780333.75  347611.50  44.55
911.4  780428.03  347660.22  44.55
912.6  780850.00  347860.48  44.55
913.8  781700.85  348219.33  44.55
915.0  782118.40  348390.42  44.54
916.2  782198.70  348500.77  44.55
917.3  782858.75  348769.99  44.55
918.5  783489.30  348934.60  44.54
919.7  783783.25  348921.99  44.52
920.8  784036.25  348967.64  44.51
922.0  783983.20  348954.06  44.51
923.2  784500.90  349120.83  44.50
924.4  785061.75  349351.03  44.50
925.5  785680.00  349571.48  44.49
926.7  786557.03  349889.98  44.48
927.9  788307.53  350364.41  44.45
929.0  791372.70  351640.85  44.43
930.2  795229.80  353446.90  44.45
931.4  800467.33  355597.81  44.42
932.5  804907.40  357421.69  44.41
933.7  808097.93  358498.37  44.36
934.9  809375.00  358977.08  44.35
936.0  808541.33  358401.27  44.33
937.2  805484.25  356973.32  44.32
938.3  801726.25  355144.25  44.30
939.5  799390.80  353977.15  44.28
940.7  799758.58  353766.95  44.23
941.8  802816.95  354865.09  44.20
943.0  804934.05  355578.36  44.17
944.2  806298.00  356236.51  44.18
945.3  805938.00  355723.38  44.14
946.5  804422.50  354807.33  44.11
947.6  805306.00  354914.96  44.07
948.8  804607.10  354162.00  44.02
949.9  805118.83  353986.00  43.97
951.1  805550.00  353670.98  43.90
952.2  805207.88  353007.51  43.84
953.4  804358.05  352524.28  43.83
954.5  802987.50  351334.20  43.75
955.7  802959.80  350790.35  43.69
956.8  803408.88  350539.38  43.63
958.0  802870.20  349673.67  43.55
959.1  802418.40  349138.08  43.51
960.3  801975.00  348742.62  43.49
961.4  801965.40  348822.79  43.50
962.6  801748.80  348297.39  43.44
963.7  803075.00  348203.91  43.36
964.9  803647.10  348126.58  43.32
966.0  804527.50  348188.63  43.28
967.2  803833.80  348355.92  43.34
968.3  805347.10  348868.64  43.32
969.5  805598.55  348893.08  43.31
970.6  806026.95  348974.52  43.30
971.8  806337.53  348855.32  43.26
972.9  807712.50  348968.00  43.20
974.0  808383.55  349316.70  43.21
975.2  806726.25  348698.41  43.22
976.3  807601.53  349208.16  43.24
977.5  807699.30  348972.02  43.21
978.6  807898.35  349044.29  43.20
979.7  808068.80  349017.39  43.19
980.9  809424.03  349017.46  43.12
982.0  808086.60  348813.82  43.17
983.2  808235.40  349001.96  43.18
984.3  807635.50  348679.37  43.17
985.4  807216.20  348404.06  43.16
986.6  809413.18  348797.69  43.09
987.7  808021.25  348439.46  43.12
988.9  808545.60  348859.09  43.15
990.0  806409.25  348760.55  43.25
993.1  838566.00  360088.63  42.94
996.9  839551.80  361316.54  43.04
1000.7  839708.90  362234.88  43.14
1004.5  839083.87  362715.36  43.23
1008.4  840118.94  363992.23  43.33
1012.2  841572.63  365316.15  43.41
1016.0  841829.03  366098.82  43.49
1019.8  841257.31  366444.64  43.56
1023.7  840766.35  366684.02  43.61
1027.5  839396.00  366533.94  43.67
1031.3  838616.10  366560.10  43.71
1035.1  838156.20  366677.06  43.75
1038.9  837868.82  366878.60  43.79
1042.7  837547.55  367035.09  43.82
1046.5  836785.25  366953.38  43.85
1050.3  835271.03  366413.14  43.87
1054.2  833369.35  365765.71  43.89
1058.0  832496.40  365451.43  43.90
1061.8  831314.92  365061.25  43.91
1065.6  829602.58  364313.55  43.91
1069.4  827945.12  363535.68  43.91
1073.2  826683.00  362858.79  43.89
1077.0  825522.13  362180.34  43.87
1080.8  824649.83  361609.81  43.85
1084.6  823564.50  360931.48  43.83
1088.4  822227.48  360272.03  43.82
1092.2  820829.10  359361.53  43.78
1096.0  819557.40  358492.75  43.74
1099.8  818153.88  357545.23  43.70
1103.6  816491.03  356439.72  43.66
1107.4  815117.62  355397.83  43.60
1111.2  813666.22  354304.59  43.54
1114.9  812476.50  353264.78  43.48
1118.7  811675.33  352215.23  43.39
1122.5  811474.73  351231.60  43.28
1126.3  808932.60  349079.40  43.15
1130.1  808333.18  347258.35  42.96
1133.9  805023.52  343746.49  42.70
1137.7  802553.00  340070.43  42.37
1141.4  799129.98  335511.04  41.98
1145.2  798453.22  331743.28  41.55
1149.0  796560.15  327683.16  41.14
1152.8  793434.05  323503.22  40.77
1156.6  790088.18  319966.86  40.50
1160.3  786939.75  317268.88  40.32
1164.1  782343.80  314480.06  40.20
1167.9  779194.00  312727.76  40.13
1171.7  776823.80  311428.95  40.09
1175.4  774630.24  310358.18  40.07
1179.2  772923.75  309359.68  40.02
1183.0  773214.00  309111.66  39.98
1186.7  773068.33  308706.00  39.93
1190.5  771338.13  307786.27  39.90
1194.3  768463.50  306487.40  39.88
1198.0  765530.28  305356.09  39.89
1201.8  763224.00  304502.00  39.90
1205.6  761572.29  304104.78  39.93
1209.3  760131.75  303969.43  39.99
1213.1  758542.46  303822.54  40.05
1216.8  756389.07  303618.26  40.14
1220.6  754063.50  303366.26  40.23
1224.3  751712.50  303056.55  40.32
1228.1  749684.56  302910.59  40.41
1231.9  747579.30  302579.18  40.47
1235.6  745373.20  302120.15  40.53
1239.4  743103.72  301714.18  40.60
1243.1  741053.70  301200.17  40.64
1246.9  739136.57  300668.46  40.68
1250.6  737171.97  300047.54  40.70
1254.3  735379.20  299448.69  40.72
1258.1  733423.33  298725.71  40.73
1261.8  731121.07  297802.20  40.73
1265.6  728742.94  296739.67  40.72
1269.3  726197.27  295529.34  40.70
1273.1  726485.51  295407.42  40.66
1276.8  726916.47  295267.65  40.62
1280.6  726810.57  294812.17  40.56
1284.3  724597.83  293411.21  40.49
1288.0  722630.68  292031.57  40.41
1291.8  720657.00  290493.00  40.31
1295.5  718641.15  288861.14  40.20
1299.2  716213.55  286936.37  40.06
1302.9  713458.63  284650.42  39.90
1306.7  710444.70  282089.25  39.71
1310.4  707583.43  279288.67  39.47
1314.1  705232.50  276521.25  39.21
1317.9  702853.67  273417.41  38.90
1321.6  700180.54  269929.62  38.55
1325.3  697397.85  266125.11  38.16
1329.0  694699.13  262200.40  37.74
1332.8  690925.00  257587.32  37.28
1336.5  687307.58  252987.42  36.81
1340.2  685264.30  248954.14  36.33
