/*** Spectra Vista SIG Data ***/
name= 18_20221020_QURU_46_avg.sig
comm= Averaged Ref/Tar of files: HR.102022.0051_moc.sig,HR.102022.0052_moc.sig,HR.102022.0053_moc.sig
data=
337.3  3076.75  187.16  6.08
338.8  3174.60  184.61  5.82
340.3  3373.20  187.40  5.56
341.8  3566.55  191.61  5.37
343.2  3729.60  186.06  4.99
344.7  3838.50  179.94  4.69
346.2  4003.30  176.63  4.41
347.7  4207.78  171.53  4.08
349.2  4384.80  182.16  4.15
350.6  4627.35  185.37  4.01
352.1  4894.33  194.28  3.97
353.6  5170.30  192.01  3.71
355.1  5421.68  194.03  3.58
356.6  5702.85  191.03  3.35
358.0  5965.30  200.51  3.36
359.5  6272.70  198.35  3.16
361.0  6553.58  210.62  3.21
362.5  6908.90  224.44  3.25
364.0  7254.78  232.95  3.21
365.4  7587.00  237.38  3.13
366.9  7956.00  237.05  2.98
368.4  8291.60  245.48  2.96
369.9  8648.00  259.18  3.00
371.3  9051.30  272.85  3.01
372.8  9451.80  283.45  3.00
374.3  9836.25  288.72  2.94
375.8  10241.00  298.25  2.91
377.2  10652.40  303.07  2.85
378.7  11055.90  307.43  2.78
380.2  11432.50  320.49  2.80
381.7  11945.05  325.59  2.73
383.1  12370.05  332.64  2.69
384.6  12867.08  340.91  2.65
386.1  13296.30  345.92  2.60
387.6  13744.50  360.87  2.63
389.0  14177.20  367.54  2.59
390.5  14629.05  379.79  2.60
392.0  15182.30  386.17  2.54
393.4  15738.73  400.88  2.55
394.9  16234.20  416.11  2.56
396.4  16767.00  424.35  2.53
397.9  17271.25  439.53  2.54
399.3  17803.48  451.75  2.54
400.8  18344.80  464.32  2.53
402.2  18952.60  483.75  2.55
403.7  19524.83  494.11  2.53
405.2  20123.75  509.80  2.53
406.6  20694.40  520.78  2.52
408.1  21244.00  538.53  2.53
409.6  21818.30  552.51  2.53
411.0  22438.85  569.54  2.54
412.5  23094.93  586.87  2.54
414.0  23716.50  606.79  2.56
415.4  24386.63  627.67  2.57
416.9  24999.68  647.83  2.59
418.4  25696.80  666.08  2.59
419.8  26408.20  684.32  2.59
421.3  27094.00  702.31  2.59
422.7  27822.60  724.34  2.60
424.2  28569.38  746.04  2.61
425.7  29307.40  772.78  2.64
427.1  30067.50  794.27  2.64
428.6  30845.00  816.48  2.65
430.0  31564.00  834.63  2.64
431.5  32402.18  856.55  2.64
432.9  33240.85  882.49  2.65
434.4  34107.83  907.39  2.66
435.9  34930.00  932.13  2.67
437.3  35750.00  955.17  2.67
438.8  36584.63  980.24  2.68
440.2  37433.55  1003.05  2.68
441.7  38350.80  1028.99  2.68
443.1  39220.00  1056.09  2.69
444.6  40164.60  1085.30  2.70
446.0  41091.83  1114.00  2.71
447.5  42057.95  1143.07  2.72
448.9  42969.90  1174.15  2.73
450.4  43952.30  1203.24  2.74
451.8  44811.00  1231.78  2.75
453.3  45710.20  1260.31  2.76
454.7  46705.38  1292.78  2.77
456.2  47543.88  1318.85  2.77
457.6  48480.30  1348.62  2.78
459.1  49449.08  1375.52  2.78
460.5  50370.25  1403.49  2.79
462.0  51408.53  1435.97  2.79
463.4  52443.60  1465.77  2.79
464.8  53404.88  1491.76  2.79
466.3  54332.85  1518.44  2.79
467.7  55272.53  1548.79  2.80
469.2  56314.08  1579.62  2.81
470.6  57281.85  1605.71  2.80
472.0  58312.73  1636.72  2.81
473.5  59310.88  1666.08  2.81
474.9  60348.75  1700.36  2.82
476.4  61473.60  1733.90  2.82
477.8  62495.00  1763.48  2.82
479.2  63466.50  1791.51  2.82
480.7  64529.55  1824.40  2.83
482.1  65631.90  1861.44  2.84
483.6  66802.35  1898.32  2.84
485.0  67858.80  1930.97  2.85
486.4  69039.75  1970.07  2.85
487.9  70097.63  2006.55  2.86
489.3  71195.38  2047.76  2.88
490.7  72226.13  2089.69  2.89
492.2  73382.40  2139.06  2.91
493.6  74465.95  2182.15  2.93
495.0  75567.38  2227.74  2.95
496.5  76720.90  2281.06  2.97
497.9  77806.85  2338.22  3.01
499.3  78951.50  2399.71  3.04
500.7  80179.45  2471.39  3.08
502.2  81307.40  2546.66  3.13
503.6  82548.40  2633.14  3.19
505.0  83622.20  2722.25  3.26
506.5  84911.93  2831.60  3.33
507.9  86029.48  2946.51  3.42
509.3  87290.40  3085.02  3.53
510.7  88481.25  3239.09  3.66
512.2  89831.85  3417.20  3.80
513.6  91294.70  3618.39  3.96
515.0  92704.33  3845.90  4.15
516.4  94065.30  4096.98  4.36
517.8  95682.75  4390.59  4.59
519.3  96990.83  4695.29  4.84
520.7  98518.60  5036.59  5.11
522.1  99781.50  5380.77  5.39
523.5  101080.80  5741.36  5.68
524.9  102504.60  6117.41  5.97
526.3  103879.65  6484.01  6.24
527.8  105331.05  6853.91  6.51
529.2  106386.00  7204.79  6.77
530.6  107941.50  7573.18  7.02
532.0  109592.00  7926.13  7.23
533.4  110880.60  8225.29  7.42
534.8  111764.48  8474.20  7.58
536.3  113300.70  8758.24  7.73
537.7  115189.20  9055.56  7.86
539.1  116582.18  9298.80  7.98
540.5  117764.65  9512.16  8.08
541.9  119457.38  9764.05  8.17
543.3  120738.83  9980.08  8.27
544.7  122048.40  10195.62  8.35
546.1  123822.05  10455.36  8.44
547.5  125036.80  10665.81  8.53
549.0  126676.00  10902.99  8.61
550.4  128116.25  11114.86  8.68
551.8  129636.43  11308.26  8.72
553.2  131094.63  11468.13  8.75
554.6  132402.40  11578.37  8.74
556.0  133887.60  11665.34  8.71
557.4  135464.00  11723.01  8.65
558.8  137085.75  11750.80  8.57
560.2  138527.00  11734.42  8.47
561.6  140174.55  11708.17  8.35
563.0  141737.23  11653.59  8.22
564.4  143300.65  11578.88  8.08
565.8  144797.50  11471.26  7.92
567.2  146522.50  11357.12  7.75
568.6  147976.13  11197.31  7.57
570.0  149380.73  11011.17  7.37
571.4  151053.50  10831.10  7.17
572.8  152801.88  10656.69  6.97
574.2  154392.00  10478.19  6.79
575.6  155913.75  10311.11  6.61
577.0  157420.30  10159.45  6.45
578.4  159102.13  10040.12  6.31
579.8  160615.58  9924.45  6.18
581.2  162293.08  9838.64  6.06
582.5  163694.70  9754.57  5.96
583.9  165188.20  9686.23  5.86
585.3  166938.08  9648.35  5.78
586.7  168398.10  9604.08  5.70
588.1  169859.13  9570.90  5.63
589.5  171487.75  9564.57  5.58
590.9  173066.80  9571.74  5.53
592.3  174834.05  9600.87  5.49
593.7  176283.90  9623.10  5.46
595.0  177857.10  9661.01  5.43
596.4  179279.80  9693.38  5.41
597.8  180735.73  9730.42  5.38
599.2  182239.20  9761.21  5.36
600.6  183951.63  9793.49  5.32
602.0  185224.73  9783.50  5.28
603.3  186990.00  9778.84  5.23
604.7  188605.60  9747.80  5.17
606.1  190053.60  9684.71  5.10
607.5  191663.70  9617.93  5.02
608.9  193313.95  9538.34  4.93
610.2  194665.28  9433.40  4.85
611.6  196252.50  9336.35  4.76
613.0  197777.15  9233.83  4.67
614.4  199131.30  9132.97  4.59
615.8  200567.25  9042.71  4.51
617.1  202066.20  8975.12  4.44
618.5  203662.80  8924.26  4.38
619.9  205159.05  8883.93  4.33
621.3  206753.63  8859.22  4.28
622.6  208330.25  8855.75  4.25
624.0  209780.10  8861.09  4.22
625.4  211267.65  8879.37  4.20
626.8  212805.78  8915.73  4.19
628.1  214056.43  8952.03  4.18
629.5  215783.45  9009.90  4.18
630.9  217219.48  9060.58  4.17
632.2  218417.33  9097.95  4.17
633.6  219867.88  9133.01  4.15
635.0  221295.20  9149.42  4.13
636.3  222772.10  9153.35  4.11
637.7  224120.13  9126.51  4.07
639.1  225715.00  9083.83  4.02
640.4  227194.45  9011.39  3.97
641.8  228373.90  8913.86  3.90
643.2  229908.88  8823.84  3.84
644.5  231227.50  8728.37  3.77
645.9  232728.30  8633.72  3.71
647.2  233630.60  8532.70  3.65
648.6  235021.50  8454.28  3.60
650.0  236304.00  8388.62  3.55
651.3  237357.18  8330.91  3.51
652.7  239673.90  8317.98  3.47
654.0  241778.20  8298.96  3.43
655.4  243123.13  8240.86  3.39
656.8  243275.90  8130.71  3.34
658.1  244660.60  8060.88  3.29
659.5  246835.05  8012.19  3.25
660.8  248107.50  7932.43  3.20
662.2  249088.00  7838.72  3.15
663.5  250516.50  7767.27  3.10
664.9  251498.00  7705.74  3.06
666.2  252258.60  7648.43  3.03
667.6  253946.88  7634.51  3.01
668.9  254825.33  7622.46  2.99
670.3  256708.38  7643.51  2.98
671.6  257689.88  7663.26  2.97
673.0  258862.50  7708.35  2.98
674.3  260117.00  7763.41  2.98
675.7  261434.23  7837.89  3.00
677.0  262471.93  7919.77  3.02
678.4  263771.40  8022.98  3.04
679.7  264806.58  8140.65  3.07
681.1  266047.90  8278.55  3.11
682.4  267122.70  8450.20  3.16
683.8  268294.00  8646.57  3.22
685.1  269283.38  8889.83  3.30
686.4  270595.80  9199.89  3.40
687.8  271783.75  9588.69  3.53
689.1  272896.25  10086.45  3.70
690.5  274167.45  10755.46  3.92
691.8  274959.15  11629.85  4.23
693.1  276284.70  12812.57  4.64
694.5  277413.50  14318.42  5.16
695.8  278664.75  16167.88  5.80
697.1  279825.00  18372.68  6.57
698.5  280844.40  20915.13  7.45
699.8  281918.28  23759.52  8.43
701.1  283052.03  26883.05  9.50
702.5  283836.85  30157.94  10.63
703.8  284760.00  33590.57  11.80
705.1  285873.90  37117.65  12.98
706.5  286892.25  40677.54  14.18
707.8  287845.65  44253.64  15.37
709.1  288662.25  47807.61  16.56
710.5  289756.18  51397.68  17.74
711.8  290591.30  54919.59  18.90
713.1  291527.90  58453.61  20.05
714.4  292442.20  61938.57  21.18
715.8  293245.00  65371.71  22.29
717.1  294528.30  68872.48  23.38
718.4  295478.40  72244.48  24.45
719.7  296557.63  75589.85  25.49
721.0  297067.50  78727.07  26.50
722.4  297772.75  81832.66  27.48
723.7  298730.85  84900.18  28.42
725.0  299697.30  87876.28  29.32
726.3  300628.08  90722.42  30.18
727.6  301153.05  93333.60  30.99
729.0  302059.80  95925.41  31.76
730.3  302824.80  98355.13  32.48
731.6  303704.85  100683.98  33.15
732.9  304437.00  102852.45  33.78
734.2  305207.38  104907.22  34.37
735.5  306224.93  106917.09  34.91
736.8  307009.80  108732.44  35.42
738.1  307855.90  110454.87  35.88
739.5  308811.45  112099.02  36.30
740.8  309486.38  113545.82  36.69
742.1  310108.68  114892.06  37.05
743.4  310700.00  116130.95  37.38
744.7  311540.63  117379.04  37.68
746.0  312413.40  118550.84  37.95
747.3  313013.08  119535.52  38.19
748.6  313712.25  120498.23  38.41
749.9  314340.00  121351.41  38.61
751.2  314872.15  122121.75  38.78
752.5  315525.90  122900.02  38.95
753.8  315976.85  123532.67  39.10
755.1  316602.00  124176.00  39.22
756.4  317180.73  124743.08  39.33
757.7  318167.15  125444.59  39.43
759.0  319866.33  126399.76  39.52
760.3  320997.60  127088.59  39.59
761.6  322498.40  127894.57  39.66
762.9  322979.50  128279.50  39.72
764.2  323311.10  128580.72  39.77
765.5  323543.30  128824.57  39.82
766.8  323897.60  129106.74  39.86
768.1  324361.20  129420.12  39.90
769.3  324887.50  129733.80  39.93
770.6  325505.70  130083.56  39.96
771.9  326181.98  130423.42  39.98
773.2  326486.40  130628.37  40.01
774.5  327012.40  130913.64  40.03
775.8  327620.60  131212.82  40.05
777.1  328083.25  131471.22  40.07
778.4  328324.15  131630.64  40.09
779.6  328996.30  131958.62  40.11
780.9  329400.00  132170.86  40.12
782.2  329815.75  132388.12  40.14
783.5  330071.00  132522.79  40.15
784.8  330505.65  132743.02  40.16
786.0  330781.85  132911.71  40.18
787.3  331085.53  133079.30  40.19
788.6  331457.38  133247.34  40.20
789.9  331821.00  133426.07  40.21
791.2  332395.30  133690.59  40.22
792.4  332981.55  133957.96  40.23
793.7  333365.40  134162.39  40.24
795.0  333920.40  134408.96  40.25
796.2  334480.93  134667.23  40.26
797.5  335096.25  134928.12  40.27
798.8  335659.03  135196.24  40.28
800.0  336236.88  135458.66  40.29
801.3  336596.40  135638.70  40.30
802.6  337116.60  135877.73  40.31
803.8  337697.70  136130.96  40.31
805.1  338060.63  136311.79  40.32
806.4  338442.30  136497.06  40.33
807.7  338887.80  136713.04  40.34
808.9  339410.30  136936.70  40.35
810.2  339813.60  137134.92  40.36
811.4  340248.50  137335.24  40.36
812.7  340803.13  137601.13  40.38
814.0  341586.15  137915.99  40.38
815.2  342183.00  138193.69  40.39
816.5  342554.33  138366.08  40.39
817.7  342971.40  138571.19  40.40
819.0  343428.80  138778.89  40.41
820.2  343552.00  138858.55  40.42
821.5  344206.85  139152.79  40.43
822.7  344542.75  139321.53  40.44
824.0  344846.70  139463.87  40.44
825.2  345307.05  139674.43  40.45
826.5  345580.25  139818.29  40.46
827.7  346068.15  140061.48  40.47
829.0  346483.48  140244.47  40.48
830.2  346792.85  140389.96  40.48
831.5  347288.75  140620.12  40.49
832.7  347614.05  140774.16  40.50
834.0  348005.80  140946.69  40.50
835.2  348293.28  141123.17  40.52
836.4  348642.25  141278.42  40.52
837.7  348993.80  141479.55  40.54
838.9  349450.88  141696.96  40.55
840.1  349820.10  141877.71  40.56
841.4  350276.40  142085.26  40.56
842.6  350672.60  142284.88  40.57
843.8  351014.00  142479.48  40.59
845.1  351530.05  142727.14  40.60
846.3  352005.70  142909.21  40.60
847.5  352428.30  143118.48  40.61
848.8  352816.20  143313.61  40.62
850.0  353283.35  143508.48  40.62
851.2  353797.20  143776.49  40.64
852.5  354228.70  143963.41  40.64
853.7  354699.00  144218.66  40.66
854.9  355221.40  144441.72  40.66
856.1  355705.35  144655.36  40.67
857.4  355945.60  144769.56  40.67
858.6  356499.45  145031.30  40.68
859.8  356865.00  145220.38  40.69
861.0  357247.80  145425.65  40.71
862.2  357720.48  145637.42  40.71
863.5  358191.28  145831.43  40.71
864.7  358861.80  146066.36  40.70
865.9  359219.60  146253.34  40.71
867.1  359479.20  146410.23  40.73
868.3  359878.80  146623.31  40.74
869.5  360396.60  146828.00  40.74
870.8  361003.50  147080.36  40.74
872.0  361571.70  147301.92  40.74
873.2  361990.80  147499.57  40.75
874.4  362416.28  147711.83  40.76
875.6  362816.70  147891.46  40.76
876.8  363328.25  148121.79  40.77
878.0  363832.40  148314.50  40.76
879.2  364403.85  148529.13  40.76
880.4  364939.50  148767.28  40.76
881.6  365448.58  148953.49  40.76
882.8  365854.40  149135.58  40.76
884.0  366385.40  149383.10  40.77
885.2  366849.10  149589.47  40.78
886.5  367483.60  149837.49  40.77
887.7  368022.20  150027.09  40.77
888.8  368568.45  150304.72  40.78
890.0  369152.85  150517.40  40.77
891.2  369646.50  150748.13  40.78
892.4  370217.40  150960.34  40.78
893.6  370851.15  151207.10  40.77
894.8  371645.50  151557.19  40.78
896.0  372485.25  151894.09  40.78
897.2  373278.75  152216.94  40.78
898.4  373906.50  152488.38  40.78
899.6  374469.38  152700.21  40.78
900.8  374785.88  152835.13  40.78
902.0  374966.70  152898.78  40.78
903.2  375279.45  153010.95  40.77
904.3  375551.10  153137.57  40.78
905.5  376122.88  153370.20  40.78
906.7  376706.50  153566.58  40.77
907.9  377116.25  153743.89  40.77
909.1  377300.03  153840.50  40.77
910.2  377420.48  153897.24  40.78
911.4  377643.83  153992.84  40.78
912.6  377777.40  154033.95  40.77
913.8  377931.08  154106.36  40.78
915.0  378223.65  154209.72  40.77
916.2  378348.75  154240.26  40.77
917.3  378230.40  154198.14  40.77
918.5  378460.90  154261.43  40.76
919.7  378600.90  154325.69  40.76
920.8  378589.15  154317.87  40.76
922.0  378512.75  154315.70  40.77
923.2  378514.50  154317.80  40.77
924.4  378870.75  154380.38  40.75
925.5  379090.60  154442.24  40.74
926.7  379571.75  154632.81  40.74
927.9  380298.00  154903.78  40.73
929.0  381559.95  155424.03  40.73
930.2  383655.60  156205.50  40.72
931.4  385973.78  157124.21  40.71
932.5  388557.10  158149.79  40.70
933.7  389868.28  158595.14  40.68
934.9  390442.50  158763.92  40.66
936.0  389961.00  158477.54  40.64
937.2  387649.35  157550.94  40.64
938.3  385782.20  156783.52  40.64
939.5  384253.20  156091.03  40.62
940.7  384368.40  156098.30  40.61
941.8  385759.58  156587.70  40.59
943.0  387180.00  157014.46  40.55
944.2  387765.95  157247.73  40.55
945.3  387357.75  156956.15  40.52
946.5  386371.35  156507.25  40.51
947.6  386548.90  156441.20  40.47
948.8  386109.75  156201.21  40.46
949.9  386114.40  156087.00  40.43
951.1  385609.58  155733.44  40.39
952.2  385356.00  155552.91  40.37
953.4  385070.50  155275.65  40.32
954.5  384766.20  155033.69  40.29
955.7  384703.20  154772.76  40.23
956.8  384375.60  154472.42  40.19
958.0  384081.00  154107.04  40.12
959.1  383732.50  153845.56  40.09
960.3  383138.35  153616.73  40.09
961.4  382785.60  153415.80  40.08
962.6  382880.75  153378.35  40.06
963.7  382461.68  153113.18  40.03
964.9  382311.08  152945.95  40.01
966.0  382162.05  152793.79  39.98
967.2  381960.90  152759.20  39.99
968.3  381789.45  152604.66  39.97
969.5  381619.88  152496.18  39.96
970.6  381694.45  152466.05  39.94
971.8  381766.88  152467.21  39.94
972.9  381851.18  152359.86  39.90
974.0  382280.70  152406.36  39.87
975.2  381718.88  152375.66  39.92
976.3  381829.13  152386.78  39.91
977.5  381956.75  152426.14  39.91
978.6  382095.50  152354.27  39.87
979.7  382252.50  152342.79  39.85
980.9  381933.48  152292.41  39.87
982.0  381560.25  152285.85  39.91
983.2  381660.98  152056.15  39.84
984.3  381203.80  151813.42  39.82
985.4  380702.35  151801.55  39.87
986.6  380757.50  151677.18  39.84
987.7  381551.63  152030.54  39.85
988.9  381238.20  151910.93  39.85
990.0  381314.80  151916.04  39.84
993.1  387163.00  153898.42  39.75
996.9  385793.63  153703.43  39.84
1000.7  385727.83  153997.46  39.92
1004.5  385808.33  154331.56  40.00
1008.4  385426.92  154553.77  40.10
1012.2  385314.21  154788.74  40.17
1016.0  384958.20  154951.89  40.25
1019.8  384320.48  154937.48  40.31
1023.7  383059.07  154650.23  40.37
1027.5  381332.18  154159.93  40.43
1031.3  380252.35  153874.07  40.47
1035.1  379127.47  153578.17  40.51
1038.9  378638.70  153506.99  40.54
1042.7  378399.75  153520.70  40.57
1046.5  378247.83  153572.86  40.60
1050.3  378194.53  153657.14  40.63
1054.2  377894.42  153633.75  40.66
1058.0  377525.28  153538.70  40.67
1061.8  377505.11  153604.46  40.69
1065.6  376948.37  153384.52  40.69
1069.4  376077.47  153037.51  40.69
1073.2  374762.70  152494.67  40.69
1077.0  374081.48  152205.30  40.69
1080.8  374281.25  152258.63  40.68
1084.6  374444.93  152270.42  40.67
1088.4  374751.83  152400.53  40.67
1092.2  374312.25  152154.32  40.65
1096.0  373684.82  151805.07  40.62
1099.8  372985.38  151408.86  40.59
1103.6  372033.32  150901.77  40.56
1107.4  370879.09  150287.58  40.52
1111.2  370570.60  150027.16  40.49
1114.9  370070.17  149655.83  40.44
1118.7  369824.40  149344.68  40.38
1122.5  369524.13  148933.45  40.30
1126.3  368631.43  148208.91  40.21
1130.1  368242.93  147514.33  40.06
1133.9  366562.70  146076.00  39.85
1137.7  364991.40  144529.46  39.60
1141.4  362949.93  142644.27  39.30
1145.2  361992.68  141067.68  38.97
1149.0  360718.75  139470.84  38.66
1152.8  358896.45  137785.12  38.39
1156.6  357045.15  136316.77  38.18
1160.3  355218.00  135074.33  38.03
1164.1  352885.80  133806.08  37.92
1167.9  351253.13  132941.37  37.85
1171.7  349957.13  132259.50  37.79
1175.4  348477.10  131548.04  37.75
1179.2  347111.65  130848.70  37.70
1183.0  346787.67  130525.05  37.64
1186.7  346854.20  130374.17  37.59
1190.5  346510.47  130140.44  37.56
1194.3  345592.13  129707.28  37.53
1198.0  344064.05  129098.20  37.52
1201.8  342380.00  128456.86  37.52
1205.6  341342.67  128116.76  37.53
1209.3  340795.98  128039.50  37.57
1213.1  340362.53  128055.90  37.62
1216.8  339729.13  128091.15  37.70
1220.6  338594.67  127925.60  37.78
1224.3  337319.67  127695.57  37.86
1228.1  335775.20  127413.66  37.95
1231.9  334155.10  127032.64  38.02
1235.6  332411.85  126568.54  38.08
1239.4  330835.88  126179.05  38.14
1243.1  329431.53  125788.49  38.18
1246.9  328159.48  125418.55  38.22
1250.6  327139.87  125113.18  38.24
1254.3  325951.27  124736.36  38.27
1258.1  324692.78  124313.27  38.29
1261.8  323255.60  123793.75  38.30
1265.6  322118.77  123364.06  38.30
1269.3  321405.75  123066.51  38.29
1273.1  321769.85  123153.16  38.27
1276.8  321522.00  122941.43  38.24
1280.6  320344.77  122364.21  38.20
1284.3  318307.60  121444.34  38.15
1288.0  317102.30  120798.56  38.09
1291.8  316680.02  120404.12  38.02
1295.5  316003.60  119861.45  37.93
1299.2  314841.83  119085.24  37.82
1302.9  313181.21  118052.51  37.69
1306.7  311403.98  116898.13  37.54
1310.4  309661.28  115654.95  37.35
1314.1  308091.85  114418.47  37.14
1317.9  306660.83  113136.96  36.89
1321.6  305124.63  111715.18  36.61
1325.3  303449.48  110161.58  36.30
1329.0  302166.78  108699.43  35.97
1332.8  300238.40  106920.00  35.61
1336.5  298585.47  105222.23  35.24
1340.2  298495.17  104073.67  34.87
1343.9  298539.58  102962.59  34.49
1347.6  298895.70  101965.58  34.11
1351.4  300684.50  101500.64  33.76
1355.1  303145.70  101262.54  33.40
1358.8  305152.00  100825.14  33.04
