/*** Spectra Vista SIG Data ***/
name= 37_20220825_QUPA_22_avg.sig
comm= Averaged Ref/Tar of files: HR.082522.0029_moc.sig,HR.082522.0030_moc.sig,HR.082522.0031_moc.sig
data=
337.3  3424.13  268.45  7.84
338.8  3559.40  244.62  6.87
340.3  3701.15  255.22  6.90
341.8  3886.63  251.71  6.48
343.2  4084.80  256.25  6.27
344.7  4265.00  246.15  5.77
346.2  4411.80  239.65  5.43
347.7  4640.35  232.20  5.00
349.2  4838.40  223.20  4.61
350.6  5104.78  228.74  4.48
352.1  5394.48  227.28  4.21
353.6  5656.10  231.99  4.10
355.1  5926.80  226.42  3.82
356.6  6260.03  226.62  3.62
358.0  6539.50  232.11  3.55
359.5  6859.80  234.84  3.42
361.0  7182.00  242.25  3.37
362.5  7552.95  245.35  3.25
364.0  7914.30  250.70  3.17
365.4  8345.70  252.10  3.02
366.9  8701.88  251.52  2.89
368.4  9082.58  258.20  2.84
369.9  9458.75  274.37  2.90
371.3  9905.70  290.39  2.93
372.8  10327.95  303.43  2.94
374.3  10750.00  303.56  2.82
375.8  11184.25  298.25  2.67
377.2  11647.70  300.26  2.58
378.7  12105.00  306.40  2.53
380.2  12508.50  312.55  2.50
381.7  13053.08  314.00  2.41
383.1  13528.90  326.48  2.41
384.6  14053.98  332.95  2.37
386.1  14566.48  345.92  2.37
387.6  15038.10  353.69  2.35
389.0  15544.00  355.29  2.29
390.5  16062.75  364.11  2.27
392.0  16663.50  374.83  2.25
393.4  17236.40  379.86  2.20
394.9  17826.30  389.26  2.18
396.4  18371.25  403.65  2.20
397.9  18962.50  415.86  2.19
399.3  19550.90  431.73  2.21
400.8  20139.40  436.31  2.17
402.2  20793.85  445.64  2.14
403.7  21426.75  455.82  2.13
405.2  22041.43  464.48  2.11
406.6  22643.20  480.35  2.12
408.1  23278.00  496.77  2.13
409.6  23925.50  505.48  2.11
411.0  24616.55  520.94  2.12
412.5  25302.38  535.90  2.12
414.0  25978.13  552.26  2.13
415.4  26692.13  571.26  2.14
416.9  27389.78  583.76  2.13
418.4  28124.55  602.22  2.14
419.8  28883.40  613.60  2.12
421.3  29642.98  636.61  2.15
422.7  30450.00  659.54  2.17
424.2  31269.38  679.82  2.17
425.7  32045.80  697.64  2.18
427.1  32836.88  718.30  2.19
428.6  33681.50  737.50  2.19
430.0  34462.43  755.28  2.19
431.5  35372.25  782.92  2.21
432.9  36288.05  805.89  2.22
434.4  37216.35  827.85  2.22
435.9  38080.00  845.60  2.22
437.3  38967.50  868.74  2.23
438.8  39842.63  891.81  2.24
440.2  40761.88  918.35  2.25
441.7  41781.20  946.17  2.26
443.1  42718.00  972.42  2.28
444.6  43727.80  1003.34  2.29
446.0  44711.85  1026.88  2.30
447.5  45715.73  1052.96  2.30
448.9  46698.00  1084.34  2.32
450.4  47746.65  1113.95  2.33
451.8  48672.00  1144.99  2.35
453.3  49658.85  1173.01  2.36
454.7  50710.58  1202.56  2.37
456.2  51617.18  1227.53  2.38
457.6  52622.10  1253.92  2.38
459.1  53646.45  1283.51  2.39
460.5  54663.63  1312.02  2.40
462.0  55763.58  1345.80  2.41
463.4  56868.70  1368.96  2.41
464.8  57900.38  1397.28  2.41
466.3  58919.03  1420.67  2.41
467.7  59945.43  1448.25  2.42
469.2  61057.35  1475.86  2.42
470.6  62115.05  1502.68  2.42
472.0  63196.75  1531.09  2.42
473.5  64254.63  1558.32  2.43
474.9  65364.75  1591.66  2.44
476.4  66571.20  1622.13  2.44
477.8  67700.50  1649.96  2.44
479.2  68744.50  1685.59  2.45
480.7  69899.78  1717.70  2.46
482.1  71108.45  1752.99  2.47
483.6  72380.05  1791.25  2.47
485.0  73533.00  1829.92  2.49
486.4  74801.55  1869.33  2.50
487.9  75962.25  1910.16  2.51
489.3  77188.45  1950.71  2.53
490.7  78307.55  1998.95  2.55
492.2  79600.50  2051.84  2.58
493.6  80780.10  2100.95  2.60
495.0  81958.50  2160.60  2.64
496.5  83207.25  2226.13  2.68
497.9  84381.25  2292.37  2.72
499.3  85613.95  2369.24  2.77
500.7  86933.10  2457.85  2.83
502.2  88154.80  2555.14  2.90
503.6  89483.40  2668.88  2.98
505.0  90639.55  2791.87  3.08
506.5  92018.70  2944.02  3.20
507.9  93264.08  3110.43  3.34
509.3  94675.60  3310.41  3.50
510.7  95983.88  3527.55  3.68
512.2  97445.70  3788.31  3.89
513.6  99015.00  4086.61  4.13
515.0  100513.85  4424.11  4.40
516.4  101974.95  4802.22  4.71
517.8  103663.38  5223.29  5.04
519.3  105069.88  5667.53  5.39
520.7  106695.70  6153.10  5.77
522.1  108054.70  6647.04  6.15
523.5  109462.50  7159.69  6.54
524.9  110916.45  7673.03  6.92
526.3  112331.80  8164.74  7.27
527.8  113944.05  8660.80  7.60
529.2  115251.50  9122.77  7.92
530.6  116886.05  9582.41  8.20
532.0  118650.00  10019.20  8.44
533.4  120043.73  10382.42  8.65
534.8  121035.20  10669.17  8.81
536.3  122769.30  11002.84  8.96
537.7  124790.40  11332.08  9.08
539.1  126281.95  11592.54  9.18
540.5  127549.25  11818.41  9.27
541.9  129419.03  12095.28  9.35
543.3  130774.35  12324.62  9.42
544.7  132194.40  12558.67  9.50
546.1  134071.03  12837.82  9.58
547.5  135340.80  13048.96  9.64
549.0  137170.00  13302.67  9.70
550.4  138709.38  13511.15  9.74
551.8  140308.78  13697.54  9.76
553.2  141894.35  13847.75  9.76
554.6  143291.20  13936.00  9.73
556.0  144868.95  13995.76  9.66
557.4  146542.73  14013.29  9.56
558.8  148243.05  13992.81  9.44
560.2  149763.13  13914.55  9.29
561.6  151506.53  13817.39  9.12
563.0  153154.98  13677.16  8.93
564.4  154810.70  13494.76  8.72
565.8  156389.38  13274.57  8.49
567.2  158207.75  13040.47  8.24
568.6  159764.63  12760.21  7.99
570.0  161266.65  12457.57  7.72
571.4  163042.75  12167.21  7.46
572.8  164883.63  11887.86  7.21
574.2  166588.80  11608.32  6.97
575.6  168198.75  11352.43  6.75
577.0  169782.50  11121.14  6.55
578.4  171557.75  10931.92  6.37
579.8  173146.28  10753.71  6.21
581.2  174921.40  10608.65  6.06
582.5  176412.60  10460.02  5.93
583.9  177991.20  10342.87  5.81
585.3  179852.85  10256.86  5.70
586.7  181409.15  10167.42  5.60
588.1  182954.13  10096.78  5.52
589.5  184644.25  10052.70  5.44
590.9  186347.20  10022.51  5.38
592.3  188212.35  10021.12  5.32
593.7  189732.08  10013.73  5.28
595.0  191438.78  10026.71  5.24
596.4  192929.10  10033.17  5.20
597.8  194464.48  10037.86  5.16
599.2  196072.80  10039.04  5.12
600.6  197876.25  10038.93  5.07
602.0  199240.43  9999.45  5.02
603.3  201109.10  9968.15  4.96
604.7  202854.95  9904.87  4.88
606.1  204405.60  9813.51  4.80
607.5  206103.93  9714.35  4.71
608.9  207855.70  9603.51  4.62
610.2  209279.70  9474.30  4.53
611.6  210935.63  9349.18  4.43
613.0  212559.50  9223.23  4.34
614.4  214001.40  9090.01  4.25
615.8  215499.38  8978.08  4.17
617.1  217119.00  8882.44  4.09
618.5  218818.00  8810.37  4.03
619.9  220412.40  8753.16  3.97
621.3  222115.05  8717.08  3.92
622.6  223793.75  8694.82  3.89
624.0  225338.25  8685.84  3.85
625.4  226895.63  8692.61  3.83
626.8  228571.53  8722.35  3.82
628.1  229940.70  8752.85  3.81
629.5  231862.28  8806.41  3.80
630.9  233508.00  8846.34  3.79
632.2  234917.03  8869.36  3.78
633.6  236581.88  8887.71  3.76
635.0  238151.20  8877.49  3.73
636.3  239760.70  8849.03  3.69
637.7  241217.13  8776.86  3.64
639.1  242952.50  8690.33  3.58
640.4  244515.95  8571.53  3.51
641.8  245788.93  8432.75  3.43
643.2  247465.23  8296.99  3.35
644.5  248893.50  8156.53  3.28
645.9  250680.15  8035.41  3.21
647.2  252457.63  7939.56  3.14
648.6  254360.25  7873.20  3.10
650.0  255916.80  7816.32  3.05
651.3  256507.35  7753.98  3.02
652.7  257768.15  7707.48  2.99
654.0  259915.00  7680.44  2.95
655.4  261502.55  7628.54  2.92
656.8  261912.60  7545.91  2.88
658.1  263161.10  7487.97  2.85
659.5  265504.58  7463.08  2.81
660.8  267232.50  7418.14  2.78
662.2  268150.40  7354.45  2.74
663.5  269897.75  7317.94  2.71
664.9  271321.70  7285.42  2.69
666.2  272172.00  7258.77  2.67
667.6  274061.70  7295.38  2.66
668.9  275210.45  7341.00  2.67
670.3  276353.63  7393.98  2.68
671.6  278067.00  7479.51  2.69
673.0  279328.13  7576.02  2.71
674.3  280647.90  7687.01  2.74
675.7  282052.28  7829.69  2.78
677.0  283263.53  7981.44  2.82
678.4  284717.18  8166.45  2.87
679.7  285884.50  8358.59  2.92
681.1  287217.83  8578.13  2.99
682.4  288449.20  8811.80  3.05
683.8  289775.20  9078.26  3.13
685.1  290855.25  9382.26  3.23
686.4  292240.80  9745.17  3.33
687.8  293588.75  10193.04  3.47
689.1  294701.25  10770.27  3.65
690.5  296182.20  11544.09  3.90
691.8  297052.08  12572.73  4.23
693.1  298459.05  13969.66  4.68
694.5  299685.75  15776.37  5.26
695.8  300982.50  18032.30  5.99
697.1  302233.75  20763.60  6.87
698.5  303362.80  23984.17  7.91
699.8  304525.25  27665.23  9.08
701.1  305749.70  31762.28  10.39
702.5  306589.80  36160.32  11.79
703.8  307642.50  40834.29  13.27
705.1  308926.80  45713.26  14.80
706.5  310050.38  50716.24  16.36
707.8  311134.35  55785.60  17.93
709.1  312058.85  60865.18  19.50
710.5  313309.05  66008.43  21.07
711.8  314251.60  71073.71  22.62
713.1  315366.60  76158.11  24.15
714.4  316347.80  81173.27  25.66
715.8  317262.10  86112.41  27.14
717.1  318688.65  91118.61  28.59
718.4  319715.20  95935.57  30.01
719.7  320920.53  100701.27  31.38
721.0  321525.00  105167.57  32.71
722.4  322352.25  109586.56  34.00
723.7  323396.70  113924.32  35.23
725.0  324558.45  118163.51  36.41
726.3  325575.80  122194.18  37.53
727.6  326192.08  125920.09  38.60
729.0  327208.53  129607.91  39.61
730.3  328083.23  133070.03  40.56
731.6  329077.25  136410.82  41.45
732.9  329992.95  139537.84  42.29
734.2  330919.88  142502.46  43.06
735.5  332008.33  145408.70  43.80
736.8  332890.20  148049.61  44.47
738.1  333811.30  150543.60  45.10
739.5  334896.28  152962.36  45.67
740.8  335674.63  155089.45  46.20
742.1  336494.05  157113.61  46.69
743.4  337275.00  158988.57  47.14
744.7  338276.48  160874.00  47.56
746.0  339284.40  162609.39  47.93
747.3  339967.48  164065.95  48.26
748.6  340801.25  165500.40  48.56
749.9  341614.00  166824.42  48.83
751.2  342329.65  168025.95  49.08
752.5  343271.05  169232.34  49.30
753.8  343903.18  170239.95  49.50
755.1  344708.00  171226.59  49.67
756.4  345441.53  172094.52  49.82
757.7  346588.90  173123.10  49.95
759.0  348530.25  174513.64  50.07
760.3  349852.80  175541.39  50.18
761.6  351572.20  176726.35  50.27
762.9  352190.50  177317.34  50.35
764.2  352685.90  177787.99  50.41
765.5  353054.60  178176.60  50.47
766.8  353572.80  178618.51  50.52
768.1  354199.80  179077.01  50.56
769.3  354915.40  179557.52  50.59
770.6  355691.70  180064.02  50.62
771.9  356526.45  180586.19  50.65
773.2  356988.00  180922.06  50.68
774.5  357700.20  181367.58  50.70
775.8  358490.10  181834.68  50.72
777.1  359186.30  182235.81  50.74
778.4  359632.35  182511.22  50.75
779.6  360504.80  183013.71  50.77
780.9  361050.00  183365.71  50.79
782.2  361608.50  183703.35  50.80
783.5  362065.50  183952.18  50.81
784.8  362686.95  184314.71  50.82
786.0  363209.00  184605.58  50.83
787.3  363693.63  184887.75  50.84
788.6  364205.30  185194.83  50.85
789.9  364793.80  185513.71  50.85
791.2  365556.65  185926.93  50.86
792.4  366352.25  186351.46  50.87
793.7  366932.40  186675.46  50.87
795.0  367643.93  187083.18  50.89
796.2  368432.13  187500.20  50.89
797.5  369300.38  187957.50  50.90
798.8  370073.85  188377.93  50.90
800.0  370841.63  188794.82  50.91
801.3  371396.80  189086.30  50.91
802.6  372104.55  189458.86  50.92
803.8  372865.25  189855.91  50.92
805.1  373428.13  190175.38  50.93
806.4  373989.60  190492.74  50.94
807.7  374631.08  190830.87  50.94
808.9  375322.20  191191.08  50.94
810.2  375883.20  191521.44  50.95
811.4  376498.90  191842.98  50.95
812.7  377243.75  192223.57  50.95
814.0  378168.50  192723.09  50.96
815.2  378881.25  193106.08  50.97
816.5  379333.58  193368.27  50.98
817.7  379865.25  193668.94  50.98
819.0  380491.65  193993.08  50.98
820.2  380688.00  194140.57  51.00
821.5  381444.95  194560.89  51.01
822.7  381939.90  194800.65  51.00
824.0  382301.10  194998.94  51.01
825.2  382799.93  195315.15  51.02
826.5  383163.88  195524.00  51.03
827.7  383815.80  195866.99  51.03
829.0  384245.35  196100.03  51.04
830.2  384572.65  196298.60  51.04
831.5  385152.00  196589.91  51.04
832.7  385502.25  196806.21  51.05
834.0  385816.78  197004.27  51.06
835.2  386216.33  197240.88  51.07
836.4  386520.75  197441.74  51.08
837.7  386933.80  197692.69  51.09
838.9  387342.48  197975.22  51.11
840.1  387749.03  198224.99  51.12
841.4  388171.80  198488.88  51.13
842.6  388531.60  198719.70  51.15
843.8  388869.60  198938.63  51.16
845.1  389395.35  199257.73  51.17
846.3  389748.50  199504.53  51.19
847.5  390186.30  199745.04  51.19
848.8  390637.80  200004.81  51.20
850.0  390936.00  200228.21  51.22
851.2  391486.50  200531.01  51.22
852.5  391779.90  200769.10  51.25
853.7  392283.00  201068.19  51.26
854.9  392766.20  201335.56  51.26
856.1  393130.40  201618.97  51.29
857.4  393385.00  201733.51  51.28
858.6  393845.05  202012.76  51.29
859.8  394188.75  202235.39  51.30
861.0  394594.20  202487.55  51.32
862.2  395034.85  202747.87  51.32
863.5  395396.63  202941.88  51.33
864.7  395960.40  203249.58  51.33
865.9  396360.00  203494.16  51.34
867.1  396702.50  203652.62  51.34
868.3  397004.40  203877.14  51.35
869.5  397465.10  204151.25  51.36
870.8  397953.00  204445.89  51.37
872.0  398533.05  204731.56  51.37
873.2  398955.75  204965.87  51.38
874.4  399376.58  205201.12  51.38
875.6  399832.30  205422.90  51.38
876.8  400265.95  205674.40  51.38
878.0  400738.20  205957.07  51.39
879.2  401265.75  206240.87  51.40
880.4  401734.50  206515.52  51.41
881.6  402238.70  206735.13  51.40
882.8  402662.40  206984.06  51.40
884.0  403266.35  207290.23  51.40
885.2  403858.50  207573.37  51.40
886.5  404445.20  207880.23  51.40
887.7  404932.45  208146.37  51.40
888.8  405626.10  208492.96  51.40
890.0  406132.85  208778.51  51.41
891.2  406845.40  209097.35  51.39
892.4  407467.20  209449.58  51.40
893.6  408138.60  209754.87  51.39
894.8  409083.75  210231.39  51.39
896.0  409902.50  210674.67  51.40
897.2  410858.50  211097.16  51.38
898.4  411655.20  211472.61  51.37
899.6  412176.00  211806.07  51.39
900.8  412738.88  212052.85  51.38
902.0  412933.95  212188.80  51.39
903.2  413263.20  212334.85  51.38
904.3  413535.60  212509.78  51.39
905.5  414238.15  212836.63  51.38
906.7  414956.00  213146.51  51.37
907.9  415576.35  213463.97  51.37
909.1  415835.78  213620.40  51.37
910.2  416027.03  213758.25  51.38
911.4  416379.60  213859.40  51.36
912.6  416673.40  213962.73  51.35
913.8  416870.18  214087.59  51.36
915.0  417333.00  214311.86  51.35
916.2  417641.25  214386.16  51.33
917.3  417672.23  214418.66  51.34
918.5  418141.40  214538.62  51.31
919.7  418329.00  214649.51  51.31
920.8  418363.63  214684.61  51.32
922.0  418533.50  214699.10  51.30
923.2  418782.00  214806.80  51.29
924.4  419137.88  214900.33  51.27
925.5  419637.30  215057.18  51.25
926.7  420291.00  215330.66  51.23
927.9  421219.80  215762.48  51.22
929.0  422761.95  216470.26  51.20
930.2  425083.20  217562.09  51.18
931.4  427650.98  218796.54  51.16
932.5  430512.50  220157.01  51.14
933.7  432089.40  220863.90  51.12
934.9  432853.75  221173.67  51.10
936.0  432469.38  220890.37  51.08
937.2  430335.45  219686.09  51.05
938.3  428739.75  218667.22  51.00
939.5  427230.00  217826.47  50.99
940.7  427515.30  217848.05  50.96
941.8  429089.55  218542.79  50.93
943.0  430737.75  219217.63  50.89
944.2  431601.95  219496.59  50.86
945.3  431262.00  219159.57  50.82
946.5  430656.75  218610.46  50.76
947.6  430982.00  218538.57  50.71
948.8  430929.53  218353.89  50.67
949.9  431121.60  218264.24  50.63
951.1  430727.70  217861.82  50.58
952.2  430848.00  217491.20  50.48
953.4  430458.25  216988.78  50.41
954.5  430466.40  216741.50  50.35
955.7  430542.00  216423.60  50.27
956.8  430570.40  216119.45  50.19
958.0  430153.00  215669.28  50.14
959.1  430231.85  215462.04  50.08
960.3  430053.25  215147.09  50.03
961.4  429930.15  214937.15  49.99
962.6  430111.50  214939.30  49.97
963.7  430054.73  214694.42  49.92
964.9  430005.83  214623.98  49.91
966.0  429739.43  214596.62  49.94
967.2  430036.20  214650.81  49.91
968.3  430089.75  214542.23  49.88
969.5  429986.35  214410.06  49.86
970.6  430200.25  214459.43  49.85
971.8  430573.15  214582.21  49.84
972.9  430558.28  214614.54  49.85
974.0  430839.80  214833.28  49.86
975.2  430840.88  214856.77  49.87
976.3  430947.05  214835.01  49.85
977.5  431497.68  214839.42  49.79
978.6  431707.90  214948.96  49.79
979.7  431945.33  215088.83  49.80
980.9  431986.15  215241.53  49.83
982.0  431955.00  215291.86  49.84
983.2  431731.63  215201.61  49.85
984.3  431777.20  214961.55  49.79
985.4  431616.95  215163.78  49.85
986.6  431729.88  214978.84  49.79
987.7  432425.18  215594.53  49.86
988.9  432943.20  215683.71  49.82
990.0  433709.20  216106.11  49.83
993.1  374808.41  184699.34  49.28
996.9  375880.15  185698.57  49.40
1000.7  377278.01  186822.82  49.52
1004.5  378034.58  187642.14  49.64
1008.4  377944.92  188047.93  49.76
1012.2  378148.00  188565.52  49.87
1016.0  378432.00  189088.08  49.97
1019.8  378863.10  189654.85  50.06
1023.7  379189.02  190108.83  50.14
1027.5  379215.07  190393.55  50.21
1031.3  379737.48  190876.42  50.27
1035.1  379766.98  191101.33  50.32
1038.9  379885.73  191325.86  50.36
1042.7  379761.25  191440.48  50.41
1046.5  379663.17  191513.69  50.44
1050.3  379769.94  191674.69  50.47
1054.2  379533.00  191685.30  50.51
1058.0  379044.87  191509.96  50.52
1061.8  378944.71  191524.41  50.54
1065.6  378810.43  191471.08  50.55
1069.4  379001.27  191543.36  50.54
1073.2  378796.23  191406.88  50.53
1077.0  378405.08  191170.60  50.52
1080.8  377845.83  190815.49  50.50
1084.6  376620.53  190106.48  50.48
1088.4  375857.82  189641.75  50.46
1092.2  374985.00  189080.82  50.42
1096.0  374407.11  188641.03  50.38
1099.8  373978.80  188242.77  50.34
1103.6  373378.12  187742.35  50.28
1107.4  372489.08  187082.35  50.22
1111.2  372288.00  186768.79  50.17
1114.9  371605.50  186172.22  50.10
1118.7  370967.85  185530.60  50.01
1122.5  370222.67  184737.76  49.90
1126.3  369084.63  183635.72  49.75
1130.1  368559.63  182608.97  49.55
1133.9  366977.10  180725.68  49.25
1137.7  365582.50  178658.24  48.87
1141.4  363808.14  176169.61  48.42
1145.2  363145.37  174036.49  47.92
1149.0  362057.50  171824.35  47.46
1152.8  360443.10  169596.46  47.05
1156.6  358776.37  167744.95  46.75
1160.3  357043.00  166224.09  46.56
1164.1  354557.90  164646.65  46.44
1167.9  352714.58  163581.03  46.38
1171.7  351421.88  162868.50  46.35
1175.4  350281.47  162273.23  46.33
1179.2  349313.60  161721.74  46.30
1183.0  349083.33  161467.15  46.25
1186.7  348480.30  161078.17  46.22
1190.5  347301.53  160462.82  46.20
1194.3  346029.77  159854.26  46.20
1198.0  344862.93  159334.08  46.20
1201.8  343438.68  158737.61  46.22
1205.6  342213.67  158291.22  46.26
1209.3  341192.28  158046.47  46.32
1213.1  340124.10  157802.94  46.40
1216.8  339057.40  157621.43  46.49
1220.6  337917.07  157416.36  46.58
1224.3  336636.83  157136.46  46.68
1228.1  335387.20  156888.72  46.78
1231.9  334155.10  156612.29  46.87
1235.6  332713.05  156170.41  46.94
1239.4  331376.00  155783.64  47.01
1243.1  330130.42  155373.68  47.06
1246.9  328923.53  154949.40  47.11
1250.6  327964.80  154606.68  47.14
1254.3  326871.23  154182.59  47.17
1258.1  325890.72  153767.77  47.18
1261.8  324618.00  153184.61  47.19
1265.6  323184.13  152471.81  47.18
1269.3  321625.78  151678.63  47.16
1273.1  321520.73  151526.26  47.13
1276.8  321850.00  151530.27  47.08
1280.6  321915.97  151350.10  47.02
1284.3  320652.80  150521.28  46.94
1288.0  319148.75  149512.02  46.85
1291.8  317735.73  148458.63  46.72
1295.5  316197.20  147329.60  46.59
1299.2  314857.73  146216.02  46.44
1302.9  313399.73  144943.44  46.25
1306.7  311838.45  143531.14  46.03
1310.4  310370.06  142009.56  45.75
1314.1  309004.85  140449.11  45.45
1317.9  307786.25  138809.36  45.10
1321.6  306370.34  136967.10  44.71
1325.3  304713.15  134879.24  44.26
1329.0  303328.32  132833.27  43.79
1332.8  301208.60  130337.29  43.27
1336.5  299333.53  127938.55  42.74
1340.2  298904.67  126163.56  42.21
1343.9  298357.08  124347.68  41.68
1347.6  297582.45  122462.83  41.15
1351.4  297600.00  120958.56  40.64
1355.1  297769.27  119553.13  40.15
