/*** Spectra Vista SIG Data ***/
name= 29_20220825_QUPH_5_avg.sig
comm= Averaged Ref/Tar of files: HR.082522.0008_moc.sig,HR.082522.0009_moc.sig
data=
337.3  3440.67  317.60  9.23
338.8  3559.40  307.84  8.65
340.3  3748.00  309.21  8.25
341.8  3962.83  301.79  7.62
343.2  4144.00  293.04  7.07
344.7  4350.30  298.55  6.86
346.2  4493.50  285.95  6.36
347.7  4692.78  291.01  6.20
349.2  4888.80  287.28  5.88
350.6  5165.98  279.11  5.40
352.1  5477.83  264.37  4.83
353.6  5760.20  277.60  4.82
355.1  6039.05  282.87  4.68
356.6  6358.35  288.42  4.54
358.0  6635.20  287.10  4.33
359.5  6942.20  296.64  4.27
361.0  7301.70  299.25  4.10
362.5  7670.05  298.61  3.89
364.0  8048.12  309.69  3.85
365.4  8411.27  314.72  3.74
366.9  8784.75  331.50  3.77
368.4  9146.22  349.12  3.82
369.9  9548.83  356.73  3.74
371.3  10003.60  363.12  3.63
372.8  10407.60  371.70  3.57
374.3  10839.58  381.63  3.52
375.8  11283.07  393.47  3.49
377.2  11728.40  408.88  3.49
378.7  12158.80  408.88  3.36
380.2  12589.20  414.26  3.29
381.7  13134.15  416.19  3.17
383.1  13618.73  436.59  3.21
384.6  14152.88  442.39  3.13
386.1  14647.55  459.43  3.14
387.6  15163.87  468.93  3.09
389.0  15669.07  482.40  3.08
390.5  16177.80  488.52  3.02
392.0  16769.30  507.84  3.03
393.4  17359.02  520.25  3.00
394.9  17922.00  548.10  3.06
396.4  18509.25  564.08  3.05
397.9  19065.00  574.00  3.01
399.3  19669.08  597.67  3.04
400.8  20255.72  608.17  3.00
402.2  20932.97  633.39  3.03
403.7  21555.15  650.03  3.02
405.2  22175.58  677.11  3.05
406.6  22797.87  700.64  3.07
408.1  23413.60  727.72  3.11
409.6  24057.20  746.30  3.10
411.0  24751.77  768.60  3.11
412.5  25448.15  791.35  3.11
414.0  26120.75  823.15  3.15
415.4  26871.00  850.65  3.17
416.9  27563.25  878.94  3.19
418.4  28286.40  900.14  3.18
419.8  29035.07  928.20  3.20
421.3  29803.40  958.99  3.22
422.7  30624.00  991.80  3.24
424.2  31443.75  1019.25  3.24
425.7  32230.53  1049.72  3.26
427.1  33021.50  1076.10  3.26
428.6  33862.33  1106.70  3.27
430.0  34639.47  1132.06  3.27
431.5  35541.40  1167.14  3.28
432.9  36458.97  1192.51  3.27
434.4  37388.25  1229.09  3.29
435.9  38266.67  1262.80  3.30
437.3  39141.67  1295.25  3.31
438.8  40010.05  1333.07  3.33
440.2  40910.10  1369.06  3.35
441.7  41924.13  1409.68  3.36
443.1  42877.00  1454.85  3.39
444.6  43885.00  1501.26  3.42
446.0  44876.20  1549.22  3.45
447.5  45875.13  1600.12  3.49
448.9  46844.20  1656.36  3.54
450.4  47880.47  1714.58  3.58
451.8  48793.33  1770.60  3.63
453.3  49763.45  1825.27  3.67
454.7  50820.37  1878.76  3.70
456.2  51727.38  1928.21  3.73
457.6  52746.00  1972.67  3.74
459.1  53770.82  2017.41  3.75
460.5  54748.33  2065.10  3.77
462.0  55858.25  2112.61  3.78
463.4  56937.20  2159.12  3.79
464.8  57969.75  2200.58  3.80
466.3  59007.85  2244.00  3.80
467.7  60053.33  2288.60  3.81
469.2  61169.95  2339.27  3.82
470.6  62194.67  2385.69  3.84
472.0  63271.82  2432.16  3.84
473.5  64315.83  2483.18  3.86
474.9  65398.00  2536.50  3.88
476.4  66604.80  2594.88  3.90
477.8  67744.00  2656.40  3.92
479.2  68817.00  2714.40  3.94
480.7  69972.15  2779.20  3.97
482.1  71161.43  2846.65  4.00
483.6  72404.13  2918.90  4.03
485.0  73533.00  2987.64  4.06
486.4  74787.00  3064.23  4.10
487.9  75923.25  3144.38  4.14
489.3  77159.00  3230.67  4.19
490.7  78287.92  3333.74  4.26
492.2  79585.80  3448.62  4.33
493.6  80741.03  3562.88  4.41
495.0  81900.00  3688.43  4.50
496.5  83138.77  3830.18  4.61
497.9  84302.98  3976.93  4.72
499.3  85525.90  4150.09  4.85
500.7  86835.43  4351.05  5.01
502.2  88028.27  4569.80  5.19
503.6  89322.80  4815.08  5.39
505.0  90449.10  5077.69  5.61
506.5  91821.70  5381.06  5.86
507.9  93091.12  5716.52  6.14
509.3  94542.40  6094.64  6.45
510.7  95852.25  6502.28  6.78
512.2  97310.60  6956.69  7.15
513.6  98842.80  7456.26  7.54
515.0  100333.67  7997.30  7.97
516.4  101757.60  8561.70  8.41
517.8  103442.08  9192.55  8.89
519.3  104802.45  9821.54  9.37
520.7  106424.07  10495.35  9.86
522.1  107775.20  11157.64  10.35
523.5  109207.67  11834.46  10.84
524.9  110660.70  12501.99  11.30
526.3  112092.63  13138.86  11.72
527.8  113691.60  13774.86  12.12
529.2  114988.27  14366.58  12.49
530.6  116601.87  14973.09  12.84
532.0  118384.00  15559.60  13.14
533.4  119767.70  16045.65  13.40
534.8  120717.80  16428.10  13.61
536.3  122481.20  16909.32  13.81
537.7  124563.60  17410.68  13.98
539.1  126109.40  17814.56  14.13
540.5  127400.63  18159.35  14.25
541.9  129265.95  18588.02  14.38
543.3  130589.15  18934.39  14.50
544.7  132004.40  19300.20  14.62
546.1  133849.28  19724.49  14.74
547.5  135146.67  20054.72  14.84
549.0  137023.33  20449.00  14.92
550.4  138535.83  20784.63  15.00
551.8  140129.85  21092.10  15.05
553.2  141726.75  21364.81  15.07
554.6  143124.80  21561.28  15.06
556.0  144706.80  21732.93  15.02
557.4  146353.43  21866.29  14.94
558.8  148039.50  21958.56  14.83
560.2  149531.42  21976.33  14.70
561.6  151252.85  21975.90  14.53
563.0  152893.10  21922.08  14.34
564.4  154536.40  21834.28  14.13
565.8  156109.58  21698.38  13.90
567.2  157917.50  21555.90  13.65
568.6  159478.25  21341.10  13.38
570.0  160959.35  21082.98  13.10
571.4  162744.40  20842.51  12.81
572.8  164561.00  20601.28  12.52
574.2  166245.33  20357.12  12.25
575.6  167835.00  20121.75  11.99
577.0  169402.07  19903.82  11.75
578.4  171186.17  19740.18  11.53
579.8  172752.30  19567.17  11.33
581.2  174527.85  19448.32  11.14
582.5  175983.60  19314.36  10.98
583.9  177558.53  19212.76  10.82
585.3  179415.60  19158.71  10.68
586.7  180936.17  19088.49  10.55
588.1  182489.33  19036.25  10.43
589.5  184191.00  19019.35  10.33
590.9  185876.00  19031.52  10.24
592.3  187739.63  19076.00  10.16
593.7  189237.75  19108.83  10.10
595.0  190921.50  19168.25  10.04
596.4  192411.10  19212.62  9.99
597.8  193954.55  19262.09  9.93
599.2  195544.80  19316.88  9.88
600.6  197352.13  19371.89  9.82
602.0  198698.95  19358.85  9.74
603.3  200549.03  19357.53  9.65
604.7  202280.60  19306.37  9.54
606.1  203816.80  19212.36  9.43
607.5  205505.15  19105.10  9.30
608.9  207256.23  18978.74  9.16
610.2  208684.35  18804.56  9.01
611.6  210329.20  18642.56  8.86
613.0  211933.33  18467.10  8.71
614.4  213361.20  18274.80  8.57
615.8  214860.75  18102.83  8.43
617.1  216442.80  17960.46  8.30
618.5  218122.40  17848.80  8.18
619.9  219676.10  17757.77  8.08
621.3  221351.25  17710.11  8.00
622.6  222985.50  17690.00  7.93
624.0  224488.50  17690.25  7.88
625.4  226002.15  17709.62  7.84
626.8  227631.95  17769.12  7.81
628.1  229021.28  17831.28  7.79
629.5  230942.38  17939.54  7.77
630.9  232613.33  18023.06  7.75
632.2  234039.98  18064.80  7.72
633.6  235719.92  18097.70  7.68
635.0  237314.13  18063.44  7.61
636.3  238889.93  17971.24  7.52
637.7  240319.42  17805.90  7.41
639.1  242013.33  17591.00  7.27
640.4  243537.93  17307.36  7.11
641.8  244772.90  16965.84  6.93
643.2  246413.77  16626.26  6.75
644.5  247847.17  16264.40  6.56
645.9  249579.30  15937.11  6.39
647.2  251319.48  15645.32  6.23
648.6  253206.00  15418.35  6.09
650.0  254736.00  15206.40  5.97
651.3  255335.67  14973.20  5.86
652.7  256654.07  14784.27  5.76
654.0  258831.07  14656.00  5.66
655.4  260394.17  14480.35  5.56
656.8  260671.67  14210.20  5.45
658.1  261852.07  13965.04  5.33
659.5  264293.05  13752.69  5.20
660.8  266115.00  13468.50  5.06
662.2  267082.67  13126.40  4.91
663.5  268797.63  12833.71  4.77
664.9  270135.67  12566.06  4.65
666.2  270943.60  12321.00  4.55
667.6  272796.62  12162.66  4.46
668.9  274024.13  12037.36  4.39
670.3  275242.33  11948.25  4.34
671.6  276842.75  11920.95  4.31
673.0  278067.00  11938.65  4.29
674.3  279344.00  12004.72  4.30
675.7  280735.13  12114.76  4.32
677.0  281890.63  12254.71  4.35
678.4  283329.60  12457.34  4.40
679.7  284474.90  12699.62  4.46
681.1  285841.82  13028.67  4.56
682.4  287049.53  13445.64  4.68
683.8  288331.33  13984.88  4.85
685.1  289350.75  14677.73  5.07
686.4  290716.40  15593.28  5.36
687.8  292068.33  16763.15  5.74
689.1  293180.83  18236.10  6.22
690.5  294602.80  20083.71  6.82
691.8  295456.35  22313.18  7.55
693.1  296866.00  25028.25  8.43
694.5  298100.83  28164.50  9.45
695.8  299390.00  31686.20  10.58
697.1  300648.83  35549.15  11.82
698.5  301758.67  39715.92  13.16
699.8  302907.77  44134.62  14.57
701.1  304117.10  48764.86  16.03
702.5  304921.10  53434.48  17.52
703.8  305940.00  58185.00  19.02
705.1  307162.70  62955.95  20.50
706.5  308267.83  67675.43  21.95
707.8  309324.00  72324.60  23.38
709.1  310228.20  76856.05  24.77
710.5  311433.75  81388.02  26.13
711.8  312348.67  85761.34  27.46
713.1  313419.07  90096.46  28.75
714.4  314355.67  94320.08  30.00
715.8  315232.80  98436.66  31.23
717.1  316610.10  102613.32  32.41
718.4  317617.07  106570.24  33.55
719.7  318800.38  110478.11  34.65
721.0  319365.00  114066.00  35.72
722.4  320179.93  117629.82  36.74
723.7  321207.20  121141.26  37.71
725.0  322301.10  124546.64  38.64
726.3  323323.73  127778.92  39.52
727.6  323917.18  130691.39  40.35
729.0  324877.82  133606.90  41.13
730.3  325696.30  136317.21  41.85
731.6  326661.93  138941.67  42.53
732.9  327510.28  141400.28  43.17
734.2  328387.58  143709.50  43.76
735.5  329475.47  145986.74  44.31
736.8  330314.80  148025.46  44.81
738.1  331206.20  149958.16  45.28
739.5  332212.85  151843.18  45.71
740.8  332957.90  153482.73  46.10
742.1  333768.80  155056.82  46.46
743.4  334583.33  156540.00  46.79
744.7  335649.88  158058.72  47.09
746.0  336580.40  159421.08  47.36
747.3  337168.23  160526.73  47.61
748.6  337977.33  161643.05  47.83
749.9  338797.33  162702.80  48.02
751.2  339583.90  163704.23  48.21
752.5  340560.17  164734.54  48.37
753.8  341217.45  165571.04  48.52
755.1  341986.67  166400.00  48.66
756.4  342610.25  167112.76  48.78
757.7  343651.12  167980.37  48.88
759.0  345540.60  169224.68  48.97
760.3  346790.40  170137.44  49.06
761.6  348442.27  171202.92  49.13
762.9  349051.83  171729.65  49.20
764.2  349484.80  172127.72  49.25
765.5  349793.58  172462.74  49.30
766.8  350281.60  172850.56  49.35
768.1  350847.87  173277.60  49.39
769.3  351505.23  173724.95  49.42
770.6  352225.90  174201.17  49.46
771.9  353013.97  174690.64  49.49
773.2  353466.40  175006.48  49.51
774.5  354144.27  175426.68  49.54
775.8  354874.23  175875.37  49.56
777.1  355493.97  176264.22  49.58
778.4  355885.57  176520.58  49.60
779.6  356700.00  177006.43  49.62
780.9  357260.00  177330.00  49.64
782.2  357756.67  177652.20  49.66
783.5  358110.67  177882.10  49.67
784.8  358700.25  178230.15  49.69
786.0  359138.73  178508.19  49.70
787.3  359570.40  178790.59  49.72
788.6  360025.62  179098.37  49.75
789.9  360554.13  179392.64  49.75
791.2  361278.47  179794.46  49.77
792.4  361999.55  180201.78  49.78
793.7  362523.60  180506.96  49.79
795.0  363190.30  180909.63  49.81
796.2  363880.20  181324.05  49.83
797.5  364658.80  181764.54  49.85
798.8  365424.15  182162.57  49.85
800.0  366144.42  182570.38  49.86
801.3  366631.60  182882.60  49.88
802.6  367287.90  183250.31  49.89
803.8  367958.15  183629.63  49.91
805.1  368499.25  183956.15  49.92
806.4  369036.60  184251.60  49.93
807.7  369642.15  184595.36  49.94
808.9  370232.73  184926.81  49.95
810.2  370794.43  185260.11  49.96
811.4  371326.00  185566.76  49.97
812.7  372016.67  185981.25  49.99
814.0  372901.30  186458.88  50.00
815.2  373634.67  186839.60  50.01
816.5  374077.38  187109.15  50.02
817.7  374623.27  187408.76  50.03
819.0  375147.30  187721.38  50.04
820.2  375290.67  187880.00  50.06
821.5  376072.07  188306.91  50.07
822.7  376476.72  188543.21  50.08
824.0  376869.60  188759.16  50.09
825.2  377443.80  189047.93  50.09
826.5  377821.80  189260.74  50.09
827.7  378372.97  189612.31  50.11
829.0  378820.63  189852.09  50.12
830.2  379116.67  190056.13  50.13
831.5  379668.93  190339.31  50.13
832.7  380070.25  190540.98  50.13
834.0  380454.62  190761.80  50.14
835.2  380876.28  190991.41  50.15
836.4  381203.53  191195.73  50.16
837.7  381604.13  191445.24  50.17
838.9  382110.35  191738.11  50.18
840.1  382501.35  191975.27  50.19
841.4  383050.80  192253.72  50.19
842.6  383445.20  192497.12  50.20
843.8  383869.07  192735.40  50.21
845.1  384429.73  193053.68  50.22
846.3  384840.33  193317.66  50.23
847.5  385294.00  193576.74  50.24
848.8  385755.60  193817.16  50.24
850.0  386132.83  194077.17  50.26
851.2  386748.90  194398.11  50.26
852.5  387171.73  194661.82  50.28
853.7  387715.50  194967.00  50.29
854.9  388227.33  195232.96  50.29
856.1  388711.70  195534.17  50.30
857.4  388908.55  195702.26  50.32
858.6  389474.33  195954.56  50.31
859.8  389980.00  196206.38  50.31
861.0  390452.40  196475.76  50.32
862.2  391007.27  196749.82  50.32
863.5  391398.37  196987.25  50.33
864.7  391991.60  197297.76  50.33
865.9  392445.33  197563.44  50.34
867.1  392797.27  197787.71  50.35
868.3  393311.80  198038.13  50.35
869.5  393833.90  198308.91  50.35
870.8  394434.00  198624.60  50.36
872.0  395027.65  198926.30  50.36
873.2  395491.10  199188.72  50.36
874.4  395980.65  199475.06  50.37
875.6  396375.38  199692.78  50.38
876.8  397013.07  199963.61  50.37
878.0  397581.07  200271.12  50.37
879.2  398152.60  200558.49  50.37
880.4  398668.25  200833.80  50.38
881.6  399250.38  201102.44  50.37
882.8  399694.93  201331.20  50.37
884.0  400380.52  201685.12  50.37
885.2  400964.40  201990.64  50.38
886.5  401602.00  202364.76  50.39
887.7  402231.70  202646.28  50.38
888.8  402948.70  203013.86  50.38
890.0  403575.07  203316.04  50.38
891.2  404284.27  203628.84  50.37
892.4  404933.20  203961.66  50.37
893.6  405633.50  204300.54  50.37
894.8  406574.83  204786.25  50.37
896.0  407586.67  205249.00  50.36
897.2  408507.67  205711.35  50.36
898.4  409336.40  206134.50  50.36
899.6  410029.25  206420.40  50.34
900.8  410454.67  206675.17  50.35
902.0  410759.30  206819.91  50.35
903.2  411165.05  207000.59  50.34
904.3  411627.20  207186.18  50.33
905.5  412375.23  207543.82  50.33
906.7  413064.33  207886.60  50.33
907.9  413618.80  208191.20  50.33
909.1  414006.30  208349.96  50.33
910.2  414329.60  208499.06  50.32
911.4  414620.70  208669.50  50.33
912.6  414971.70  208774.28  50.31
913.8  415268.25  208915.67  50.31
915.0  415750.30  209166.30  50.31
916.2  416078.00  209340.30  50.31
917.3  416087.70  209362.86  50.32
918.5  416406.73  209487.02  50.31
919.7  416750.40  209611.77  50.30
920.8  416900.35  209620.80  50.28
922.0  417186.00  209697.95  50.26
923.2  417508.00  209827.80  50.26
924.4  417708.00  209997.90  50.27
925.5  418187.53  210085.22  50.24
926.7  418867.25  210401.78  50.23
927.9  419822.00  210826.80  50.22
929.0  421339.50  211572.27  50.21
930.2  423782.33  212631.66  50.17
931.4  426476.25  213902.10  50.16
932.5  429364.47  215287.56  50.14
933.7  430921.02  216044.70  50.14
934.9  431666.67  216329.75  50.11
936.0  431320.50  216086.98  50.10
937.2  429177.30  214886.46  50.07
938.3  427569.70  213952.00  50.04
939.5  426045.60  213090.48  50.02
940.7  426312.00  213156.00  50.00
941.8  428037.00  213878.16  49.97
943.0  429602.50  214598.10  49.95
944.2  430566.93  214942.52  49.92
945.3  430397.50  214630.65  49.87
946.5  429468.30  214108.65  49.85
947.6  429710.67  214117.96  49.83
948.8  429700.70  213893.16  49.78
949.9  430068.80  213744.72  49.70
951.1  429791.92  213398.71  49.65
952.2  429760.00  213057.60  49.58
953.4  429422.00  212721.40  49.54
954.5  429483.60  212537.52  49.49
955.7  429399.60  212315.04  49.44
956.8  429263.00  211973.12  49.38
958.0  428971.67  211576.80  49.32
959.1  428877.50  211233.46  49.25
960.3  428673.40  210887.08  49.20
961.4  428757.40  210719.72  49.15
962.6  428992.67  210836.15  49.15
963.7  428664.55  210636.05  49.14
964.9  428583.35  210559.77  49.13
966.0  428453.55  210266.28  49.08
967.2  428627.40  210263.40  49.06
968.3  428552.10  210133.44  49.03
969.5  428681.67  209960.83  48.98
970.6  428660.38  210134.06  49.02
971.8  428776.60  210196.35  49.02
972.9  428789.00  210064.98  48.99
974.0  429101.67  210075.14  48.96
975.2  428907.83  209928.33  48.94
976.3  429034.92  209737.13  48.89
977.5  428850.45  209660.22  48.89
978.6  428907.20  209892.46  48.94
979.7  428972.25  209984.04  48.95
980.9  428979.98  209950.68  48.94
982.0  429075.30  209834.14  48.90
983.2  428836.38  209683.62  48.90
984.3  428876.93  209471.76  48.84
985.4  429302.65  209559.87  48.81
986.6  429068.67  209539.45  48.84
987.7  430468.50  210016.45  48.79
988.9  430645.20  209991.24  48.76
990.0  431283.53  210596.38  48.83
993.1  375595.33  180247.01  47.99
996.9  376157.45  180905.24  48.09
1000.7  377214.95  181779.16  48.19
1004.5  377804.25  182477.47  48.30
1008.4  377581.21  182804.27  48.41
1012.2  377625.96  183209.51  48.52
1016.0  377731.20  183598.13  48.61
1019.8  377892.90  183988.62  48.69
1023.7  377899.00  184245.64  48.76
1027.5  377564.43  184324.14  48.82
1031.3  377780.95  184651.34  48.88
1035.1  377612.84  184751.40  48.93
1038.9  377621.38  184941.45  48.98
1042.7  377492.08  185072.16  49.03
1046.5  377347.17  185157.46  49.07
1050.3  377438.33  185317.76  49.10
1054.2  377152.42  185318.18  49.14
1058.0  376674.32  185174.26  49.16
1061.8  376575.37  185218.54  49.18
1065.6  376287.63  185125.47  49.20
1069.4  376284.20  185161.35  49.21
1073.2  375860.06  184953.61  49.21
1077.0  375372.55  184680.92  49.20
1080.8  374945.83  184398.86  49.18
1084.6  373931.25  183855.47  49.17
1088.4  373287.13  183524.16  49.16
1092.2  372469.50  183049.98  49.14
1096.0  371864.64  182673.76  49.12
1099.8  371395.92  182298.04  49.08
1103.6  370716.53  181826.17  49.05
1107.4  369768.76  181184.59  49.00
1111.2  369490.30  180870.45  48.95
1114.9  368836.42  180320.72  48.89
1118.7  368218.13  179705.75  48.80
1122.5  367536.00  178999.17  48.70
1126.3  366445.45  177989.45  48.57
1130.1  365946.85  177035.93  48.38
1133.9  364335.30  175296.75  48.11
1137.7  362909.70  173419.32  47.79
1141.4  361082.04  171146.92  47.40
1145.2  360363.89  169206.40  46.95
1149.0  359256.04  167143.65  46.52
1152.8  357595.30  165026.86  46.15
1156.6  355947.90  163215.07  45.85
1160.3  354196.00  161709.49  45.66
1164.1  351771.07  160159.83  45.53
1167.9  349959.38  159103.30  45.46
1171.7  348657.75  158352.75  45.42
1175.4  347446.03  157710.24  45.39
1179.2  346385.48  157090.84  45.35
1183.0  346077.67  156795.05  45.31
1186.7  345581.60  156431.05  45.27
1190.5  344579.33  155883.35  45.24
1194.3  343380.93  155311.58  45.23
1198.0  342123.93  154742.09  45.23
1201.8  340623.05  154081.73  45.24
1205.6  339377.33  153620.37  45.27
1209.3  338462.22  153398.51  45.32
1213.1  337523.10  153219.03  45.40
1216.8  336538.40  153100.72  45.49
1220.6  335412.00  152924.94  45.59
1224.3  334166.58  152675.41  45.69
1228.1  332884.60  152444.28  45.79
1231.9  331605.75  152138.40  45.88
1235.6  330115.20  151702.16  45.95
1239.4  328749.88  151316.15  46.03
1243.1  327500.41  150930.34  46.09
1246.9  326285.73  150516.12  46.13
1250.6  325274.80  150172.03  46.17
1254.3  324217.48  149759.12  46.19
1258.1  323230.60  149367.11  46.21
1261.8  321910.67  148807.27  46.23
1265.6  320486.35  148139.57  46.22
1269.3  319053.18  147445.77  46.21
1273.1  319029.48  147382.35  46.20
1276.8  319275.20  147402.81  46.17
1280.6  319068.17  147153.09  46.12
1284.3  317618.80  146271.21  46.05
1288.0  316160.28  145337.78  45.97
1291.8  314893.43  144437.53  45.87
1295.5  313535.20  143443.77  45.75
1299.2  312232.86  142439.05  45.62
1302.9  310746.31  141245.01  45.45
1306.7  309169.58  139902.70  45.25
1310.4  307642.78  138462.22  45.01
1314.1  306250.63  136988.04  44.73
1317.9  304987.92  135444.33  44.41
1321.6  303559.88  133704.03  44.05
1325.3  301881.30  131728.15  43.64
1329.0  300516.18  129797.71  43.19
1332.8  298390.40  127432.80  42.71
1336.5  296570.27  125169.58  42.21
1340.2  296189.83  123507.59  41.70
1343.9  295726.04  121811.15  41.19
