/*** Spectra Vista SIG Data ***/
name= 21_20220824_BENI_69_avg.sig
comm= Averaged Ref/Tar of files: HR.082422.0059_moc.sig,HR.082422.0060_moc.sig,HR.082422.0061_moc.sig
data=
337.3  3523.38  370.53  10.52
338.8  3703.70  371.97  10.04
340.3  3841.70  356.06  9.27
341.8  4023.80  352.08  8.75
343.2  4173.60  340.40  8.16
344.7  4350.30  329.83  7.58
346.2  4534.35  321.35  7.09
347.7  4758.33  327.71  6.89
349.2  4951.80  304.92  6.16
350.6  5178.23  306.04  5.91
352.1  5465.93  302.47  5.53
353.6  5794.90  298.42  5.15
355.1  6061.50  299.71  4.94
356.6  6391.13  301.53  4.72
358.0  6635.20  316.87  4.78
359.5  6921.60  317.24  4.58
361.0  7241.85  328.18  4.53
362.5  7640.78  333.74  4.37
364.0  8000.33  329.76  4.12
365.4  8373.80  327.83  3.91
366.9  8757.13  337.95  3.86
368.4  9109.85  358.21  3.93
369.9  9485.78  371.14  3.91
371.3  9905.70  385.37  3.89
372.8  10301.40  395.60  3.84
374.3  10750.00  395.96  3.68
375.8  11184.25  400.66  3.58
377.2  11620.80  403.50  3.47
378.7  12024.30  416.05  3.46
380.2  12481.60  424.12  3.40
381.7  12972.00  435.10  3.35
383.1  13475.00  441.08  3.27
384.6  14000.03  453.18  3.24
386.1  14485.40  457.62  3.16
387.6  14957.25  478.81  3.20
389.0  15463.60  487.76  3.15
390.5  15956.55  502.68  3.15
392.0  16531.25  512.25  3.10
393.4  17131.30  524.62  3.06
394.9  17669.70  540.27  3.06
396.4  18241.88  557.18  3.05
397.9  18783.13  574.00  3.06
399.3  19373.63  592.61  3.06
400.8  19940.00  611.49  3.07
402.2  20622.00  634.21  3.08
403.7  21210.08  652.43  3.08
405.2  21828.35  668.42  3.06
406.6  22411.20  685.17  3.06
408.1  23006.80  702.86  3.06
409.6  23640.15  733.13  3.10
411.0  24317.65  752.94  3.10
412.5  24990.00  778.86  3.12
414.0  25672.50  802.78  3.13
415.4  26374.13  831.44  3.15
416.9  27062.10  858.38  3.17
418.4  27788.40  887.69  3.19
419.8  28519.40  914.85  3.21
421.3  29250.83  947.10  3.24
422.7  30067.20  977.30  3.25
424.2  30864.38  1007.44  3.26
425.7  31638.30  1045.37  3.30
427.1  32409.60  1078.74  3.33
428.6  33216.50  1112.38  3.35
430.0  33976.83  1145.71  3.37
431.5  34894.65  1182.56  3.39
432.9  35789.95  1216.93  3.40
434.4  36700.65  1249.14  3.40
435.9  37548.00  1289.40  3.43
437.3  38403.75  1328.71  3.46
438.8  39258.90  1367.00  3.48
440.2  40142.03  1406.79  3.50
441.7  41138.00  1453.01  3.53
443.1  42068.75  1489.74  3.54
444.6  43072.80  1530.95  3.55
446.0  44024.18  1572.14  3.57
447.5  45017.78  1619.50  3.60
448.9  45975.60  1662.81  3.62
450.4  47021.45  1717.17  3.65
451.8  47892.00  1759.33  3.67
453.3  48835.13  1799.12  3.68
454.7  49880.55  1846.70  3.70
456.2  50784.00  1887.65  3.72
457.6  51785.78  1936.38  3.74
459.1  52793.65  1980.10  3.75
460.5  53767.50  2021.85  3.76
462.0  54843.88  2065.72  3.77
463.4  55909.70  2112.08  3.78
464.8  56929.13  2153.40  3.78
466.3  57951.30  2196.32  3.79
467.7  58974.25  2244.96  3.81
469.2  60072.10  2295.16  3.82
470.6  61061.30  2339.33  3.83
472.0  62112.98  2379.14  3.83
473.5  63152.88  2428.09  3.84
474.9  64210.50  2478.08  3.86
476.4  65390.40  2536.80  3.88
477.8  66526.00  2589.70  3.89
479.2  67570.00  2637.55  3.90
480.7  68698.35  2692.83  3.92
482.1  69865.75  2741.65  3.92
483.6  71094.00  2803.78  3.94
485.0  72230.25  2859.78  3.96
486.4  73477.50  2922.61  3.98
487.9  74602.13  2983.50  4.00
489.3  75833.75  3050.04  4.02
490.7  76938.13  3115.32  4.05
492.2  78204.00  3189.41  4.08
493.6  79344.40  3264.02  4.11
495.0  80496.00  3339.38  4.15
496.5  81725.08  3423.68  4.19
497.9  82869.73  3517.60  4.24
499.3  84087.75  3619.83  4.30
500.7  85380.20  3738.68  4.38
502.2  86578.00  3858.29  4.46
503.6  87848.20  3996.99  4.55
505.0  88969.45  4141.07  4.65
506.5  90304.80  4316.27  4.78
507.9  91574.03  4515.70  4.93
509.3  92988.40  4744.88  5.10
510.7  94287.38  4995.41  5.30
512.2  95723.18  5282.89  5.52
513.6  97235.60  5610.85  5.77
515.0  98693.05  5975.45  6.05
516.4  100103.85  6380.17  6.37
517.8  101770.63  6837.91  6.72
519.3  103127.53  7307.74  7.09
520.7  104714.65  7828.19  7.48
522.1  106056.28  8358.91  7.88
523.5  107433.10  8906.66  8.29
524.9  108851.85  9462.29  8.69
526.3  110236.70  10005.30  9.08
527.8  111775.95  10556.87  9.44
529.2  113135.70  11082.12  9.80
530.6  114805.25  11612.98  10.12
532.0  116606.00  12129.60  10.40
533.4  117898.88  12560.95  10.65
534.8  118813.40  12915.98  10.87
536.3  120602.10  13334.73  11.06
537.7  122724.00  13759.20  11.21
539.1  124236.00  14103.91  11.35
540.5  125476.65  14401.76  11.48
541.9  127264.20  14758.79  11.60
543.3  128575.10  15061.78  11.71
544.7  129914.40  15359.22  11.82
546.1  131737.10  15716.22  11.93
547.5  133044.80  15999.57  12.03
549.0  134948.00  16339.77  12.11
550.4  136478.13  16621.40  12.18
551.8  138024.85  16864.21  12.22
553.2  139610.80  17074.25  12.23
554.6  141003.20  17219.28  12.21
556.0  142602.30  17337.63  12.16
557.4  144250.58  17417.59  12.07
558.8  145935.00  17458.38  11.96
560.2  147418.38  17438.99  11.83
561.6  149150.48  17409.06  11.67
563.0  150787.63  17330.89  11.49
564.4  152426.40  17221.47  11.30
565.8  153988.13  17075.44  11.09
567.2  155789.00  16916.20  10.86
568.6  157350.38  16705.09  10.62
570.0  158841.18  16458.48  10.36
571.4  160644.90  16226.19  10.10
572.8  162447.25  15995.53  9.85
574.2  164124.80  15766.61  9.61
575.6  165712.50  15556.13  9.39
577.0  167296.50  15360.84  9.18
578.4  169089.38  15219.37  9.00
579.8  170633.25  15073.56  8.83
581.2  172421.20  14977.28  8.69
582.5  173873.70  14865.24  8.55
583.9  175454.20  14783.04  8.43
585.3  177312.83  14746.85  8.32
586.7  178835.80  14694.95  8.22
588.1  180371.50  14669.23  8.13
589.5  182059.50  14671.42  8.06
590.9  183743.20  14693.17  8.00
592.3  185614.50  14748.34  7.95
593.7  187108.35  14785.81  7.90
595.0  188784.00  14845.79  7.86
596.4  190274.35  14896.82  7.83
597.8  191797.18  14943.85  7.79
599.2  193406.40  14991.68  7.75
600.6  195197.93  15040.82  7.71
602.0  196542.00  15025.71  7.65
603.3  198372.00  15027.40  7.58
604.7  200078.93  14991.90  7.49
606.1  201631.80  14917.34  7.40
607.5  203305.00  14833.37  7.30
608.9  205059.75  14736.11  7.19
610.2  206501.40  14604.50  7.07
611.6  208113.60  14483.05  6.96
613.0  209712.85  14363.78  6.85
614.4  211135.05  14240.09  6.74
615.8  212632.88  14127.75  6.64
617.1  214223.10  14046.83  6.56
618.5  215902.40  13994.39  6.48
619.9  217457.25  13952.39  6.42
621.3  219145.28  13943.37  6.36
622.6  220804.75  13954.26  6.32
624.0  222325.50  13979.68  6.29
625.4  223886.03  14015.54  6.26
626.8  225545.78  14076.11  6.24
628.1  226939.08  14140.63  6.23
629.5  228871.25  14252.26  6.23
630.9  230555.60  14344.30  6.22
632.2  231997.33  14409.51  6.21
633.6  233704.88  14469.48  6.19
635.0  235313.20  14489.28  6.16
636.3  236923.50  14480.68  6.11
637.7  238385.00  14431.10  6.05
639.1  240100.00  14362.25  5.98
640.4  241634.93  14259.01  5.90
641.8  242901.28  14115.62  5.81
643.2  244563.20  13978.39  5.72
644.5  245973.50  13838.37  5.63
645.9  247783.50  13711.43  5.53
647.2  250035.10  13635.45  5.45
648.6  252072.00  13577.63  5.39
650.0  253605.60  13500.72  5.32
651.3  253882.48  13360.99  5.26
652.7  254633.35  13267.58  5.21
654.0  256846.40  13233.15  5.15
655.4  258450.70  13178.37  5.10
656.8  258689.20  13047.20  5.04
658.1  259801.50  12943.54  4.98
659.5  262321.50  12901.61  4.92
660.8  264442.50  12847.50  4.86
662.2  265350.40  12726.19  4.80
663.5  267018.25  12660.94  4.74
664.9  268515.00  12616.89  4.70
666.2  269286.00  12578.52  4.67
667.6  271025.50  12598.00  4.65
668.9  272327.25  12632.77  4.64
670.3  273176.38  12656.05  4.63
671.6  275058.00  12749.16  4.64
673.0  276319.13  12854.63  4.65
674.3  277642.30  12973.44  4.67
675.7  279028.00  13116.97  4.70
677.0  280246.10  13275.94  4.74
678.4  281721.78  13467.55  4.78
679.7  282889.10  13674.59  4.83
681.1  284281.85  13919.02  4.90
682.4  285532.00  14185.25  4.97
683.8  286946.40  14516.75  5.06
685.1  288023.25  14891.60  5.17
686.4  289354.80  15369.80  5.31
687.8  290696.25  15977.73  5.50
689.1  291875.50  16749.06  5.74
690.5  293343.75  17769.00  6.06
691.8  294175.28  19068.54  6.48
693.1  295559.85  20797.99  7.04
694.5  296819.25  22933.52  7.73
695.8  298116.00  25534.60  8.57
697.1  299390.00  28592.20  9.55
698.5  300525.30  32134.88  10.69
699.8  301736.23  36122.03  11.97
701.1  302938.00  40521.74  13.38
702.5  303793.60  45205.99  14.88
703.8  304830.00  50166.75  16.46
705.1  306123.68  55337.43  18.08
706.5  307275.88  60632.52  19.73
707.8  308340.60  65987.63  21.40
709.1  309312.88  71352.93  23.07
710.5  310563.08  76783.86  24.72
711.8  311508.70  82131.64  26.37
713.1  312646.00  87481.41  27.98
714.4  313649.50  92737.52  29.57
715.8  314563.80  97892.54  31.12
717.1  316006.65  103113.96  32.63
718.4  317027.20  108103.15  34.10
719.7  318268.48  113017.79  35.51
721.0  318870.00  117583.50  36.88
722.4  319736.45  122069.92  38.18
723.7  320814.60  126464.01  39.42
725.0  321945.08  130715.72  40.60
726.3  323019.40  134733.69  41.71
727.6  323658.50  138384.93  42.76
729.0  324663.85  141998.21  43.74
730.3  325527.45  145341.48  44.65
731.6  326530.75  148564.35  45.50
732.9  327432.70  151547.40  46.28
734.2  328372.00  154365.38  47.01
735.5  329514.68  157114.85  47.68
736.8  330378.00  159564.20  48.30
738.1  331325.70  161884.26  48.86
739.5  332382.08  164134.55  49.38
740.8  333202.65  166102.04  49.85
742.1  334041.33  167975.33  50.29
743.4  334875.00  169732.50  50.69
744.7  335985.55  171513.92  51.05
746.0  336952.20  173105.86  51.37
747.3  337593.65  174427.64  51.67
748.6  338432.25  175749.76  51.93
749.9  339326.00  176982.00  52.16
751.2  340133.05  178138.16  52.37
752.5  341152.90  179299.22  52.56
753.8  341869.33  180251.26  52.73
755.1  342706.00  181194.87  52.87
756.4  343415.48  182014.62  53.00
757.7  344528.98  182996.96  53.12
759.0  346510.93  184392.35  53.21
760.3  347846.40  185401.92  53.30
761.6  349603.80  186598.11  53.37
762.9  350264.50  187191.15  53.44
764.2  350695.30  187649.02  53.51
765.5  351108.80  188044.45  53.56
766.8  351668.80  188495.09  53.60
768.1  352336.60  188974.15  53.63
769.3  353062.85  189478.08  53.67
770.6  353847.00  190004.10  53.70
771.9  354723.25  190566.31  53.72
773.2  355227.20  190927.52  53.75
774.5  355955.60  191395.01  53.77
775.8  356816.80  191908.28  53.78
777.1  357495.60  192353.08  53.81
778.4  357955.13  192657.25  53.82
779.6  358869.93  193219.44  53.84
780.9  359520.00  193596.00  53.85
782.2  360065.75  193958.97  53.87
783.5  360540.50  194235.18  53.87
784.8  361207.35  194647.55  53.89
786.0  361713.80  194962.66  53.90
787.3  362245.78  195290.83  53.91
788.6  362836.83  195634.64  53.92
789.9  363441.40  196006.77  53.93
791.2  364221.08  196458.74  53.94
792.4  365066.23  196933.30  53.94
793.7  365730.00  197286.01  53.94
795.0  366460.05  197721.78  53.95
796.2  367268.48  198190.13  53.96
797.5  368154.45  198697.61  53.97
798.8  369017.10  199168.02  53.97
800.0  369807.05  199636.11  53.98
801.3  370458.20  199985.58  53.98
802.6  371224.35  200398.31  53.98
803.8  371973.05  200850.33  54.00
805.1  372638.00  201204.70  53.99
806.4  373227.60  201554.08  54.00
807.7  373900.05  201941.17  54.01
808.9  374621.10  202341.36  54.01
810.2  375250.40  202697.71  54.02
811.4  375937.50  203069.07  54.02
812.7  376675.00  203496.04  54.02
814.0  377674.70  204035.42  54.02
815.2  378380.25  204467.84  54.04
816.5  378953.10  204771.65  54.04
817.7  379479.60  205104.38  54.05
819.0  380144.05  205464.91  54.05
820.2  380380.00  205631.07  54.06
821.5  381266.35  206093.98  54.06
822.7  381713.53  206363.45  54.06
824.0  382071.60  206592.84  54.07
825.2  382706.78  206918.75  54.07
826.5  383116.60  207160.63  54.07
827.7  383719.75  207520.83  54.08
829.0  384294.08  207800.76  54.07
830.2  384671.55  208006.48  54.07
831.5  385202.15  208324.77  54.08
832.7  385655.03  208549.76  54.08
834.0  386023.68  208769.00  54.08
835.2  386426.43  209014.48  54.09
836.4  386787.50  209244.04  54.10
837.7  387259.00  209508.29  54.10
838.9  387838.15  209810.05  54.10
840.1  388253.25  210067.61  54.11
841.4  388740.80  210385.85  54.12
842.6  389167.40  210654.03  54.13
843.8  389514.20  210893.59  54.14
845.1  390107.55  211212.80  54.14
846.3  390529.80  211487.89  54.15
847.5  390978.00  211755.39  54.16
848.8  391503.00  212027.56  54.16
850.0  391875.75  212260.29  54.17
851.2  392501.70  212627.30  54.17
852.5  392937.30  212886.58  54.18
853.7  393457.50  213202.20  54.19
854.9  394022.10  213505.20  54.19
856.1  394536.35  213804.83  54.19
857.4  394741.50  213938.14  54.20
858.6  395218.05  214247.50  54.21
859.8  395715.00  214489.00  54.20
861.0  396279.00  214797.96  54.20
862.2  396811.73  215080.06  54.20
863.5  397192.25  215319.38  54.21
864.7  397775.40  215653.46  54.21
865.9  398268.40  215903.65  54.21
867.1  398630.40  216129.95  54.22
868.3  399175.05  216386.36  54.21
869.5  399734.60  216676.73  54.21
870.8  400401.00  217027.95  54.20
872.0  401007.45  217347.69  54.20
873.2  401534.70  217658.17  54.21
874.4  401982.75  217939.41  54.22
875.6  402464.88  218155.37  54.20
876.8  403008.05  218451.28  54.21
878.0  403595.95  218745.79  54.20
879.2  404158.50  219055.56  54.20
880.4  404828.63  219384.61  54.19
881.6  405452.55  219692.02  54.18
882.8  405915.20  219957.76  54.19
884.0  406642.78  220324.72  54.18
885.2  407278.80  220650.28  54.18
886.5  407999.20  221052.88  54.18
887.7  408533.45  221344.47  54.18
888.8  409459.65  221734.36  54.15
890.0  410108.20  222120.37  54.16
891.2  410780.80  222475.03  54.16
892.4  411648.30  222827.29  54.13
893.6  412185.30  223169.08  54.14
894.8  413287.00  223674.81  54.12
896.0  414368.75  224232.22  54.11
897.2  415291.50  224716.16  54.11
898.4  416258.70  225179.35  54.10
899.6  416954.25  225561.10  54.10
900.8  417483.00  225827.38  54.09
902.0  417853.65  226028.13  54.09
903.2  418363.88  226238.45  54.08
904.3  418820.40  226442.67  54.07
905.5  419603.35  226839.91  54.06
906.7  420290.50  227211.87  54.06
907.9  420988.40  227570.95  54.06
909.1  421557.75  227812.46  54.04
910.2  421948.28  227904.97  54.01
911.4  422375.85  228125.33  54.01
912.6  422750.90  228250.64  53.99
913.8  423154.65  228442.72  53.99
915.0  423705.45  228712.65  53.98
916.2  424105.50  228893.60  53.97
917.3  424224.45  228963.86  53.97
918.5  424646.40  229110.44  53.95
919.7  425169.60  229317.96  53.94
920.8  425413.95  229308.50  53.90
922.0  425675.25  229434.33  53.90
923.2  426016.50  229588.45  53.89
924.4  426471.75  229757.85  53.87
925.5  426932.90  229867.52  53.84
926.7  427836.88  230258.34  53.82
927.9  428883.60  230723.76  53.80
929.0  430560.90  231496.38  53.77
930.2  433038.50  232730.05  53.74
931.4  435771.90  234071.62  53.71
932.5  438809.65  235576.44  53.69
933.7  440533.63  236337.39  53.65
934.9  441433.13  236726.00  53.63
936.0  441332.13  236526.01  53.59
937.2  439269.75  235314.02  53.57
938.3  437765.85  234322.01  53.53
939.5  436197.60  233377.56  53.50
940.7  436626.00  233468.85  53.47
941.8  438562.50  234227.46  53.41
943.0  440238.00  234984.80  53.38
944.2  441282.40  235423.67  53.35
945.3  441265.50  235076.08  53.27
946.5  440602.20  234531.23  53.23
947.6  440707.70  234472.01  53.20
948.8  441018.83  234265.79  53.12
949.9  441386.40  234175.62  53.05
951.1  441155.00  233845.57  53.01
952.2  441252.00  233471.20  52.91
953.4  441235.25  233018.08  52.81
954.5  441207.00  232818.30  52.77
955.7  441252.00  232478.40  52.69
956.8  441465.40  232172.45  52.59
958.0  441449.50  231777.60  52.50
959.1  441518.10  231518.61  52.44
960.3  441322.03  231216.87  52.39
961.4  441188.55  231023.93  52.36
962.6  441619.50  231150.97  52.34
963.7  441585.00  230924.42  52.29
964.9  441804.00  230834.22  52.25
966.0  441826.65  230763.13  52.23
967.2  442187.10  230875.91  52.21
968.3  442300.50  230819.36  52.19
969.5  442287.65  230789.16  52.18
970.6  442615.43  230797.14  52.14
971.8  443149.00  231016.37  52.13
972.9  443359.50  230952.83  52.09
974.0  443549.90  231247.78  52.14
975.2  443462.50  231237.27  52.14
976.3  443495.43  231308.38  52.16
977.5  443599.28  231455.71  52.18
978.6  443710.90  231564.54  52.19
979.7  444262.35  231744.12  52.16
980.9  444612.05  231745.39  52.12
982.0  444433.70  231863.85  52.17
983.2  443993.83  231721.52  52.19
984.3  444284.60  231640.67  52.14
985.4  444345.60  232105.00  52.24
986.6  444626.50  232323.49  52.25
987.7  446121.90  233126.96  52.26
988.9  446041.80  233430.84  52.33
990.0  446807.80  233810.01  52.33
993.1  357102.78  185292.64  51.89
996.9  359034.18  186931.01  52.06
1000.7  360945.90  188446.33  52.21
1004.5  361968.83  189474.76  52.35
1008.4  361941.75  189936.58  52.48
1012.2  362107.08  190508.30  52.61
1016.0  362532.60  191182.13  52.74
1019.8  363259.05  192000.78  52.86
1023.7  364050.29  192785.82  52.96
1027.5  364718.20  193482.93  53.05
1031.3  365938.83  194355.78  53.11
1035.1  366505.59  194881.75  53.17
1038.9  366923.15  195273.75  53.22
1042.7  366924.25  195443.69  53.27
1046.5  366860.83  195530.44  53.30
1050.3  367040.58  195729.77  53.33
1054.2  366857.17  195736.85  53.36
1058.0  366371.54  195546.74  53.37
1061.8  366228.24  195519.01  53.39
1065.6  366136.37  195496.98  53.39
1069.4  366774.47  195825.69  53.39
1073.2  367081.19  195975.68  53.39
1077.0  366965.55  195836.40  53.37
1080.8  366185.42  195347.22  53.35
1084.6  364413.00  194320.02  53.32
1088.4  363094.08  193512.01  53.30
1092.2  362027.25  192796.50  53.25
1096.0  361521.43  192354.30  53.21
1099.8  361206.30  191972.25  53.15
1103.6  360770.62  191528.16  53.09
1107.4  360136.62  190921.82  53.01
1111.2  360016.90  190612.93  52.95
1114.9  359377.67  189973.13  52.86
1118.7  358662.15  189219.80  52.76
1122.5  357810.27  188305.48  52.63
1126.3  356581.87  187040.79  52.45
1130.1  356049.98  185902.90  52.21
1133.9  354519.20  183970.58  51.89
1137.7  353246.50  181876.04  51.49
1141.4  351666.90  179350.46  51.00
1145.2  351117.37  177195.83  50.47
1149.0  350132.71  174874.91  49.95
1152.8  348634.55  172521.03  49.48
1156.6  347096.75  170537.03  49.13
1160.3  345484.67  168894.96  48.89
1164.1  343071.30  167166.92  48.73
1167.9  341214.58  165972.69  48.64
1171.7  339916.50  165175.50  48.59
1175.4  338963.17  164600.94  48.56
1179.2  338210.15  164115.55  48.52
1183.0  338031.00  163873.26  48.48
1186.7  337262.57  163343.18  48.43
1190.5  335761.27  162473.72  48.39
1194.3  334351.87  161699.12  48.36
1198.0  333313.48  161180.01  48.36
1201.8  332041.03  160588.23  48.36
1205.6  330779.00  160085.33  48.40
1209.3  329655.55  159723.58  48.45
1213.1  328462.95  159369.05  48.52
1216.8  327281.08  159093.51  48.61
1220.6  326233.60  158905.19  48.71
1224.3  325028.67  158636.02  48.81
1228.1  323980.00  158506.62  48.92
1231.9  322968.40  158317.59  49.02
1235.6  321738.08  157983.58  49.10
1239.4  320554.88  157654.42  49.18
1243.1  319444.86  157305.97  49.24
1246.9  318335.98  156913.23  49.29
1250.6  317437.93  156593.87  49.33
1254.3  316450.84  156193.83  49.36
1258.1  315602.58  155837.03  49.38
1261.8  314469.87  155313.60  49.39
1265.6  312960.05  154558.36  49.39
1269.3  311132.28  153584.97  49.36
1273.1  310791.74  153302.30  49.33
1276.8  311321.20  153405.60  49.28
1280.6  311866.83  153482.96  49.21
1284.3  311009.60  152826.13  49.14
1288.0  309582.41  151819.88  49.04
1291.8  307779.58  150556.64  48.92
1295.5  305904.13  149193.90  48.77
1299.2  304533.23  147986.38  48.59
1302.9  303191.88  146700.99  48.39
1306.7  301799.17  145301.51  48.15
1310.4  300508.73  143811.11  47.86
1314.1  299311.83  142258.93  47.53
1317.9  298250.63  140629.77  47.15
1321.6  296966.70  138774.18  46.73
1325.3  295410.68  136646.07  46.26
1329.0  294081.90  134520.50  45.74
1332.8  291907.00  131902.71  45.19
1336.5  290005.60  129362.95  44.61
1340.2  289577.17  127467.41  44.02
1343.9  289019.17  125512.69  43.43
