/*** Spectra Vista SIG Data ***/
name= 3_20220720_CECA_30_avg.sig
comm= Averaged Ref/Tar of files: 1_20220720_CECA_30_1_avg.sig,2_20220720_CECA_30_2_avg.sig,3_20220720_CECA_30_3_avg.sig
data=
337.3  3137.40  253.95  8.09
338.8  3254.77  248.90  7.65
340.3  3388.82  252.25  7.44
341.8  3597.03  254.61  7.08
343.2  3813.47  252.30  6.62
344.7  3952.23  246.96  6.25
346.2  4134.93  242.51  5.86
347.7  4282.05  234.70  5.48
349.2  4481.40  240.24  5.36
350.6  4721.21  240.40  5.09
352.1  5005.47  243.61  4.87
353.6  5251.27  242.35  4.62
355.1  5518.96  251.23  4.55
356.6  5804.82  253.88  4.37
358.0  6064.54  262.69  4.33
359.5  6327.63  264.66  4.18
361.0  6620.08  270.56  4.09
362.5  6967.45  277.32  3.98
364.0  7305.76  282.38  3.87
365.4  7640.08  292.24  3.83
366.9  7992.83  304.14  3.81
368.4  8318.88  316.56  3.81
369.9  8648.00  328.25  3.80
371.3  9039.43  339.39  3.75
372.8  9440.00  348.61  3.69
374.3  9830.28  352.02  3.58
375.8  10223.03  358.31  3.50
377.2  10601.59  371.65  3.51
378.7  10969.22  378.48  3.45
380.2  11351.80  386.50  3.40
381.7  11821.94  390.70  3.30
383.1  12256.26  398.52  3.25
384.6  12720.21  409.33  3.22
386.1  13143.16  420.56  3.20
387.6  13564.83  429.83  3.17
389.0  13989.60  442.24  3.16
390.5  14434.35  446.38  3.09
392.0  14947.19  453.43  3.03
393.4  15467.22  467.28  3.02
394.9  15973.20  480.57  3.01
396.4  16476.63  489.90  2.97
397.9  16969.45  503.23  2.97
399.3  17485.51  509.72  2.92
400.8  17993.08  523.19  2.91
402.2  18589.80  535.11  2.88
403.7  19155.68  550.59  2.87
405.2  19708.12  563.39  2.86
406.6  20248.44  574.92  2.84
408.1  20807.07  587.03  2.82
409.6  21376.86  603.17  2.82
411.0  22004.73  617.32  2.81
412.5  22618.26  634.40  2.80
414.0  23234.29  654.98  2.82
415.4  23883.13  676.25  2.83
416.9  24509.23  695.49  2.84
418.4  25171.83  714.04  2.84
419.8  25846.02  739.33  2.86
421.3  26515.68  763.70  2.88
422.7  27244.53  790.90  2.90
424.2  27978.75  820.82  2.93
425.7  28693.43  850.29  2.96
427.1  29402.85  878.36  2.99
428.6  30144.05  902.64  2.99
430.0  30838.97  933.53  3.03
431.5  31655.93  963.63  3.04
432.9  32475.79  997.22  3.07
434.4  33316.77  1030.40  3.09
435.9  34093.11  1060.09  3.11
437.3  34885.28  1088.91  3.12
438.8  35669.07  1117.37  3.13
440.2  36484.31  1150.55  3.15
441.7  37390.47  1185.15  3.17
443.1  38233.61  1215.38  3.18
444.6  39136.98  1251.44  3.20
446.0  40019.23  1285.55  3.21
447.5  40914.81  1322.21  3.23
448.9  41790.27  1355.61  3.24
450.4  42726.37  1390.62  3.25
451.8  43531.22  1421.01  3.26
453.3  44396.89  1453.19  3.27
454.7  45335.18  1486.56  3.28
456.2  46152.31  1518.82  3.29
457.6  47064.30  1552.04  3.30
459.1  47981.85  1584.53  3.30
460.5  48846.99  1610.44  3.30
462.0  49830.61  1644.04  3.30
463.4  50795.03  1674.09  3.30
464.8  51716.75  1701.91  3.29
466.3  52637.38  1734.91  3.30
467.7  53558.50  1765.23  3.30
469.2  54557.83  1797.13  3.29
470.6  55470.96  1824.54  3.29
472.0  56434.49  1856.11  3.29
473.5  57374.18  1886.92  3.29
474.9  58328.42  1917.64  3.29
476.4  59404.80  1954.56  3.29
477.8  60408.61  1988.66  3.29
479.2  61364.00  2022.18  3.30
480.7  62385.64  2057.75  3.30
482.1  63437.11  2097.32  3.31
483.6  64541.73  2138.51  3.31
485.0  65544.41  2177.59  3.32
486.4  66643.85  2222.50  3.33
487.9  67661.75  2265.34  3.35
489.3  68747.75  2313.74  3.37
490.7  69747.42  2361.80  3.39
492.2  70886.67  2418.73  3.41
493.6  71913.59  2475.62  3.44
495.0  72939.75  2533.79  3.47
496.5  74030.48  2600.22  3.51
497.9  75051.21  2665.82  3.55
499.3  76122.49  2744.55  3.61
500.7  77290.14  2833.17  3.67
502.2  78356.58  2925.37  3.73
503.6  79513.22  3036.15  3.82
505.0  80482.22  3151.38  3.92
506.5  81697.54  3289.90  4.03
507.9  82795.98  3442.04  4.16
509.3  84070.58  3620.69  4.31
510.7  85236.13  3816.24  4.48
512.2  86525.12  4042.98  4.67
513.6  87890.56  4304.63  4.90
515.0  89206.56  4595.44  5.15
516.4  90474.30  4917.69  5.44
517.8  91971.02  5284.54  5.75
519.3  93190.58  5666.10  6.08
520.7  94628.31  6087.08  6.43
522.1  95821.92  6513.24  6.80
523.5  97079.15  6954.76  7.16
524.9  98380.05  7400.41  7.52
526.3  99679.88  7838.56  7.86
527.8  101130.15  8277.53  8.19
529.2  102164.33  8674.54  8.49
530.6  103410.62  9065.98  8.77
532.0  105012.44  9457.87  9.01
533.4  106304.32  9788.05  9.21
534.8  107110.75  10040.00  9.37
536.3  108630.90  10329.26  9.51
537.7  110461.40  10624.72  9.62
539.1  111841.16  10862.59  9.71
540.5  112996.87  11067.64  9.79
541.9  114676.73  11318.43  9.87
543.3  115852.89  11512.09  9.94
544.7  117161.60  11717.75  10.00
546.1  118797.16  11952.72  10.06
547.5  119904.71  12126.36  10.11
549.0  121473.00  12332.85  10.15
550.4  122803.75  12504.71  10.18
551.8  124192.66  12650.51  10.19
553.2  125617.36  12769.99  10.17
554.6  126868.45  12832.81  10.12
556.0  128268.70  12870.87  10.03
557.4  129730.18  12874.91  9.92
558.8  131223.05  12845.37  9.79
560.2  132551.00  12758.81  9.63
561.6  134063.18  12657.01  9.44
563.0  135517.41  12514.27  9.23
564.4  136962.44  12338.88  9.01
565.8  138335.14  12128.62  8.77
567.2  139936.33  11913.39  8.51
568.6  141296.46  11661.45  8.25
570.0  142578.67  11391.56  7.99
571.4  144154.62  11146.12  7.73
572.8  145756.04  10913.52  7.49
574.2  147255.11  10689.64  7.26
575.6  148688.75  10482.86  7.05
577.0  150050.19  10297.93  6.86
578.4  151623.69  10149.17  6.69
579.8  153002.55  10007.95  6.54
581.2  154572.55  9899.46  6.40
582.5  155859.60  9787.29  6.28
583.9  157248.11  9701.02  6.17
585.3  158884.73  9641.31  6.07
586.7  160223.77  9575.33  5.98
588.1  161575.05  9523.78  5.89
589.5  163069.28  9494.41  5.82
590.9  164550.76  9474.54  5.76
592.3  166206.62  9479.99  5.70
593.7  167514.21  9472.69  5.65
595.0  168993.60  9481.87  5.61
596.4  170314.08  9483.10  5.57
597.8  171655.87  9482.24  5.52
599.2  173066.67  9478.27  5.48
600.6  174662.62  9474.12  5.42
602.0  175831.70  9436.62  5.37
603.3  177465.86  9407.57  5.30
604.7  178975.36  9359.60  5.23
606.1  180326.13  9290.42  5.15
607.5  181814.08  9215.70  5.07
608.9  183349.38  9135.44  4.98
610.2  184601.03  9034.29  4.89
611.6  186054.69  8946.53  4.81
613.0  187455.03  8856.06  4.72
614.4  188721.58  8767.97  4.65
615.8  190034.00  8688.83  4.57
617.1  191428.30  8625.87  4.51
618.5  192903.20  8577.42  4.45
619.9  194268.78  8540.51  4.40
621.3  195728.78  8523.36  4.35
622.6  197163.86  8516.96  4.32
624.0  198475.85  8518.20  4.29
625.4  199783.10  8533.27  4.27
626.8  201192.91  8559.86  4.25
628.1  202379.83  8588.95  4.24
629.5  204037.85  8640.53  4.23
630.9  205462.07  8681.14  4.23
632.2  206708.35  8703.81  4.21
633.6  208169.60  8721.14  4.19
635.0  209539.96  8713.90  4.16
636.3  210915.83  8683.28  4.12
637.7  212121.72  8621.64  4.06
639.1  213606.95  8546.89  4.00
640.4  214947.64  8452.58  3.93
641.8  216011.27  8338.48  3.86
643.2  217437.58  8232.33  3.79
644.5  218655.28  8121.77  3.71
645.9  220143.35  8027.80  3.65
647.2  221359.02  7943.68  3.59
648.6  223002.00  7892.74  3.54
650.0  224287.20  7846.63  3.50
651.3  224724.81  7784.85  3.46
652.7  226051.35  7754.02  3.43
654.0  227778.67  7743.69  3.40
655.4  229308.82  7728.61  3.37
656.8  229491.96  7666.98  3.34
658.1  230576.51  7630.80  3.31
659.5  232703.10  7614.44  3.27
660.8  234245.00  7594.86  3.24
662.2  235120.36  7560.39  3.22
663.5  236729.35  7555.89  3.19
664.9  237847.57  7546.13  3.17
666.2  238632.73  7543.77  3.16
667.6  240313.74  7590.92  3.16
668.9  241265.28  7636.76  3.17
670.3  242574.83  7705.38  3.18
671.6  243775.71  7796.43  3.20
673.0  244835.25  7900.66  3.23
674.3  245941.08  8017.60  3.26
675.7  247136.98  8153.03  3.30
677.0  248121.42  8296.22  3.34
678.4  249357.26  8468.37  3.40
679.7  250360.62  8647.50  3.45
681.1  251556.89  8860.69  3.52
682.4  252595.63  9086.54  3.60
683.8  253685.90  9340.51  3.68
685.1  254609.58  9623.46  3.78
686.4  255785.93  9964.77  3.90
687.8  256952.89  10373.44  4.04
689.1  257887.39  10882.72  4.22
690.5  259026.57  11561.97  4.46
691.8  259786.03  12454.15  4.79
693.1  261000.98  13657.59  5.23
694.5  262029.44  15198.30  5.80
695.8  263111.33  17125.62  6.51
697.1  264210.92  19479.63  7.37
698.5  265130.95  22276.55  8.40
699.8  266123.88  25520.39  9.59
701.1  267184.57  29187.83  10.92
702.5  267906.53  33179.28  12.38
703.8  268790.00  37475.00  13.94
705.1  269827.57  42017.33  15.57
706.5  270754.91  46701.38  17.25
707.8  271644.38  51489.01  18.95
709.1  272454.30  56306.63  20.67
710.5  273501.09  61199.13  22.38
711.8  274250.35  66026.69  24.08
713.1  275144.83  70853.82  25.75
714.4  275964.98  75604.51  27.40
715.8  276713.27  80261.17  29.01
717.1  277899.90  84955.68  30.57
718.4  278765.51  89440.28  32.08
719.7  279756.31  93854.60  33.55
721.0  280245.00  97965.57  34.96
722.4  280920.38  101994.58  36.31
723.7  281801.23  105931.96  37.59
725.0  282752.03  109740.83  38.81
726.3  283620.92  113348.08  39.96
727.6  284087.56  116628.36  41.05
729.0  284911.90  119855.54  42.07
730.3  285609.78  122871.34  43.02
731.6  286437.52  125768.88  43.91
732.9  287154.02  128454.65  44.73
734.2  287886.50  130988.16  45.50
735.5  288832.11  133463.82  46.21
736.8  289545.53  135679.87  46.86
738.1  290284.09  137762.18  47.46
739.5  291134.16  139759.28  48.01
740.8  291766.48  141519.11  48.50
742.1  292430.34  143192.10  48.97
743.4  293097.22  144746.19  49.39
744.7  293979.66  146300.48  49.77
746.0  294761.35  147703.26  50.11
747.3  295250.51  148851.27  50.42
748.6  295919.00  149997.43  50.69
749.9  296596.44  151052.08  50.93
751.2  297247.05  152021.82  51.14
752.5  298060.61  153014.69  51.34
753.8  298628.28  153824.12  51.51
755.1  299239.78  154587.42  51.66
756.4  299768.82  155247.71  51.79
757.7  300662.13  156041.90  51.90
759.0  302286.83  157174.33  52.00
760.3  303362.40  157980.62  52.08
761.6  304776.89  158941.33  52.15
762.9  305288.83  159373.44  52.20
764.2  305628.83  159701.63  52.25
765.5  305865.95  159954.20  52.30
766.8  306229.69  160254.63  52.33
768.1  306697.33  160580.87  52.36
769.3  307231.44  160934.59  52.38
770.6  307813.35  161293.68  52.40
771.9  308481.82  161686.22  52.41
773.2  308850.00  161913.72  52.42
774.5  309413.87  162225.19  52.43
775.8  309993.25  162558.85  52.44
777.1  310502.56  162852.63  52.45
778.4  310783.58  163021.41  52.45
779.6  311478.37  163404.84  52.46
780.9  311906.67  163639.62  52.46
782.2  312337.97  163869.92  52.47
783.5  312614.83  164028.61  52.47
784.8  313103.23  164280.22  52.47
786.0  313438.22  164467.26  52.47
787.3  313781.27  164648.03  52.47
788.6  314151.65  164850.67  52.47
789.9  314554.64  165066.40  52.48
791.2  315137.79  165379.03  52.48
792.4  315753.94  165694.04  52.48
793.7  316182.96  165915.51  52.47
795.0  316737.30  166208.32  52.48
796.2  317341.81  166522.77  52.47
797.5  317980.68  166848.88  52.47
798.8  318594.47  167174.72  52.47
800.0  319184.23  167479.74  52.47
801.3  319601.32  167701.80  52.47
802.6  320152.38  167983.84  52.47
803.8  320721.12  168283.79  52.47
805.1  321167.00  168511.50  52.47
806.4  321619.03  168741.88  52.47
807.7  322099.88  168978.54  52.46
808.9  322596.88  169231.69  52.46
810.2  323066.37  169466.35  52.46
811.4  323522.34  169700.91  52.45
812.7  324106.25  170005.95  52.45
814.0  324847.24  170394.18  52.45
815.2  325422.70  170692.29  52.45
816.5  325813.43  170883.33  52.45
817.7  326221.81  171092.30  52.45
819.0  326695.72  171345.83  52.45
820.2  326841.78  171426.52  52.45
821.5  327477.98  171756.50  52.45
822.7  327811.12  171921.39  52.45
824.0  328103.40  172066.13  52.44
825.2  328550.40  172297.93  52.44
826.5  328823.89  172435.19  52.44
827.7  329296.75  172687.23  52.44
829.0  329651.69  172871.35  52.44
830.2  329957.87  173022.88  52.44
831.5  330410.49  173240.07  52.43
832.7  330684.32  173382.65  52.43
834.0  330971.03  173527.36  52.43
835.2  331298.52  173698.01  52.43
836.4  331552.47  173850.55  52.44
837.7  331920.80  174040.84  52.43
838.9  332298.07  174258.00  52.44
840.1  332626.65  174434.46  52.44
841.4  333016.73  174640.73  52.44
842.6  333377.56  174844.45  52.45
843.8  333700.96  174998.20  52.44
845.1  334147.10  175258.10  52.45
846.3  334516.60  175452.70  52.45
847.5  334875.57  175653.00  52.45
848.8  335223.80  175855.33  52.46
850.0  335532.52  176022.24  52.46
851.2  336052.35  176284.65  52.46
852.5  336410.45  176466.55  52.46
853.7  336835.00  176707.36  52.46
854.9  337227.51  176905.84  52.46
856.1  337636.29  177124.19  52.46
857.4  337866.47  177229.95  52.46
858.6  338276.69  177450.01  52.46
859.8  338611.67  177622.46  52.46
861.0  339050.40  177826.63  52.45
862.2  339446.30  178050.32  52.45
863.5  339772.15  178223.14  52.45
864.7  340235.87  178467.39  52.45
865.9  340616.78  178643.48  52.45
867.1  340875.79  178776.36  52.45
868.3  341299.37  178973.24  52.44
869.5  341744.67  179182.91  52.43
870.8  342227.00  179430.63  52.43
872.0  342687.22  179659.61  52.43
873.2  343087.18  179834.31  52.42
874.4  343453.50  180018.37  52.41
875.6  343794.79  180185.13  52.41
876.8  344232.12  180392.80  52.40
878.0  344617.43  180594.25  52.40
879.2  345100.48  180827.18  52.40
880.4  345575.67  181046.27  52.39
881.6  346043.31  181241.81  52.38
882.8  346423.20  181411.67  52.37
884.0  346934.88  181646.45  52.36
885.2  347379.70  181853.05  52.35
886.5  347936.60  182119.37  52.34
887.7  348386.75  182327.78  52.33
888.8  349015.32  182631.71  52.33
890.0  349502.09  182847.32  52.32
891.2  350021.56  183084.45  52.31
892.4  350515.55  183346.97  52.31
893.6  351077.99  183573.36  52.29
894.8  351856.56  183971.71  52.29
896.0  352668.33  184335.29  52.27
897.2  353431.00  184676.99  52.25
898.4  354071.67  184984.38  52.24
899.6  354606.17  185219.35  52.23
900.8  354895.69  185388.02  52.24
902.0  355109.65  185447.90  52.22
903.2  355443.49  185580.51  52.21
904.3  355745.33  185706.19  52.20
905.5  356301.44  185941.79  52.19
906.7  356907.05  186193.32  52.17
907.9  357336.04  186412.86  52.17
909.1  357655.88  186527.12  52.15
910.2  357801.40  186581.41  52.15
911.4  358042.75  186661.93  52.13
912.6  358234.86  186703.12  52.12
913.8  358461.53  186783.28  52.11
915.0  358856.40  186946.62  52.10
916.2  359054.58  186963.90  52.07
917.3  359001.98  186929.90  52.07
918.5  359249.47  186986.33  52.05
919.7  359467.68  187046.56  52.03
920.8  359522.23  187030.62  52.02
922.0  359707.64  187043.27  52.00
923.2  359905.00  187071.73  51.98
924.4  360036.38  187116.39  51.97
925.5  360305.99  187151.29  51.94
926.7  360888.99  187363.69  51.92
927.9  361596.40  187683.46  51.90
929.0  362986.35  188252.97  51.86
930.2  364876.42  189176.51  51.85
931.4  366990.90  190195.52  51.83
932.5  369475.39  191340.88  51.79
933.7  370749.28  191894.06  51.76
934.9  371431.18  192108.11  51.72
936.0  370995.45  191812.63  51.70
937.2  369155.72  190742.32  51.67
938.3  367637.14  189824.03  51.63
939.5  366261.60  189036.69  51.61
940.7  366471.70  189009.23  51.58
941.8  367866.23  189535.85  51.52
943.0  369175.33  190084.67  51.49
944.2  369967.72  190327.10  51.44
945.3  369512.00  190004.16  51.42
946.5  368773.95  189481.23  51.38
947.6  369046.88  189414.14  51.33
948.8  368970.88  189156.51  51.27
949.9  369072.20  188986.37  51.21
951.1  368720.92  188591.53  51.15
952.2  368628.00  188283.58  51.08
953.4  368306.28  187900.09  51.02
954.5  368316.00  187659.98  50.95
955.7  368328.80  187365.84  50.87
956.8  368178.37  187078.56  50.81
958.0  367886.89  186683.01  50.74
959.1  367731.10  186394.39  50.69
960.3  367423.39  186070.95  50.64
961.4  367201.06  185852.95  50.61
962.6  367456.83  185826.80  50.57
963.7  367333.30  185587.19  50.52
964.9  367249.58  185484.36  50.51
966.0  367045.88  185298.26  50.48
967.2  366992.40  185314.22  50.50
968.3  366744.60  185110.66  50.47
969.5  366522.83  185002.32  50.47
970.6  366520.35  184996.65  50.47
971.8  366862.17  185021.84  50.43
972.9  366621.53  184928.39  50.44
974.0  366927.19  184984.98  50.41
975.2  366709.38  184852.93  50.41
976.3  366571.89  184898.74  50.44
977.5  366367.54  184820.73  50.45
978.6  366313.78  184815.72  50.45
979.7  366301.72  184867.29  50.47
980.9  366201.20  184718.92  50.44
982.0  366255.18  184642.10  50.41
983.2  365935.84  184575.31  50.44
984.3  365554.44  184484.58  50.47
985.4  365787.97  184541.55  50.45
986.6  365677.32  184448.06  50.44
987.7  366333.04  184904.75  50.47
988.9  366301.20  184837.99  50.46
990.0  366841.65  185140.74  50.47
993.1  326544.19  163382.64  50.03
996.9  325989.26  163547.58  50.17
1000.7  326326.87  164089.80  50.28
1004.5  326535.89  164532.04  50.39
1008.4  326177.10  164705.44  50.50
1012.2  326054.57  164949.35  50.59
1016.0  325886.60  165163.54  50.68
1019.8  325650.33  165328.63  50.77
1023.7  325020.96  165237.77  50.84
1027.5  324038.46  164948.85  50.90
1031.3  323581.78  164862.98  50.95
1035.1  323007.80  164667.79  50.98
1038.9  322708.16  164605.27  51.01
1042.7  322448.58  164534.65  51.03
1046.5  322299.28  164500.33  51.04
1050.3  322256.73  164502.01  51.05
1054.2  321914.64  164366.25  51.06
1058.0  321432.40  164117.90  51.06
1061.8  321370.71  164082.98  51.06
1065.6  320986.26  163837.56  51.04
1069.4  320594.18  163590.76  51.03
1073.2  319795.92  163143.43  51.01
1077.0  319205.79  162765.53  50.99
1080.8  319020.14  162559.67  50.96
1084.6  318654.90  162241.92  50.91
1088.4  318545.53  162082.58  50.88
1092.2  318006.00  161661.96  50.84
1096.0  317480.90  161229.26  50.78
1099.8  316937.76  160764.55  50.72
1103.6  316168.08  160180.62  50.66
1107.4  315223.63  159478.24  50.59
1111.2  314893.60  159092.97  50.52
1114.9  314204.14  158507.50  50.45
1118.7  313650.15  157915.37  50.35
1122.5  313104.13  157248.04  50.22
1126.3  312195.74  156323.20  50.07
1130.1  311817.54  155480.85  49.86
1133.9  310489.20  153943.43  49.58
1137.7  309248.10  152245.58  49.23
1141.4  307645.44  150192.72  48.82
1145.2  306931.17  148458.69  48.37
1149.0  305912.64  146687.57  47.95
1152.8  304518.20  144947.88  47.60
1156.6  303084.83  143505.21  47.35
1160.3  301611.67  142324.51  47.19
1164.1  299620.94  141132.63  47.10
1167.9  298161.46  140331.94  47.07
1171.7  297076.50  139771.13  47.05
1175.4  295900.51  139206.27  47.04
1179.2  294764.59  138641.42  47.03
1183.0  294397.56  138398.16  47.01
1186.7  294096.29  138182.59  46.99
1190.5  293547.78  137839.49  46.96
1194.3  292730.63  137411.38  46.94
1198.0  291612.20  136902.18  46.95
1201.8  290212.10  136283.76  46.96
1205.6  289172.00  135880.25  46.99
1209.3  288499.06  135700.25  47.04
1213.1  287930.70  135554.42  47.08
1216.8  287312.94  135442.23  47.14
1220.6  286412.62  135181.69  47.20
1224.3  285377.47  134858.63  47.26
1228.1  284197.07  134467.86  47.32
1231.9  282946.15  134015.73  47.36
1235.6  281527.88  133454.91  47.40
1239.4  280219.34  132974.52  47.45
1243.1  279075.15  132511.08  47.48
1246.9  277986.86  132048.11  47.50
1250.6  277141.73  131659.70  47.51
1254.3  276196.41  131217.41  47.51
1258.1  275260.42  130767.68  47.51
1261.8  274092.76  130183.22  47.50
1265.6  272928.61  129570.52  47.47
1269.3  272012.96  129028.14  47.43
1273.1  272127.54  128946.31  47.38
1276.8  272152.53  128786.07  47.32
1280.6  271517.55  128311.55  47.26
1284.3  269965.87  127374.11  47.18
1288.0  268740.03  126544.24  47.09
1291.8  267971.26  125848.17  46.96
1295.5  267141.11  125073.28  46.82
1299.2  266130.51  124175.91  46.66
1302.9  264810.98  123056.85  46.47
1306.7  263343.69  121811.01  46.26
1310.4  261951.94  120490.97  46.00
1314.1  260651.36  119150.12  45.71
1317.9  259515.00  117768.99  45.38
1321.6  258258.34  116244.46  45.01
1325.3  256810.23  114535.50  44.60
1329.0  255613.75  112881.25  44.16
1332.8  253853.60  110879.27  43.68
1336.5  252332.56  108971.29  43.19
1340.2  251968.89  107559.84  42.69
1343.9  251419.10  106071.61  42.19
1347.6  250501.15  104429.49  41.69
1351.4  250268.17  103116.33  41.20
1355.1  250064.59  101837.65  40.72
