/*** Spectra Vista SIG Data ***/
name= 27_20220825_ACRU_32_avg.sig
comm= Averaged Ref/Tar of files: HR.082522.0002_moc.sig,HR.082522.0003_moc.sig,HR.082522.0004_moc.sig
data=
337.3  3424.13  290.19  8.47
338.8  3559.40  281.27  7.90
340.3  3748.00  278.42  7.43
341.8  3932.35  265.64  6.76
343.2  4129.20  252.02  6.10
344.7  4307.65  247.78  5.75
346.2  4493.50  253.66  5.65
347.7  4679.68  254.68  5.44
349.2  4914.00  248.40  5.05
350.6  5178.23  246.23  4.76
352.1  5465.93  246.33  4.51
353.6  5760.20  242.57  4.21
355.1  6027.83  239.89  3.98
356.6  6358.35  254.08  4.00
358.0  6635.20  248.52  3.75
359.5  6952.50  247.79  3.56
361.0  7271.78  257.64  3.54
362.5  7640.78  271.00  3.55
364.0  8029.00  273.10  3.40
365.4  8401.90  285.28  3.40
366.9  8757.13  294.14  3.36
368.4  9137.13  297.69  3.26
369.9  9539.83  310.92  3.26
371.3  9959.10  312.26  3.14
372.8  10407.60  329.73  3.17
374.3  10857.50  336.32  3.10
375.8  11292.05  347.01  3.07
377.2  11728.40  341.25  2.91
378.7  12158.80  350.98  2.89
380.2  12589.20  354.57  2.82
381.7  13107.13  364.97  2.78
383.1  13609.75  371.14  2.73
384.6  14161.88  381.25  2.69
386.1  14674.58  391.73  2.67
387.6  15145.90  397.83  2.63
389.0  15651.20  411.44  2.63
390.5  16168.95  416.20  2.57
392.0  16769.30  427.73  2.55
393.4  17367.78  437.92  2.52
394.9  17930.70  444.45  2.48
396.4  18526.50  450.96  2.43
397.9  19065.00  461.74  2.42
399.3  19652.20  473.70  2.41
400.8  20239.10  484.26  2.39
402.2  20941.15  494.74  2.36
403.7  21547.13  499.38  2.32
405.2  22207.15  516.79  2.33
406.6  22782.40  526.31  2.31
408.1  23413.60  538.10  2.30
409.6  24035.25  553.56  2.30
411.0  24766.00  562.42  2.27
412.5  25448.15  577.94  2.27
414.0  26120.75  587.58  2.25
415.4  26871.00  609.88  2.27
416.9  27563.25  623.78  2.26
418.4  28311.30  637.44  2.25
419.8  29047.20  657.63  2.26
421.3  29821.23  677.69  2.27
422.7  30641.40  696.33  2.27
424.2  31438.13  714.21  2.27
425.7  32241.40  730.55  2.27
427.1  33042.60  747.24  2.26
428.6  33867.50  771.16  2.28
430.0  34629.35  795.46  2.30
431.5  35551.35  820.16  2.31
432.9  36463.85  841.61  2.31
434.4  37402.58  860.59  2.30
435.9  38262.00  879.73  2.30
437.3  39160.00  898.86  2.30
438.8  40019.10  923.62  2.31
440.2  40937.05  950.44  2.32
441.7  41942.00  975.01  2.32
443.1  42890.25  1000.69  2.33
444.6  43911.20  1025.04  2.33
446.0  44880.53  1053.32  2.35
447.5  45883.75  1079.05  2.35
448.9  46865.70  1106.21  2.36
450.4  47915.00  1133.93  2.37
451.8  48828.00  1160.10  2.38
453.3  49789.60  1185.72  2.38
454.7  50855.50  1213.86  2.39
456.2  51762.65  1237.10  2.39
457.6  52781.40  1263.27  2.39
459.1  53806.35  1291.64  2.40
460.5  54784.00  1314.06  2.40
462.0  55898.83  1340.39  2.40
463.4  56992.00  1372.09  2.41
464.8  58025.25  1400.45  2.41
466.3  59059.28  1425.74  2.41
467.7  60086.18  1448.79  2.41
469.2  61212.18  1478.01  2.41
470.6  62227.45  1502.15  2.41
472.0  63323.43  1534.85  2.42
473.5  64381.75  1562.90  2.43
474.9  65464.50  1591.66  2.43
476.4  66686.40  1625.97  2.44
477.8  67802.00  1656.31  2.44
479.2  68875.00  1692.50  2.46
480.7  70030.05  1725.14  2.46
482.1  71209.60  1759.60  2.47
483.6  72466.75  1797.03  2.48
485.0  73619.85  1836.26  2.49
486.4  74874.30  1878.20  2.51
487.9  76006.13  1923.26  2.53
489.3  77232.63  1970.06  2.55
490.7  78366.45  2021.11  2.58
492.2  79659.30  2079.84  2.61
493.6  80824.05  2139.46  2.65
495.0  81987.75  2207.12  2.69
496.5  83221.93  2285.11  2.75
497.9  84366.58  2364.77  2.80
499.3  85599.28  2459.81  2.87
500.7  86903.80  2570.03  2.96
502.2  88125.60  2697.80  3.06
503.6  89439.60  2846.03  3.18
505.0  90566.30  3007.30  3.32
506.5  91930.05  3202.66  3.48
507.9  93175.13  3428.39  3.68
509.3  94616.40  3689.85  3.90
510.7  95940.00  3986.36  4.16
512.2  97402.28  4330.09  4.45
513.6  98943.25  4714.45  4.76
515.0  100442.73  5141.32  5.12
516.4  101875.73  5597.64  5.49
517.8  103564.50  6107.65  5.90
519.3  104929.13  6619.81  6.31
520.7  106555.20  7170.85  6.73
522.1  107914.95  7708.08  7.14
523.5  109337.40  8247.33  7.54
524.9  110818.80  8773.35  7.92
526.3  112245.70  9264.91  8.25
527.8  113840.10  9752.91  8.57
529.2  115117.40  10196.99  8.86
530.6  116712.65  10642.08  9.12
532.0  118468.00  11059.20  9.34
533.4  119840.10  11397.05  9.51
534.8  120770.70  11662.94  9.66
536.3  122485.50  11982.75  9.78
537.7  124563.60  12318.24  9.89
539.1  126072.43  12589.11  9.99
540.5  127308.25  12830.84  10.08
541.9  129159.98  13131.48  10.17
543.3  130473.40  13384.01  10.26
544.7  131863.80  13645.47  10.35
546.1  133732.78  13954.80  10.43
547.5  134993.60  14198.83  10.52
549.0  136807.00  14482.50  10.59
550.4  138337.50  14717.75  10.64
551.8  139940.40  14929.26  10.67
553.2  141527.73  15096.77  10.67
554.6  142937.60  15192.72  10.63
556.0  144527.40  15253.53  10.55
557.4  146191.68  15263.69  10.44
558.8  147870.45  15223.37  10.30
560.2  149368.88  15109.95  10.12
561.6  151089.53  14962.95  9.90
563.0  152735.98  14759.97  9.66
564.4  154378.15  14518.61  9.40
565.8  155953.75  14231.43  9.13
567.2  157767.00  13937.94  8.83
568.6  159307.88  13607.01  8.54
570.0  160794.73  13257.59  8.25
571.4  162567.60  12939.66  7.96
572.8  164383.00  12642.87  7.69
574.2  166073.60  12358.40  7.44
575.6  167670.00  12098.57  7.22
577.0  169240.10  11869.95  7.01
578.4  171023.13  11682.45  6.83
579.8  172584.00  11507.35  6.67
581.2  174354.23  11372.16  6.52
582.5  175815.90  11238.02  6.39
583.9  177377.60  11130.21  6.27
585.3  179244.68  11060.49  6.17
586.7  180771.83  10983.75  6.08
588.1  182299.38  10931.44  6.00
589.5  183995.00  10899.70  5.92
590.9  185665.20  10884.37  5.86
592.3  187534.65  10890.05  5.81
593.7  189034.95  10879.98  5.76
595.0  190707.75  10880.24  5.71
596.4  192203.90  10863.45  5.65
597.8  193719.20  10836.06  5.59
599.2  195320.40  10795.84  5.53
600.6  197130.05  10749.59  5.45
602.0  198461.78  10653.57  5.37
603.3  200309.65  10571.32  5.28
604.7  202034.45  10459.16  5.18
606.1  203563.80  10322.40  5.07
607.5  205240.58  10184.08  4.96
608.9  207012.70  10040.80  4.85
610.2  208415.03  9884.16  4.74
611.6  210076.13  9743.18  4.64
613.0  211663.60  9600.86  4.54
614.4  213070.20  9466.92  4.44
615.8  214563.38  9341.06  4.35
617.1  216163.50  9240.28  4.27
618.5  217841.20  9168.95  4.21
619.9  219397.50  9115.91  4.15
621.3  221059.80  9092.95  4.11
622.6  222695.75  9078.54  4.08
624.0  224179.50  9081.66  4.05
625.4  225704.33  9096.87  4.03
626.8  227313.45  9138.22  4.02
628.1  228658.93  9172.84  4.01
629.5  230556.80  9242.04  4.01
630.9  232199.55  9288.24  4.00
632.2  233592.98  9301.01  3.98
633.6  235246.13  9301.97  3.95
635.0  236809.60  9249.34  3.91
636.3  238394.00  9166.69  3.85
637.7  239792.38  9034.67  3.77
639.1  241482.50  8880.33  3.68
640.4  242995.90  8697.78  3.58
641.8  244238.15  8483.34  3.47
643.2  245879.03  8295.28  3.37
644.5  247269.25  8098.13  3.28
645.9  249019.65  7935.61  3.19
647.2  250645.50  7808.03  3.12
648.6  252497.25  7714.29  3.06
650.0  254016.00  7632.00  3.00
651.3  254635.70  7559.64  2.97
652.7  256108.55  7509.03  2.93
654.0  258243.30  7491.57  2.90
655.4  259748.88  7459.35  2.87
656.8  259960.40  7390.26  2.84
658.1  261140.80  7346.15  2.81
659.5  263630.85  7337.09  2.78
660.8  265432.50  7308.43  2.75
662.2  266336.00  7266.56  2.73
663.5  268059.30  7257.18  2.71
664.9  269332.70  7262.27  2.70
666.2  270129.60  7273.57  2.69
667.6  271985.48  7338.33  2.70
668.9  273093.10  7419.09  2.72
670.3  274384.63  7511.18  2.74
671.6  275920.88  7633.76  2.77
673.0  277137.75  7782.94  2.81
674.3  278393.70  7947.58  2.85
675.7  279734.40  8134.95  2.91
677.0  280884.83  8348.52  2.97
678.4  282316.45  8604.01  3.05
679.7  283461.75  8888.45  3.14
681.1  284789.58  9234.92  3.24
682.4  285974.00  9631.81  3.37
683.8  287255.80  10103.28  3.52
685.1  288244.50  10702.18  3.71
686.4  289599.00  11472.11  3.96
687.8  290896.50  12448.98  4.28
689.1  292009.00  13694.98  4.69
690.5  293410.80  15304.43  5.22
691.8  294265.18  17328.01  5.89
693.1  295673.10  19878.93  6.72
694.5  296864.75  22894.73  7.71
695.8  298116.00  26371.80  8.85
697.1  299344.50  30282.63  10.12
698.5  300434.50  34574.48  11.51
699.8  301577.50  39204.86  13.00
701.1  302779.28  44096.61  14.56
702.5  303590.65  49095.86  16.17
703.8  304582.50  54201.86  17.80
705.1  305787.30  59356.63  19.41
706.5  306850.75  64443.84  21.00
707.8  307871.25  69460.39  22.56
709.1  308777.08  74360.96  24.08
710.5  309982.63  79233.76  25.56
711.8  310862.00  83918.51  27.00
713.1  311910.10  88556.49  28.39
714.4  312846.70  93055.99  29.74
715.8  313694.10  97432.31  31.06
717.1  315090.30  101843.63  32.32
718.4  316086.40  106018.99  33.54
719.7  317212.15  110123.22  34.72
721.0  317767.50  113900.57  35.84
722.4  318563.85  117626.81  36.92
723.7  319546.20  121303.05  37.96
725.0  320627.03  124855.05  38.94
726.3  321627.08  128230.85  39.87
727.6  322197.70  131288.53  40.75
729.0  323173.73  134344.87  41.57
730.3  324007.80  137188.65  42.34
731.6  324910.25  139941.53  43.07
732.9  325733.63  142492.21  43.75
734.2  326572.13  144913.42  44.37
735.5  327632.68  147290.25  44.96
736.8  328458.30  149403.90  45.49
738.1  329342.00  151412.19  45.97
739.5  330327.20  153343.18  46.42
740.8  331048.85  155019.52  46.83
742.1  331811.58  156620.94  47.20
743.4  332550.00  158102.38  47.54
744.7  333593.93  159598.47  47.84
746.0  334493.25  160954.63  48.12
747.3  335117.73  162049.23  48.36
748.6  335883.00  163156.41  48.58
749.9  336648.00  164161.03  48.76
751.2  337413.45  165085.70  48.93
752.5  338328.70  166040.55  49.08
753.8  338948.93  166789.11  49.21
755.1  339664.00  167517.75  49.32
756.4  340246.53  168144.83  49.42
757.7  341295.68  168929.74  49.50
759.0  343127.90  170092.35  49.57
760.3  344361.60  170909.58  49.63
761.6  345986.20  171896.80  49.68
762.9  346546.25  172321.46  49.73
764.2  346956.20  172642.66  49.76
765.5  347244.23  172887.93  49.79
766.8  347697.60  173194.06  49.81
768.1  348226.60  173539.07  49.84
769.3  348887.70  173902.17  49.84
770.6  349542.70  174289.28  49.86
771.9  350327.95  174704.32  49.87
773.2  350740.00  174933.72  49.88
774.5  351379.60  175276.05  49.88
775.8  352085.40  175641.55  49.89
777.1  352656.70  175962.17  49.90
778.4  353011.73  176152.62  49.90
779.6  353816.68  176571.03  49.90
780.9  354330.00  176830.29  49.91
782.2  354832.50  177089.84  49.91
783.5  355142.00  177256.12  49.91
784.8  355689.68  177541.43  49.91
786.0  356137.95  177747.83  49.91
787.3  356517.33  177968.04  49.92
788.6  356981.03  178198.78  49.92
789.9  357452.20  178443.81  49.92
791.2  358129.55  178785.87  49.92
792.4  358833.95  179129.62  49.92
793.7  359350.60  179379.63  49.92
795.0  360033.30  179718.35  49.92
796.2  360697.28  180069.13  49.92
797.5  361452.53  180447.64  49.92
798.8  362183.45  180792.82  49.92
800.0  362886.10  181141.34  49.92
801.3  363382.60  181386.34  49.92
802.6  364036.05  181701.92  49.91
803.8  364649.58  182035.71  49.92
805.1  365150.63  182283.45  49.92
806.4  365683.80  182531.66  49.92
807.7  366243.53  182808.28  49.91
808.9  366870.05  183094.68  49.91
810.2  367419.50  183362.09  49.91
811.4  367917.50  183621.34  49.91
812.7  368550.00  183952.32  49.91
814.0  369403.55  184388.06  49.92
815.2  370113.75  184705.18  49.90
816.5  370540.38  184922.12  49.91
817.7  371081.00  185165.05  49.90
819.0  371584.40  185439.63  49.91
820.2  371756.00  185524.95  49.91
821.5  372514.95  185895.38  49.90
822.7  372930.18  186081.97  49.90
824.0  373212.90  186243.84  49.90
825.2  373764.38  186504.04  49.90
826.5  374087.08  186657.91  49.90
827.7  374691.05  186926.11  49.89
829.0  375133.78  187132.77  49.88
830.2  375473.85  187292.11  49.88
831.5  376024.70  187538.07  49.87
832.7  376335.75  187694.03  49.87
834.0  376713.18  187871.11  49.87
835.2  377129.50  188055.51  49.86
836.4  377397.90  188227.95  49.88
837.7  377828.20  188433.27  49.87
838.9  378310.18  188676.46  49.87
840.1  378785.03  188888.55  49.87
841.4  379238.50  189115.01  49.87
842.6  379630.40  189310.96  49.87
843.8  380021.00  189493.42  49.86
845.1  380552.20  189775.30  49.87
846.3  380973.90  189989.26  49.87
847.5  381416.70  190216.80  49.87
848.8  381862.20  190406.39  49.86
850.0  382290.30  190594.43  49.86
851.2  382920.75  190880.56  49.85
852.5  383292.30  191092.25  49.86
853.7  383800.50  191357.74  49.86
854.9  384305.40  191595.57  49.86
856.1  384828.60  191817.49  49.84
857.4  385042.53  191905.99  49.84
858.6  385607.05  192144.16  49.83
859.8  386002.50  192360.36  49.83
861.0  386521.20  192612.75  49.83
862.2  387003.38  192866.41  49.84
863.5  387424.05  193060.13  49.83
864.7  388047.00  193295.77  49.81
865.9  388506.20  193500.58  49.81
867.1  388842.60  193634.60  49.80
868.3  389294.85  193882.89  49.80
869.5  389824.45  194129.43  49.80
870.8  390379.50  194436.77  49.81
872.0  391032.53  194685.20  49.79
873.2  391453.35  194886.75  49.79
874.4  391952.93  195092.32  49.77
875.6  392413.23  195301.36  49.77
876.8  392926.80  195541.69  49.77
878.0  393471.35  195792.03  49.76
879.2  393992.55  196056.82  49.76
880.4  394542.75  196321.24  49.76
881.6  395134.40  196541.02  49.74
882.8  395643.20  196716.95  49.72
884.0  396340.35  197024.91  49.71
885.2  396930.20  197278.23  49.70
886.5  397603.75  197563.48  49.69
887.7  398090.55  197820.08  49.69
888.8  398689.20  198124.12  49.69
890.0  399384.00  198404.74  49.68
891.2  400099.00  198656.49  49.65
892.4  400815.45  198957.01  49.64
893.6  401394.10  199235.28  49.64
894.8  402339.00  199691.15  49.63
896.0  403252.75  200108.80  49.62
897.2  404108.25  200513.61  49.62
898.4  405005.70  200907.46  49.61
899.6  405631.88  201145.53  49.59
900.8  406097.10  201339.66  49.58
902.0  406303.05  201432.69  49.58
903.2  406643.18  201534.03  49.56
904.3  407149.80  201722.07  49.54
905.5  407755.20  202021.07  49.54
906.7  408373.00  202313.21  49.54
907.9  409012.80  202558.72  49.52
909.1  409296.38  202710.28  49.53
910.2  409513.65  202786.46  49.52
911.4  409783.73  202890.26  49.51
912.6  410109.70  202937.56  49.48
913.8  410339.25  203051.33  49.48
915.0  410960.55  203252.00  49.46
916.2  411177.00  203328.73  49.45
917.3  411120.00  203281.71  49.45
918.5  411506.30  203379.75  49.42
919.7  411751.50  203456.48  49.41
920.8  411845.40  203431.97  49.40
922.0  412065.50  203459.67  49.38
923.2  412230.00  203538.40  49.37
924.4  412495.88  203608.93  49.36
925.5  412902.90  203630.08  49.32
926.7  413599.38  203897.27  49.30
927.9  414279.00  204268.85  49.31
929.0  415993.05  204919.69  49.26
930.2  418328.70  205957.21  49.23
931.4  420909.08  207145.61  49.21
932.5  423624.30  208444.09  49.20
933.7  425079.10  209052.61  49.18
934.9  425731.25  209321.33  49.17
936.0  425576.13  208970.20  49.10
937.2  423386.55  207805.20  49.08
938.3  421719.45  206855.29  49.05
939.5  420123.60  206030.81  49.04
940.7  420467.40  206057.35  49.01
941.8  421897.13  206747.55  49.00
943.0  423388.50  207335.91  48.97
944.2  424478.60  207598.25  48.91
945.3  424037.25  207236.53  48.87
946.5  423150.75  206729.54  48.85
947.6  423544.70  206638.89  48.79
948.8  423556.58  206446.30  48.74
949.9  423620.40  206382.64  48.72
951.1  423107.75  205910.53  48.67
952.2  423096.00  205600.91  48.59
953.4  422997.25  205173.55  48.50
954.5  422884.80  204955.92  48.47
955.7  422830.80  204726.24  48.42
956.8  422726.00  204369.45  48.35
958.0  422400.50  203995.17  48.29
959.1  422105.75  203677.04  48.25
960.3  422004.13  203359.23  48.19
961.4  421955.45  203138.17  48.14
962.6  421960.00  203129.90  48.14
963.7  421959.00  202923.49  48.09
964.9  421722.00  202799.51  48.09
966.0  421509.83  202634.31  48.07
967.2  421583.40  202570.35  48.05
968.3  421406.55  202416.76  48.03
969.5  421599.10  202401.65  48.01
970.6  421538.50  202387.98  48.01
971.8  421590.40  202456.93  48.02
972.9  421503.75  202327.75  48.00
974.0  422040.50  202405.63  47.96
975.2  421971.63  202361.85  47.96
976.3  421983.93  202406.14  47.97
977.5  422421.48  202485.70  47.93
978.6  422505.60  202427.74  47.91
979.7  422601.38  202573.60  47.93
980.9  422516.73  202589.87  47.95
982.0  422356.00  202566.33  47.96
983.2  422534.98  202520.94  47.93
984.3  422532.60  202407.54  47.90
985.4  422359.75  202457.17  47.93
986.6  422518.00  202333.72  47.89
987.7  423294.03  203022.11  47.96
988.9  423291.60  202959.36  47.95
990.0  424249.10  203340.17  47.93
993.1  376775.70  179059.77  47.52
996.9  377335.98  179722.31  47.63
1000.7  378286.94  180592.06  47.74
1004.5  378840.75  181196.47  47.83
1008.4  378724.29  181470.66  47.92
1012.2  378907.33  181855.81  47.99
1016.0  379045.20  182226.07  48.08
1019.8  379267.35  182593.31  48.14
1023.7  379226.96  182794.52  48.20
1027.5  378784.47  182804.51  48.26
1031.3  378845.03  182990.39  48.30
1035.1  378555.28  182988.61  48.34
1038.9  378474.62  183025.32  48.36
1042.7  378302.50  183036.33  48.38
1046.5  378151.33  183006.89  48.40
1050.3  378163.02  183051.91  48.41
1054.2  377894.42  182956.00  48.41
1058.0  377403.72  182709.40  48.41
1061.8  377295.17  182647.82  48.41
1065.6  376948.37  182430.09  48.40
1069.4  376845.33  182345.36  48.39
1073.2  376334.59  182031.08  48.37
1077.0  375882.98  181720.35  48.34
1080.8  375519.79  181401.04  48.31
1084.6  374596.02  180817.01  48.27
1088.4  374034.43  180418.04  48.24
1092.2  373230.00  179858.72  48.19
1096.0  372586.93  179373.23  48.14
1099.8  372048.73  178921.33  48.09
1103.6  371332.90  178365.22  48.03
1107.4  370323.93  177650.25  47.97
1111.2  370072.00  177262.85  47.90
1114.9  369412.17  176633.83  47.81
1118.7  368817.08  175978.08  47.71
1122.5  368153.93  175217.15  47.59
1126.3  367031.93  174197.82  47.46
1130.1  366527.47  173308.63  47.28
1133.9  364879.20  171687.81  47.05
1137.7  363423.70  169939.82  46.76
1141.4  361612.12  167822.23  46.41
1145.2  360840.00  166040.10  46.01
1149.0  359727.08  164131.46  45.63
1152.8  358037.20  162157.04  45.29
1156.6  356289.27  160449.30  45.03
1160.3  354512.33  159030.31  44.86
1164.1  352037.63  157547.06  44.75
1167.9  350222.92  156531.58  44.69
1171.7  348964.88  155847.00  44.66
1175.4  347703.80  155244.72  44.65
1179.2  346596.30  154677.14  44.63
1183.0  346290.67  154445.66  44.60
1186.7  345864.40  154126.75  44.56
1190.5  344928.33  153579.94  44.53
1194.3  343703.40  152940.97  44.50
1198.0  342420.65  152305.43  44.48
1201.8  340893.35  151606.84  44.47
1205.6  339667.67  151103.08  44.49
1209.3  338748.43  150794.94  44.52
1213.1  337783.20  150485.05  44.55
1216.8  336769.31  150226.37  44.61
1220.6  335576.27  149897.57  44.67
1224.3  334246.92  149500.65  44.73
1228.1  332904.00  149147.51  44.80
1231.9  331567.70  148741.68  44.86
1235.6  330058.73  148200.56  44.90
1239.4  328638.13  147719.90  44.95
1243.1  327371.67  147232.88  44.97
1246.9  326140.20  146742.36  44.99
1250.6  325149.27  146328.03  45.00
1254.3  324058.26  145848.42  45.01
1258.1  323036.82  145365.18  45.00
1261.8  321718.53  144754.31  44.99
1265.6  320331.70  144059.34  44.97
1269.3  318968.55  143332.18  44.94
1273.1  318946.43  143173.59  44.89
1276.8  319111.20  143073.08  44.83
1280.6  318839.03  142765.65  44.78
1284.3  317356.40  141893.58  44.71
1288.0  315949.14  140976.89  44.62
1291.8  314779.74  140095.72  44.51
1295.5  313454.53  139113.38  44.38
1299.2  312153.32  138113.37  44.25
1302.9  310637.05  136939.34  44.08
1306.7  309014.42  135647.93  43.90
1310.4  307442.48  134272.86  43.67
1314.1  305991.95  132882.08  43.43
1317.9  304698.96  131439.59  43.14
1321.6  303271.24  129839.56  42.81
1325.3  301607.25  128018.81  42.45
1329.0  300241.08  126267.26  42.06
1332.8  298159.40  124106.64  41.62
1336.5  296326.00  122027.44  41.18
1340.2  295962.33  120539.61  40.73
1343.9  295513.13  119018.73  40.28
1347.6  294940.50  117429.32  39.81
1351.4  295275.00  116253.94  39.37
