/*** Spectra Vista SIG Data ***/
name= 10_20220824_TITO_9_avg.sig
comm= Averaged Ref/Tar of files: HR.082422.0026_moc.sig,HR.082422.0027_moc.sig,HR.082422.0028_moc.sig
data=
337.3  3473.75  282.86  8.14
338.8  3607.50  266.15  7.38
340.3  3748.00  273.29  7.29
341.8  3978.08  265.21  6.67
343.2  4173.60  264.92  6.35
344.7  4350.30  265.85  6.11
346.2  4534.35  279.14  6.16
347.7  4719.00  263.48  5.58
349.2  4914.00  253.26  5.15
350.6  5214.95  261.97  5.02
352.1  5537.38  264.37  4.77
353.6  5829.60  264.88  4.54
355.1  6128.85  277.26  4.52
356.6  6423.90  278.59  4.34
358.0  6699.00  280.72  4.19
359.5  7014.30  281.19  4.01
361.0  7361.55  293.27  3.98
362.5  7757.88  290.80  3.75
364.0  8143.70  300.13  3.69
365.4  8514.30  314.72  3.70
366.9  8895.25  333.34  3.75
368.4  9246.23  336.39  3.64
369.9  9647.93  345.02  3.58
371.3  10119.30  347.99  3.44
372.8  10566.90  372.59  3.53
374.3  11018.75  377.15  3.42
375.8  11453.75  386.28  3.37
377.2  11889.80  392.74  3.30
378.7  12347.10  396.33  3.21
380.2  12804.40  407.98  3.19
381.7  13377.38  413.48  3.09
383.1  13879.25  430.30  3.10
384.6  14404.65  435.20  3.02
386.1  14944.83  447.71  3.00
387.6  15469.30  458.15  2.96
389.0  15972.80  482.40  3.02
390.5  16514.10  484.98  2.94
392.0  17113.15  483.15  2.82
393.4  17735.63  493.97  2.79
394.9  18322.20  508.95  2.78
396.4  18888.75  523.54  2.77
397.9  19475.00  544.96  2.80
399.3  20082.73  556.31  2.77
400.8  20687.75  568.29  2.75
402.2  21358.50  581.02  2.72
403.7  22028.63  589.04  2.67
405.2  22680.65  606.87  2.68
406.6  23292.80  617.12  2.65
408.1  23933.40  637.32  2.66
409.6  24562.05  652.65  2.66
411.0  25257.05  668.26  2.65
412.5  25968.78  687.23  2.65
414.0  26650.50  707.01  2.65
415.4  27427.50  720.80  2.63
416.9  28141.50  740.16  2.63
418.4  28871.55  761.94  2.64
419.8  29647.80  786.85  2.65
421.3  30409.45  805.69  2.65
422.7  31250.40  828.24  2.65
424.2  32062.50  853.88  2.66
425.7  32877.10  878.03  2.67
427.1  33691.43  899.92  2.67
428.6  34534.00  923.28  2.67
430.0  35312.23  941.86  2.67
431.5  36237.90  973.11  2.69
432.9  37181.70  1003.04  2.70
434.4  38133.15  1029.49  2.70
435.9  39018.00  1052.33  2.70
437.3  39902.50  1074.33  2.69
438.8  40806.45  1098.67  2.69
440.2  41732.08  1126.96  2.70
441.7  42759.40  1160.89  2.71
443.1  43725.00  1195.15  2.73
444.6  44762.70  1224.41  2.74
446.0  45762.83  1251.66  2.74
447.5  46775.58  1283.02  2.74
448.9  47755.80  1313.65  2.75
450.4  48821.50  1348.10  2.76
451.8  49751.00  1381.47  2.78
453.3  50744.08  1411.66  2.78
454.7  51817.28  1443.10  2.78
456.2  52754.53  1474.59  2.80
457.6  53763.75  1502.29  2.79
459.1  54819.05  1536.37  2.80
460.5  55800.50  1563.09  2.80
462.0  56940.25  1596.40  2.80
463.4  58033.20  1627.10  2.80
464.8  59093.63  1657.60  2.81
466.3  60139.20  1689.55  2.81
467.7  61169.95  1721.37  2.81
469.2  62295.95  1753.28  2.81
470.6  63337.40  1783.88  2.82
472.0  64449.43  1817.08  2.82
473.5  65525.88  1849.90  2.82
474.9  66618.75  1882.43  2.83
476.4  67838.40  1920.48  2.83
477.8  68991.00  1954.60  2.83
479.2  70064.00  1985.53  2.83
480.7  71245.95  2022.64  2.84
482.1  72452.30  2058.16  2.84
483.6  73709.45  2097.18  2.85
485.0  74879.18  2137.96  2.86
486.4  76125.60  2176.20  2.86
487.9  77278.50  2208.38  2.86
489.3  78513.70  2254.89  2.87
490.7  79647.53  2301.03  2.89
492.2  80952.90  2351.02  2.90
493.6  82127.90  2392.83  2.91
495.0  83318.63  2445.30  2.93
496.5  84572.03  2499.64  2.96
497.9  85746.03  2554.43  2.98
499.3  86978.73  2619.49  3.01
500.7  88310.20  2685.35  3.04
502.2  89512.60  2759.40  3.08
503.6  90855.80  2836.29  3.12
505.0  91987.35  2923.65  3.18
506.5  93378.00  3026.41  3.24
507.9  94627.98  3142.90  3.32
509.3  96096.40  3272.28  3.41
510.7  97417.13  3419.81  3.51
512.2  98907.68  3584.49  3.62
513.6  100464.35  3780.27  3.76
515.0  101964.80  3999.12  3.92
516.4  103420.80  4242.11  4.10
517.8  105132.38  4519.53  4.30
519.3  106533.68  4814.12  4.52
520.7  108185.00  5142.30  4.75
522.1  109564.00  5481.93  5.00
523.5  110991.50  5843.10  5.26
524.9  112548.60  6214.73  5.52
526.3  114053.80  6584.26  5.77
527.8  115636.95  6951.78  6.01
529.2  116741.50  7296.53  6.25
530.6  118359.95  7671.51  6.48
532.0  120162.00  8018.73  6.67
533.4  121591.28  8320.12  6.84
534.8  122556.08  8557.46  6.98
536.3  124343.10  8838.65  7.11
537.7  126453.60  9122.82  7.21
539.1  127995.13  9355.09  7.31
540.5  129248.30  9550.43  7.39
541.9  131091.08  9779.53  7.46
543.3  132429.58  9970.32  7.53
544.7  133801.80  10166.14  7.60
546.1  135672.08  10399.31  7.67
547.5  136976.00  10587.73  7.73
549.0  138798.00  10802.00  7.78
550.4  140420.00  10990.15  7.83
551.8  142055.93  11158.61  7.86
553.2  143664.63  11294.49  7.86
554.6  145090.40  11383.15  7.85
556.0  146700.90  11447.79  7.80
557.4  148401.23  11485.19  7.74
558.8  150126.75  11489.54  7.65
560.2  151661.75  11438.78  7.54
561.6  153414.30  11376.46  7.42
563.0  155092.85  11277.04  7.27
564.4  156762.45  11151.00  7.11
565.8  158344.38  10996.88  6.94
567.2  160175.00  10842.81  6.77
568.6  161754.75  10649.53  6.58
570.0  163264.10  10439.42  6.39
571.4  165098.05  10244.82  6.21
572.8  166964.00  10058.11  6.02
574.2  168660.80  9877.28  5.86
575.6  170268.75  9712.50  5.70
577.0  171873.00  9563.19  5.56
578.4  173696.25  9447.70  5.44
579.8  175280.63  9335.68  5.33
581.2  177097.50  9258.46  5.23
582.5  178588.80  9170.07  5.13
583.9  180186.00  9103.31  5.05
585.3  182070.90  9063.80  4.98
586.7  183633.78  9015.94  4.91
588.1  185197.25  8982.20  4.85
589.5  186935.00  8969.45  4.80
590.9  188641.20  8962.72  4.75
592.3  190546.65  8979.94  4.71
593.7  192051.60  8991.22  4.68
595.0  193760.10  9017.26  4.65
596.4  195273.05  9035.22  4.63
597.8  196831.05  9053.13  4.60
599.2  198462.00  9077.64  4.57
600.6  200314.73  9104.08  4.54
602.0  201670.35  9098.12  4.51
603.3  203561.65  9103.79  4.47
604.7  205302.78  9088.86  4.43
606.1  206875.80  9054.64  4.38
607.5  208596.50  9015.97  4.32
608.9  210370.65  8966.71  4.26
610.2  211831.20  8903.32  4.20
611.6  213499.80  8841.87  4.14
613.0  215131.60  8779.34  4.08
614.4  216576.75  8718.36  4.03
615.8  218102.63  8668.24  3.97
617.1  219706.20  8621.06  3.92
618.5  221437.60  8592.88  3.88
619.9  223009.35  8566.45  3.84
621.3  224723.03  8558.08  3.81
622.6  226401.50  8566.43  3.78
624.0  227902.95  8580.42  3.76
625.4  229450.65  8605.58  3.75
626.8  231103.60  8643.56  3.74
628.1  232471.80  8677.67  3.73
629.5  234390.60  8736.77  3.73
630.9  236041.03  8783.39  3.72
632.2  237446.30  8815.12  3.71
633.6  239082.13  8839.35  3.70
635.0  240679.60  8845.96  3.68
636.3  242269.20  8833.96  3.65
637.7  243719.13  8790.59  3.61
639.1  245455.00  8751.75  3.57
640.4  247008.13  8690.80  3.52
641.8  248266.60  8615.42  3.47
643.2  249916.63  8551.06  3.42
644.5  251339.00  8478.95  3.37
645.9  253134.00  8425.50  3.33
647.2  254937.38  8387.28  3.29
648.6  256871.25  8365.28  3.26
650.0  258400.80  8344.80  3.23
651.3  258858.33  8315.15  3.21
652.7  260165.35  8312.60  3.20
654.0  262296.60  8340.18  3.18
655.4  263893.93  8333.37  3.16
656.8  264159.90  8290.80  3.14
658.1  265544.60  8271.88  3.12
659.5  268055.55  8284.27  3.09
660.8  269910.00  8286.00  3.07
662.2  270883.20  8243.20  3.04
663.5  272577.90  8236.85  3.02
664.9  273907.40  8227.83  3.00
666.2  274680.60  8211.78  2.99
667.6  276472.80  8242.39  2.98
668.9  277598.10  8277.94  2.98
670.3  278949.13  8321.26  2.98
671.6  280522.88  8392.01  2.99
673.0  281761.88  8474.61  3.01
674.3  283056.80  8568.91  3.03
675.7  284436.38  8675.48  3.05
677.0  285598.18  8797.52  3.08
678.4  287029.80  8925.26  3.11
679.7  288197.13  9073.57  3.15
681.1  289579.85  9239.12  3.19
682.4  290769.70  9419.76  3.24
683.8  292073.60  9627.50  3.30
685.1  293134.13  9855.95  3.36
686.4  294505.20  10125.42  3.44
687.8  295836.00  10451.57  3.53
689.1  296970.75  10858.74  3.66
690.5  298372.50  11408.19  3.82
691.8  299232.15  12129.01  4.05
693.1  300656.10  13136.25  4.37
694.5  301869.75  14440.94  4.78
695.8  303166.50  16095.63  5.31
697.1  304440.50  18130.23  5.96
698.5  305564.70  20563.93  6.73
699.8  306724.73  23414.96  7.63
701.1  307949.18  26640.10  8.65
702.5  308777.15  30179.42  9.77
703.8  309802.50  34020.00  10.98
705.1  311034.75  38124.00  12.26
706.5  312176.00  42428.22  13.59
707.8  313235.25  46897.01  14.97
709.1  314179.73  51483.68  16.39
710.5  315385.28  56258.26  17.84
711.8  316280.90  61110.92  19.32
713.1  317351.30  66094.23  20.83
714.4  318310.20  71157.81  22.35
715.8  319202.20  76275.66  23.90
717.1  320610.75  81567.07  25.44
718.4  321641.60  86797.76  26.99
719.7  322785.95  92090.56  28.53
721.0  323347.50  97210.50  30.06
722.4  324178.80  102352.95  31.57
723.7  325186.05  107498.41  33.06
725.0  326308.28  112575.11  34.50
726.3  327287.68  117491.69  35.90
727.6  327903.95  122127.45  37.24
729.0  328859.13  126737.04  38.54
730.3  329694.98  131105.89  39.77
731.6  330651.45  135354.19  40.94
732.9  331459.28  139346.65  42.04
734.2  332369.13  143171.10  43.08
735.5  333443.35  146886.18  44.05
736.8  334288.50  150288.02  44.96
738.1  335197.50  153520.06  45.80
739.5  336201.73  156604.84  46.58
740.8  336947.33  159379.57  47.30
742.1  337732.80  161998.77  47.97
743.4  338500.00  164445.83  48.58
744.7  339510.05  166865.77  49.15
746.0  340425.15  169069.29  49.66
747.3  341014.00  170955.39  50.13
748.6  341754.00  172790.23  50.56
749.9  342498.00  174475.60  50.94
751.2  343271.05  176015.65  51.28
752.5  344186.30  177551.53  51.59
753.8  344815.80  178827.57  51.86
755.1  345592.00  180071.67  52.11
756.4  346246.75  181147.92  52.32
757.7  347319.00  182370.29  52.51
759.0  349212.10  183957.89  52.68
760.3  350460.00  185143.20  52.83
761.6  352130.80  186479.30  52.96
762.9  352725.50  187197.39  53.07
764.2  353143.20  187781.73  53.17
765.5  353432.95  188261.56  53.27
766.8  353899.20  188799.73  53.35
768.1  354473.80  189346.79  53.42
769.3  355108.95  189902.04  53.48
770.6  355775.55  190473.66  53.54
771.9  356554.63  191069.70  53.59
773.2  357016.40  191451.97  53.63
774.5  357643.00  191939.37  53.67
775.8  358432.40  192468.93  53.70
777.1  359011.40  192917.62  53.74
778.4  359367.53  193224.17  53.77
779.6  360177.83  193772.32  53.80
780.9  360690.00  194134.00  53.82
782.2  361185.00  194499.43  53.85
783.5  361516.50  194777.07  53.88
784.8  362101.28  195159.24  53.90
786.0  362523.70  195461.06  53.92
787.3  362938.23  195761.91  53.94
788.6  363409.68  196085.49  53.96
789.9  363924.40  196418.93  53.97
791.2  364611.98  196857.24  53.99
792.4  365363.00  197308.11  54.00
793.7  365863.60  197650.07  54.02
795.0  366527.70  198065.67  54.04
796.2  367234.25  198493.59  54.05
797.5  367980.83  198954.57  54.07
798.8  368700.08  199391.11  54.08
800.0  369414.63  199835.89  54.10
801.3  369916.70  200161.26  54.11
802.6  370564.20  200556.02  54.12
803.8  371266.73  200977.96  54.13
805.1  371810.25  201317.58  54.15
806.4  372313.20  201623.93  54.15
807.7  372861.23  201982.21  54.17
808.9  373491.55  202371.22  54.18
810.2  374024.35  202705.62  54.20
811.4  374614.20  203058.38  54.20
812.7  375293.75  203450.00  54.21
814.0  376193.30  203990.15  54.22
815.2  376835.50  204395.48  54.24
816.5  377262.10  204704.01  54.26
817.7  377765.60  205035.82  54.28
819.0  378319.15  205385.25  54.29
820.2  378488.00  205529.87  54.30
821.5  379301.75  206010.64  54.31
822.7  379630.88  206259.32  54.33
824.0  380006.10  206513.28  54.34
825.2  380517.75  206852.00  54.36
826.5  380847.40  207108.62  54.38
827.7  381462.58  207480.81  54.39
829.0  381857.83  207766.65  54.41
830.2  382199.05  207991.65  54.42
831.5  382744.80  208333.13  54.43
832.7  383057.85  208571.83  54.45
834.0  383385.70  208822.45  54.47
835.2  383747.65  209123.04  54.49
836.4  384120.00  209348.96  54.50
837.7  384549.00  209652.83  54.52
838.9  385029.33  209978.95  54.54
840.1  385395.98  210284.24  54.56
841.4  385838.90  210630.52  54.59
842.6  386219.60  210917.98  54.61
843.8  386584.20  211178.77  54.63
845.1  387080.70  211527.36  54.65
846.3  387524.80  211834.47  54.66
847.5  387993.90  212132.97  54.67
848.8  388413.00  212464.28  54.70
850.0  388805.90  212732.25  54.71
851.2  389392.65  213122.21  54.73
852.5  389850.90  213409.56  54.74
853.7  390325.50  213732.90  54.76
854.9  390783.20  214062.65  54.78
856.1  391255.80  214409.61  54.80
857.4  391485.90  214559.87  54.81
858.6  391991.50  214888.23  54.82
859.8  392454.38  215189.69  54.83
861.0  392909.40  215516.34  54.85
862.2  393400.13  215847.67  54.87
863.5  393816.48  216095.09  54.87
864.7  394363.20  216437.54  54.88
865.9  394818.60  216706.16  54.89
867.1  395219.50  216933.24  54.89
868.3  395657.10  217254.62  54.91
869.5  396179.05  217602.18  54.93
870.8  396729.00  217917.90  54.93
872.0  397373.18  218234.35  54.92
873.2  397861.65  218512.61  54.92
874.4  398349.90  218826.56  54.93
875.6  398715.45  219075.45  54.95
876.8  399298.15  219394.88  54.95
878.0  399840.05  219703.82  54.95
879.2  400273.95  220022.57  54.97
880.4  400898.25  220340.73  54.96
881.6  401392.95  220622.35  54.96
882.8  401892.00  220893.65  54.96
884.0  402487.18  221274.16  54.98
885.2  403069.20  221585.74  54.97
886.5  403734.40  221953.22  54.98
887.7  404212.25  222241.72  54.98
888.8  404895.90  222644.07  54.99
890.0  405578.15  222964.75  54.97
891.2  406189.50  223321.46  54.98
892.4  406897.05  223701.52  54.98
893.6  407560.50  224033.02  54.97
894.8  408497.25  224583.88  54.98
896.0  409406.25  225112.23  54.99
897.2  410354.75  225596.04  54.98
898.4  411143.70  226001.16  54.97
899.6  411656.63  226322.85  54.98
900.8  412106.33  226589.95  54.98
902.0  412399.20  226741.13  54.98
903.2  412829.10  226969.19  54.98
904.3  413095.20  227136.30  54.98
905.5  413791.05  227480.75  54.97
906.7  414502.00  227832.33  54.97
907.9  415000.60  228123.67  54.97
909.1  415368.68  228345.73  54.97
910.2  415553.33  228465.51  54.98
911.4  415899.90  228601.04  54.97
912.6  416065.65  228753.05  54.98
913.8  416500.50  228865.79  54.95
915.0  416958.15  229108.32  54.95
916.2  417134.25  229210.48  54.95
917.3  417158.33  229195.12  54.94
918.5  417490.90  229314.26  54.93
919.7  417802.80  229410.05  54.91
920.8  417964.55  229454.82  54.90
922.0  417994.50  229551.12  54.92
923.2  418236.00  229647.60  54.91
924.4  418584.38  229785.53  54.90
925.5  418935.80  229900.26  54.88
926.7  419579.13  230210.88  54.87
927.9  420496.80  230632.18  54.85
929.0  422026.20  231383.57  54.83
930.2  424332.70  232639.99  54.82
931.4  426884.85  233918.39  54.80
932.5  429729.75  235404.24  54.78
933.7  431133.45  236140.89  54.77
934.9  432044.38  236407.65  54.72
936.0  431812.88  236137.58  54.69
937.2  429673.65  234856.28  54.66
938.3  427736.85  233736.99  54.65
939.5  426045.60  232723.32  54.62
940.7  426312.00  232735.41  54.59
941.8  428212.43  233549.15  54.54
943.0  429662.25  234291.70  54.53
944.2  430871.35  234626.10  54.45
945.3  430335.75  234260.98  54.44
946.5  429343.20  233630.51  54.42
947.6  429456.40  233563.00  54.39
948.8  429571.35  233295.66  54.31
949.9  429739.80  233155.72  54.26
951.1  429324.03  232669.16  54.19
952.2  429216.00  232274.40  54.12
953.4  428800.25  231864.39  54.07
954.5  428992.20  231561.72  53.98
955.7  428828.40  231300.30  53.94
956.8  428827.20  230894.10  53.84
958.0  428381.00  230470.75  53.80
959.1  428426.05  230126.64  53.71
960.3  427983.48  229806.35  53.70
961.4  427819.20  229593.18  53.67
962.6  427953.75  229624.56  53.66
963.7  427601.48  229370.70  53.64
964.9  427495.58  229152.36  53.60
966.0  427167.68  229031.48  53.62
967.2  427658.85  229026.86  53.55
968.3  427376.25  228883.73  53.56
969.5  427190.60  228850.78  53.57
970.6  427024.28  228843.44  53.59
971.8  427279.48  229000.24  53.59
972.9  427123.80  228850.52  53.58
974.0  427254.90  229064.25  53.61
975.2  427088.50  228974.47  53.61
976.3  427003.28  228942.11  53.62
977.5  427337.75  228871.51  53.56
978.6  426506.60  228963.89  53.68
979.7  426423.90  229110.82  53.73
980.9  426124.13  229099.96  53.76
982.0  426195.60  229048.14  53.74
983.2  425600.53  228979.55  53.80
984.3  424707.80  228885.42  53.89
985.4  425252.63  228999.99  53.85
986.6  424974.50  228700.15  53.82
987.7  425902.93  229409.27  53.86
988.9  425359.80  229202.52  53.88
990.0  426432.20  229613.61  53.85
993.1  384330.10  204913.10  53.32
996.9  384060.50  205587.14  53.53
1000.7  384592.78  206579.10  53.71
1004.5  384887.00  207351.18  53.87
1008.4  384387.75  207706.32  54.04
1012.2  384127.75  208215.53  54.20
1016.0  383775.60  208672.93  54.37
1019.8  383431.13  209105.05  54.54
1023.7  382831.42  209319.96  54.68
1027.5  381942.20  209335.39  54.81
1031.3  381728.33  209565.57  54.90
1035.1  381348.92  209616.62  54.97
1038.9  381198.40  209756.84  55.03
1042.7  380928.25  209822.28  55.08
1046.5  380756.83  209898.22  55.13
1050.3  380746.70  210062.56  55.17
1054.2  380367.75  210006.61  55.21
1058.0  379895.83  209864.59  55.24
1061.8  379754.48  209881.68  55.27
1065.6  379411.10  209732.78  55.28
1069.4  379060.33  209640.73  55.31
1073.2  378292.04  209282.38  55.32
1077.0  377624.43  208940.64  55.33
1080.8  377241.67  208679.16  55.32
1084.6  376439.23  208186.12  55.30
1088.4  376037.17  207853.36  55.27
1092.2  375336.00  207330.50  55.24
1096.0  374724.92  206832.23  55.20
1099.8  374120.72  206353.14  55.16
1103.6  373406.13  205760.62  55.10
1107.4  372378.04  205023.05  55.06
1111.2  372066.40  204635.29  55.00
1114.9  371386.17  204010.46  54.93
1118.7  370831.73  203394.95  54.85
1122.5  370168.93  202616.46  54.74
1126.3  369111.28  201477.76  54.58
1130.1  368612.41  200383.13  54.36
1133.9  366951.20  198347.96  54.05
1137.7  365479.70  196068.16  53.65
1141.4  363580.97  193289.46  53.16
1145.2  362744.43  190961.20  52.64
1149.0  361536.88  188526.85  52.15
1152.8  359829.35  186116.28  51.72
1156.6  358093.63  184067.07  51.40
1160.3  356386.00  182354.00  51.17
1164.1  353976.30  180608.34  51.02
1167.9  352211.46  179378.70  50.93
1171.7  350878.50  178531.50  50.88
1175.4  349531.60  177739.23  50.85
1179.2  348329.75  177014.92  50.82
1183.0  347994.67  176700.59  50.78
1186.7  347608.33  176331.04  50.73
1190.5  346743.13  175740.89  50.68
1194.3  345638.20  175063.57  50.65
1198.0  344315.13  174388.07  50.65
1201.8  342695.35  173657.74  50.67
1205.6  341476.67  173217.33  50.73
1209.3  340619.85  173041.22  50.80
1213.1  339798.98  172918.33  50.89
1216.8  338994.43  172817.39  50.98
1220.6  337958.13  172635.14  51.08
1224.3  336777.42  172359.63  51.18
1228.1  335445.40  172090.93  51.30
1231.9  334079.00  171745.02  51.41
1235.6  332505.98  171257.30  51.51
1239.4  331096.63  170824.36  51.59
1243.1  329780.98  170388.57  51.67
1246.9  328523.31  169934.42  51.73
1250.6  327498.53  169573.62  51.78
1254.3  326322.79  169112.68  51.82
1258.1  325221.28  168638.48  51.85
1261.8  323849.47  167998.28  51.88
1265.6  322428.07  167285.48  51.88
1269.3  321151.88  166575.85  51.87
1273.1  321221.78  166507.77  51.84
1276.8  321276.00  166405.33  51.80
1280.6  320721.20  165983.46  51.75
1284.3  319029.20  164925.69  51.70
1288.0  317540.83  163863.98  51.60
1291.8  316501.36  162911.14  51.47
1295.5  315342.13  161831.67  51.32
1299.2  314125.95  160624.67  51.13
1302.9  312588.09  159170.31  50.92
1306.7  310922.97  157545.89  50.67
1310.4  309353.11  155829.61  50.37
1314.1  307894.03  154060.30  50.04
1317.9  306584.79  152225.28  49.65
1321.6  305063.86  150164.56  49.22
1325.3  303373.35  147865.20  48.74
1329.0  302029.23  145650.16  48.22
1332.8  299945.80  142973.60  47.67
1336.5  298158.00  140378.70  47.08
1340.2  297782.33  138471.67  46.50
1343.9  297338.13  136530.28  45.92
1347.6  296701.80  134552.33  45.35
1351.4  296995.50  133031.33  44.79
1355.1  297406.63  131595.61  44.25
1358.8  297744.00  130023.11  43.67
