/*** Spectra Vista SIG Data ***/
name= 61_20220722_CECA_33_avg.sig
comm= Averaged Ref/Tar of files: HR.072222.0057_moc.sig,HR.072222.0058_moc.sig,HR.072222.0059_moc.sig
data=
337.3  3225.63  284.52  8.82
338.8  3367.00  275.77  8.19
340.3  3513.75  281.10  8.00
341.8  3703.73  274.35  7.41
343.2  3907.20  272.32  6.97
344.7  4051.75  267.27  6.60
346.2  4207.55  250.55  5.95
347.7  4365.08  251.68  5.77
349.2  4536.00  241.92  5.33
350.6  4810.98  254.63  5.29
352.1  5072.95  247.69  4.88
353.6  5343.80  249.84  4.68
355.1  5623.73  255.93  4.55
356.6  5932.28  253.46  4.27
358.0  6156.70  263.71  4.28
359.5  6427.20  263.68  4.10
361.0  6733.13  263.34  3.91
362.5  7084.55  269.33  3.80
364.0  7426.83  279.10  3.76
365.4  7783.70  292.24  3.75
366.9  8149.38  294.67  3.62
368.4  8455.25  309.12  3.66
369.9  8810.15  313.49  3.56
371.3  9211.50  327.52  3.56
372.8  9637.65  339.84  3.53
374.3  10051.25  344.00  3.42
375.8  10456.60  352.15  3.37
377.2  10867.60  355.08  3.27
378.7  11271.10  355.08  3.15
380.2  11674.60  365.84  3.13
381.7  12188.28  367.54  3.02
383.1  12666.50  388.08  3.06
384.6  13190.78  392.04  2.97
386.1  13674.65  407.18  2.98
387.6  14148.75  406.05  2.87
389.0  14659.60  410.93  2.80
390.5  15160.05  417.72  2.76
392.0  15711.30  423.20  2.69
393.4  16316.78  441.42  2.71
394.9  16834.50  455.88  2.71
396.4  17388.00  472.65  2.72
397.9  17911.88  485.17  2.71
399.3  18461.93  486.24  2.63
400.8  19017.78  495.18  2.60
402.2  19664.55  507.37  2.58
403.7  20247.08  516.81  2.55
405.2  20834.00  530.32  2.55
406.6  21413.60  541.33  2.53
408.1  21967.20  560.48  2.55
409.6  22586.55  576.55  2.55
411.0  23250.15  594.95  2.56
412.5  23886.28  610.87  2.56
414.0  24511.13  627.55  2.56
415.4  25201.50  646.60  2.57
416.9  25847.78  668.20  2.59
418.4  26518.50  694.71  2.62
419.8  27227.20  723.15  2.66
421.3  27931.78  748.65  2.68
422.7  28692.60  774.88  2.70
424.2  29463.75  801.00  2.72
425.7  30203.90  825.87  2.73
427.1  30937.88  848.22  2.74
428.6  31728.50  878.33  2.77
430.0  32444.15  906.45  2.79
431.5  33282.75  935.30  2.81
432.9  34134.50  964.95  2.83
434.4  35010.30  991.29  2.83
435.9  35812.00  1015.47  2.84
437.3  36643.75  1043.17  2.85
438.8  37467.00  1071.52  2.86
440.2  38309.43  1099.56  2.87
441.7  39248.60  1129.17  2.88
443.1  40121.00  1162.47  2.90
444.6  41068.50  1194.72  2.91
446.0  41961.15  1224.84  2.92
447.5  42911.00  1256.31  2.93
448.9  43821.30  1288.28  2.94
450.4  44807.00  1324.35  2.96
451.8  45656.00  1353.73  2.97
453.3  46560.08  1385.95  2.98
454.7  47535.40  1421.14  2.99
456.2  48377.05  1449.46  3.00
457.6  49329.90  1479.72  3.00
459.1  50288.55  1510.17  3.00
460.5  51199.50  1537.23  3.00
462.0  52233.55  1568.90  3.00
463.4  53238.20  1596.51  3.00
464.8  54195.75  1622.45  2.99
466.3  55146.30  1651.21  2.99
467.7  56117.03  1683.37  3.00
469.2  57158.58  1711.52  2.99
470.6  58110.80  1742.20  3.00
472.0  59129.08  1771.57  3.00
473.5  60101.88  1800.47  3.00
474.9  61104.00  1831.60  3.00
476.4  62208.00  1862.40  2.99
477.8  63263.50  1898.53  3.00
479.2  64235.00  1931.40  3.01
480.7  65325.68  1970.53  3.02
482.1  66441.10  2007.59  3.02
483.6  67597.10  2046.12  3.03
485.0  68654.93  2082.47  3.03
486.4  69825.45  2124.30  3.04
487.9  70872.75  2166.45  3.06
489.3  72019.98  2212.68  3.07
490.7  73065.45  2263.72  3.10
492.2  74279.10  2318.68  3.12
493.6  75344.95  2371.35  3.15
495.0  76444.88  2425.80  3.17
496.5  77586.73  2488.88  3.21
497.9  78672.68  2551.49  3.24
499.3  79787.98  2629.76  3.30
500.7  81029.15  2713.18  3.35
502.2  82139.60  2807.09  3.42
503.6  83351.40  2916.11  3.50
505.0  84398.65  3029.62  3.59
506.5  85680.23  3163.82  3.69
507.9  86844.85  3318.82  3.82
509.3  88163.60  3492.80  3.96
510.7  89373.38  3689.40  4.13
512.2  90758.25  3912.11  4.31
513.6  92198.75  4169.15  4.52
515.0  93572.05  4459.06  4.77
516.4  94915.80  4776.03  5.03
517.8  96487.88  5147.15  5.33
519.3  97764.95  5528.66  5.66
520.7  99249.20  5953.45  6.00
522.1  100508.20  6387.51  6.36
523.5  101831.40  6838.80  6.72
524.9  103216.05  7307.94  7.08
526.3  104554.10  7754.74  7.42
527.8  106014.15  8207.10  7.74
529.2  107160.80  8630.08  8.05
530.6  108664.00  9059.19  8.34
532.0  110306.00  9467.73  8.58
533.4  111600.08  9812.01  8.79
534.8  112544.75  10088.03  8.96
536.3  114203.70  10397.40  9.10
537.7  116109.00  10710.00  9.22
539.1  117481.90  10951.17  9.32
540.5  118656.35  11156.69  9.40
541.9  120340.50  11407.62  9.48
543.3  121606.95  11615.13  9.55
544.7  122857.80  11819.52  9.62
546.1  124600.03  12067.26  9.68
547.5  125809.60  12251.31  9.74
549.0  127512.00  12471.07  9.78
550.4  128945.00  12648.00  9.81
551.8  130415.28  12801.21  9.82
553.2  131890.73  12928.94  9.80
554.6  133182.40  12998.61  9.76
556.0  134653.50  13041.00  9.68
557.4  136197.08  13052.18  9.58
558.8  137799.90  13029.96  9.46
560.2  139201.38  12949.38  9.30
561.6  140810.48  12854.72  9.13
563.0  142334.30  12716.65  8.93
564.4  143870.35  12548.87  8.72
565.8  145350.00  12343.42  8.49
567.2  147038.50  12130.30  8.25
568.6  148498.13  11875.50  8.00
570.0  149885.58  11604.23  7.74
571.4  151550.75  11350.56  7.49
572.8  153246.88  11110.17  7.25
574.2  154817.60  10872.96  7.02
575.6  156318.75  10656.00  6.82
577.0  157793.20  10460.79  6.63
578.4  159466.13  10302.72  6.46
579.8  160913.93  10154.61  6.31
581.2  162594.03  10034.75  6.17
582.5  163952.10  9915.36  6.05
583.9  165424.20  9811.31  5.93
585.3  167152.73  9743.52  5.83
586.7  168590.50  9669.70  5.74
588.1  170016.75  9611.08  5.65
589.5  171622.50  9572.97  5.58
590.9  173203.20  9548.00  5.51
592.3  174959.55  9541.35  5.45
593.7  176347.28  9534.98  5.41
595.0  177921.23  9536.67  5.36
596.4  179305.70  9536.38  5.32
597.8  180735.73  9534.29  5.28
599.2  182226.00  9530.40  5.23
600.6  183924.98  9530.04  5.18
602.0  185171.03  9495.95  5.13
603.3  186908.70  9466.93  5.07
604.7  188523.55  9421.16  5.00
606.1  189957.00  9350.88  4.92
607.5  191538.38  9274.05  4.84
608.9  193187.50  9190.57  4.76
610.2  194509.35  9090.90  4.67
611.6  196037.63  8994.19  4.59
613.0  197545.95  8899.27  4.50
614.4  198883.95  8803.72  4.43
615.8  200289.38  8718.45  4.35
617.1  201786.90  8641.64  4.28
618.5  203366.80  8589.92  4.22
619.9  204815.78  8543.07  4.17
621.3  206391.83  8520.39  4.13
622.6  207918.50  8505.43  4.09
624.0  209347.50  8503.68  4.06
625.4  210781.73  8516.75  4.04
626.8  212343.95  8542.17  4.02
628.1  213618.35  8566.80  4.01
629.5  215403.38  8610.63  4.00
630.9  216917.53  8644.72  3.99
632.2  218213.63  8661.78  3.97
633.6  219765.13  8676.67  3.95
635.0  221260.80  8666.51  3.92
636.3  222737.50  8626.93  3.87
637.7  224068.00  8555.45  3.82
639.1  225680.00  8474.67  3.76
640.4  227106.08  8363.81  3.68
641.8  228266.95  8235.15  3.61
643.2  229800.73  8120.86  3.53
644.5  231118.00  7998.37  3.46
645.9  232802.10  7903.98  3.40
647.2  234603.43  7825.84  3.34
648.6  236418.75  7778.70  3.29
650.0  237859.20  7724.16  3.25
651.3  238270.18  7657.03  3.21
652.7  239259.00  7621.87  3.19
654.0  241159.90  7602.80  3.15
655.4  242690.40  7573.45  3.12
656.8  243094.30  7512.19  3.09
658.1  244388.20  7469.81  3.06
659.5  246609.30  7455.77  3.02
660.8  248220.00  7422.00  2.99
662.2  249065.60  7365.12  2.96
663.5  250649.40  7336.08  2.93
664.9  251984.20  7316.57  2.90
666.2  252724.80  7308.24  2.89
667.6  254415.70  7331.53  2.88
668.9  255523.60  7376.19  2.89
670.3  256596.50  7431.48  2.90
671.6  258154.50  7513.65  2.91
673.0  259327.13  7613.95  2.94
674.3  260536.90  7720.27  2.96
675.7  261809.50  7843.98  3.00
677.0  262912.43  7990.67  3.04
678.4  264255.95  8161.00  3.09
679.7  265313.15  8340.13  3.14
681.1  266577.70  8544.50  3.21
682.4  267675.20  8766.33  3.27
683.8  268912.80  9019.75  3.35
685.1  269902.88  9307.25  3.45
686.4  271195.20  9646.64  3.56
687.8  272429.00  10065.90  3.69
689.1  273452.50  10579.13  3.87
690.5  274793.25  11267.38  4.10
691.8  275588.45  12160.47  4.41
693.1  276873.60  13366.52  4.83
694.5  278005.00  14908.83  5.36
695.8  279210.75  16841.07  6.03
697.1  280348.25  19194.93  6.85
698.5  281411.90  22012.95  7.82
699.8  282507.83  25287.16  8.95
701.1  283641.58  29020.98  10.23
702.5  284423.15  33112.42  11.64
703.8  285367.50  37542.00  13.16
705.1  286501.80  42287.57  14.76
706.5  287541.13  47223.18  16.42
707.8  288538.50  52319.86  18.13
709.1  289398.98  57491.34  19.87
710.5  290537.55  62783.85  21.61
711.8  291394.10  68053.65  23.35
713.1  292397.60  73355.11  25.09
714.4  293311.90  78626.83  26.81
715.8  294137.00  83815.29  28.50
717.1  295444.65  89069.22  30.15
718.4  296374.40  94124.80  31.76
719.7  297501.58  99111.75  33.31
721.0  298012.50  103779.00  34.82
722.4  298764.95  108375.30  36.27
723.7  299750.10  112878.54  37.66
725.0  300765.38  117242.82  38.98
726.3  301723.68  121389.44  40.23
727.6  302294.30  125193.60  41.41
729.0  303206.05  128936.31  42.52
730.3  303976.05  132436.73  43.57
731.6  304862.35  135782.47  44.54
732.9  305670.58  138908.30  45.44
734.2  306516.38  141864.43  46.28
735.5  307518.80  144738.35  47.07
736.8  308337.00  147331.84  47.78
738.1  309170.40  149789.27  48.45
739.5  310141.08  152138.11  49.05
740.8  310856.98  154218.61  49.61
742.1  311595.18  156178.30  50.12
743.4  312325.00  158013.33  50.59
744.7  313277.70  159851.18  51.03
746.0  314137.20  161509.92  51.41
747.3  314697.73  162893.74  51.76
748.6  315411.75  164250.67  52.07
749.9  316134.00  165509.07  52.35
751.2  316859.55  166683.59  52.60
752.5  317748.65  167865.57  52.83
753.8  318375.75  168833.89  53.03
755.1  319124.00  169776.53  53.20
756.4  319752.25  170586.48  53.35
757.7  320722.50  171556.12  53.49
759.0  322541.28  172878.70  53.60
760.3  323743.20  173842.24  53.70
761.6  325318.00  174967.71  53.78
762.9  325895.25  175508.53  53.85
764.2  326297.00  175922.41  53.91
765.5  326597.13  176264.26  53.97
766.8  327080.00  176654.93  54.01
768.1  327621.80  177073.41  54.05
769.3  328233.15  177501.94  54.08
770.6  328943.55  177959.51  54.10
771.9  329647.50  178441.67  54.13
773.2  330093.20  178726.88  54.14
774.5  330759.00  179112.27  54.15
775.8  331486.50  179527.78  54.16
777.1  332105.95  179886.59  54.17
778.4  332473.08  180112.39  54.17
779.6  333246.98  180569.47  54.18
780.9  333720.00  180860.00  54.20
782.2  334232.25  181145.07  54.20
783.5  334615.50  181353.00  54.20
784.8  335160.23  181666.11  54.20
786.0  335610.10  181899.39  54.20
787.3  336027.10  182139.53  54.20
788.6  336517.55  182395.44  54.20
789.9  337005.20  182664.16  54.20
791.2  337705.03  183028.07  54.20
792.4  338389.45  183420.14  54.20
793.7  338909.80  183691.09  54.20
795.0  339569.18  184044.08  54.20
796.2  340230.73  184422.55  54.21
797.5  340999.50  184824.97  54.20
798.8  341717.73  185198.96  54.20
800.0  342372.98  185576.59  54.20
801.3  342913.90  185847.61  54.20
802.6  343534.73  186176.97  54.19
803.8  344240.50  186534.24  54.19
805.1  344720.25  186810.63  54.19
806.4  345224.10  187086.24  54.19
807.7  345813.30  187388.64  54.19
808.9  346421.30  187713.03  54.19
810.2  346972.15  187989.06  54.18
811.4  347506.60  188277.52  54.18
812.7  348115.63  188630.00  54.19
814.0  348993.15  189092.48  54.18
815.2  349614.50  189444.80  54.19
816.5  350079.28  189668.20  54.18
817.7  350598.70  189939.77  54.18
819.0  351076.00  190229.89  54.18
820.2  351296.00  190338.13  54.18
821.5  351975.95  190732.89  54.19
822.7  352375.33  190915.62  54.18
824.0  352741.50  191097.00  54.17
825.2  353224.80  191367.36  54.18
826.5  353522.45  191545.69  54.18
827.7  354088.33  191850.27  54.18
829.0  354474.38  192080.45  54.19
830.2  354803.75  192235.23  54.18
831.5  355312.75  192482.39  54.17
832.7  355609.28  192652.67  54.18
834.0  355919.73  192817.01  54.17
835.2  356277.08  193025.87  54.18
836.4  356538.05  193205.25  54.19
837.7  356961.20  193421.73  54.19
838.9  357381.68  193658.39  54.19
840.1  357775.65  193876.38  54.19
841.4  358185.50  194135.21  54.20
842.6  358533.40  194346.72  54.21
843.8  358866.40  194536.37  54.21
845.1  359304.90  194802.53  54.22
846.3  359698.50  195028.51  54.22
847.5  360162.60  195253.52  54.21
848.8  360479.40  195494.00  54.23
850.0  360801.35  195693.54  54.24
851.2  361347.75  195975.90  54.23
852.5  361751.80  196183.59  54.23
853.7  362202.75  196463.40  54.24
854.9  362624.60  196695.97  54.24
856.1  363069.85  196949.05  54.25
857.4  363202.88  197045.19  54.25
858.6  363707.70  197300.10  54.25
859.8  364080.00  197524.50  54.25
861.0  364548.60  197776.80  54.25
862.2  365041.20  198014.95  54.24
863.5  365445.60  198208.27  54.24
864.7  365904.00  198469.04  54.24
865.9  366266.00  198669.33  54.24
867.1  366597.60  198850.53  54.24
868.3  366989.55  199071.06  54.24
869.5  367507.70  199342.79  54.24
870.8  367965.00  199603.80  54.25
872.0  368530.95  199890.28  54.24
873.2  368946.15  200105.68  54.24
874.4  369366.08  200312.19  54.23
875.6  369757.13  200490.53  54.22
876.8  370264.15  200732.47  54.21
878.0  370691.00  201000.53  54.22
879.2  371263.80  201280.30  54.21
880.4  371796.75  201513.95  54.20
881.6  372214.58  201762.12  54.21
882.8  372616.80  201947.52  54.20
884.0  373224.83  202262.29  54.19
885.2  373865.10  202516.84  54.17
886.5  374413.90  202814.93  54.17
887.7  374954.13  203060.39  54.16
888.8  375505.35  203409.38  54.17
890.0  376086.60  203685.84  54.16
891.2  376674.00  203953.67  54.15
892.4  377344.28  204265.74  54.13
893.6  377884.70  204557.47  54.13
894.8  378879.00  205014.33  54.11
896.0  379730.50  205487.20  54.11
897.2  380532.75  205879.27  54.10
898.4  381374.40  206250.44  54.08
899.6  381844.50  206545.05  54.09
900.8  382271.05  206717.34  54.08
902.0  382560.15  206827.04  54.06
903.2  382876.20  207022.29  54.07
904.3  383368.20  207193.52  54.05
905.5  383947.13  207454.40  54.03
906.7  384651.50  207765.53  54.01
907.9  385291.90  207991.61  53.98
909.1  385591.05  208170.90  53.99
910.2  385710.23  208270.10  54.00
911.4  385918.65  208397.67  54.00
912.6  386285.90  208482.56  53.97
913.8  386680.05  208611.71  53.95
915.0  387095.10  208833.10  53.95
916.2  387348.00  208884.00  53.93
917.3  387480.60  208883.22  53.91
918.5  387567.90  208940.60  53.91
919.7  387809.40  209041.72  53.90
920.8  388033.93  209079.83  53.88
922.0  388349.50  209149.97  53.86
923.2  388615.50  209209.00  53.83
924.4  388972.13  209278.35  53.80
925.5  389192.20  209327.60  53.79
926.7  389822.75  209632.95  53.78
927.9  390709.20  210017.04  53.75
929.0  392154.75  210699.18  53.73
930.2  394462.80  211801.11  53.69
931.4  397005.98  213003.18  53.65
932.5  399672.15  214327.39  53.63
933.7  401180.35  214961.29  53.58
934.9  401773.75  215207.42  53.56
936.0  401449.75  214959.98  53.55
937.2  399396.30  213805.52  53.53
938.3  397984.15  212837.67  53.48
939.5  396604.80  211860.96  53.42
940.7  396917.10  211918.32  53.39
941.8  398565.60  212591.71  53.34
943.0  399906.75  213188.00  53.31
944.2  400551.45  213530.03  53.31
945.3  400325.25  213136.30  53.24
946.5  399694.50  212644.98  53.20
947.6  400088.60  212516.08  53.12
948.8  400079.55  212263.35  53.06
949.9  400327.20  212191.84  53.00
951.1  400047.38  211754.40  52.93
952.2  399840.00  211398.40  52.87
953.4  399578.00  210980.50  52.80
954.5  399718.80  210684.24  52.71
955.7  399697.20  210401.52  52.64
956.8  399628.60  210055.60  52.56
958.0  399364.50  209627.60  52.49
959.1  399307.53  209322.32  52.42
960.3  399006.63  209001.28  52.38
961.4  398969.55  208780.77  52.33
962.6  399183.75  208774.30  52.30
963.7  399143.78  208558.96  52.25
964.9  399129.75  208484.63  52.23
966.0  398878.43  208414.62  52.25
967.2  399130.65  208396.74  52.21
968.3  398884.50  208215.90  52.20
969.5  398953.53  208078.35  52.16
970.6  399017.95  208112.98  52.16
971.8  399133.53  208200.18  52.16
972.9  399023.55  208150.00  52.16
974.0  399553.40  208228.37  52.12
975.2  399116.25  208177.22  52.16
976.3  399396.85  208135.71  52.11
977.5  399352.80  208097.10  52.11
978.6  398899.70  207998.65  52.14
979.7  399241.50  208228.51  52.16
980.9  399068.63  208207.10  52.17
982.0  398838.45  208106.32  52.18
983.2  398521.50  207980.54  52.19
984.3  398061.60  207804.11  52.20
985.4  398059.60  207747.00  52.19
986.6  398567.13  207819.90  52.14
987.7  399161.70  208451.11  52.22
988.9  399162.60  208566.48  52.25
990.0  399507.30  208898.41  52.29
993.1  346322.03  178174.17  51.45
996.9  346902.30  178987.25  51.60
1000.7  347955.88  179951.47  51.72
1004.5  348494.33  180644.40  51.84
1008.4  348120.83  180912.32  51.97
1012.2  348059.42  181265.97  52.08
1016.0  348034.80  181604.53  52.18
1019.8  348099.68  182001.05  52.28
1023.7  348076.85  182260.32  52.36
1027.5  347924.80  182429.16  52.43
1031.3  348227.13  182786.07  52.49
1035.1  348229.12  182945.87  52.54
1038.9  348316.10  183091.99  52.56
1042.7  348219.83  183159.83  52.60
1046.5  348075.50  183164.15  52.62
1050.3  348135.58  183250.97  52.64
1054.2  347874.33  183166.04  52.65
1058.0  347407.14  182928.41  52.66
1061.8  347273.51  182884.90  52.66
1065.6  347095.23  182767.61  52.66
1069.4  347193.87  182779.45  52.64
1073.2  346913.53  182568.69  52.63
1077.0  346428.45  182247.94  52.61
1080.8  345825.00  181826.84  52.58
1084.6  344681.52  181111.99  52.54
1088.4  343993.30  180629.65  52.51
1092.2  343219.50  180050.47  52.46
1096.0  342741.84  179600.23  52.40
1099.8  342359.77  179187.14  52.34
1103.6  341747.30  178667.62  52.28
1107.4  340927.85  177992.16  52.21
1111.2  340737.70  177664.28  52.14
1114.9  340158.58  177074.68  52.06
1118.7  339577.43  176421.89  51.95
1122.5  338923.00  175641.05  51.82
1126.3  337841.06  174568.50  51.67
1130.1  337391.07  173589.72  51.45
1133.9  335923.00  171798.81  51.14
1137.7  334639.70  169839.06  50.75
1141.4  332937.58  167455.22  50.30
1145.2  332273.50  165437.11  49.79
1149.0  331241.46  163331.04  49.31
1152.8  329731.05  161226.47  48.90
1156.6  328199.67  159492.54  48.60
1160.3  326602.00  158080.15  48.40
1164.1  324338.93  156629.65  48.29
1167.9  322646.88  155651.21  48.24
1171.7  321441.75  155010.00  48.22
1175.4  320357.10  154465.84  48.22
1179.2  319423.30  153951.70  48.20
1183.0  319145.00  153722.14  48.17
1186.7  318574.20  153352.04  48.14
1190.5  317543.47  152766.35  48.11
1194.3  316408.90  152167.34  48.09
1198.0  315304.55  151649.30  48.10
1201.8  313930.93  151031.20  48.11
1205.6  312756.00  150578.07  48.15
1209.3  311844.07  150317.22  48.20
1213.1  310971.23  150079.42  48.26
1216.8  310067.91  149886.50  48.34
1220.6  309108.80  149658.67  48.42
1224.3  308018.08  149354.01  48.49
1228.1  306927.40  149079.76  48.57
1231.9  305807.85  148732.92  48.64
1235.6  304475.55  148258.83  48.69
1239.4  303252.25  147834.02  48.75
1243.1  302083.13  147390.82  48.79
1246.9  300944.74  146918.21  48.82
1250.6  300042.60  146527.29  48.84
1254.3  299024.55  146070.26  48.85
1258.1  298109.23  145629.43  48.85
1261.8  296898.40  145021.02  48.85
1265.6  295536.15  144287.90  48.82
1269.3  294071.88  143486.12  48.79
1273.1  293967.50  143296.70  48.75
1276.8  294298.00  143274.04  48.68
1280.6  294256.30  143052.72  48.62
1284.3  293002.40  142202.84  48.53
1288.0  291586.64  141216.39  48.43
1291.8  290271.07  140204.00  48.30
1295.5  288931.87  139130.28  48.15
1299.2  287765.84  138077.52  47.98
1302.9  286459.74  136859.32  47.78
1306.7  285041.17  135519.61  47.54
1310.4  283667.42  134076.96  47.27
1314.1  282436.55  132610.11  46.95
1317.9  281323.75  131068.56  46.59
1321.6  280027.99  129325.69  46.18
1325.3  278495.70  127351.57  45.73
1329.0  277209.10  125424.74  45.25
1332.8  275228.80  123065.80  44.71
1336.5  273548.13  120811.92  44.16
1340.2  273212.33  119149.09  43.61
1343.9  272867.92  117464.10  43.05
1347.6  272352.60  115720.75  42.49
1351.4  272645.00  114381.63  41.95
1355.1  273125.97  113128.33  41.42
1358.8  273344.00  111701.33  40.86
