/*** Spectra Vista SIG Data ***/
name= 12_20221020_TITO_09_avg.sig
comm= Averaged Ref/Tar of files: HR.102022.0034_moc.sig,HR.102022.0035_moc.sig,HR.102022.0036_moc.sig
data=
337.3  3076.75  277.90  9.03
338.8  3174.60  275.77  8.69
340.3  3279.50  268.61  8.19
341.8  3475.10  262.16  7.54
343.2  3640.80  260.48  7.15
344.7  3795.85  261.59  6.89
346.2  3962.45  250.55  6.32
347.7  4168.45  262.17  6.29
349.2  4384.80  241.92  5.52
350.6  4590.63  244.83  5.33
352.1  4822.88  252.46  5.23
353.6  5100.90  259.09  5.08
355.1  5388.00  264.91  4.92
356.6  5670.08  270.94  4.78
358.0  5901.50  276.47  4.68
359.5  6210.90  271.92  4.38
361.0  6493.73  279.30  4.30
362.5  6850.35  284.94  4.16
364.0  7197.43  302.04  4.20
365.4  7530.80  314.72  4.18
366.9  7900.75  320.45  4.06
368.4  8209.78  330.94  4.03
369.9  8539.90  349.52  4.09
371.3  8944.50  366.68  4.10
372.8  9372.15  378.78  4.04
374.3  9782.50  376.25  3.85
375.8  10160.15  384.49  3.78
377.2  10571.70  394.53  3.73
378.7  10975.20  405.29  3.69
380.2  11378.70  416.05  3.66
381.7  11863.98  421.59  3.55
383.1  12289.20  427.61  3.48
384.6  12786.15  438.79  3.43
386.1  13215.23  446.81  3.38
387.6  13663.65  463.54  3.39
389.0  14123.60  471.68  3.34
390.5  14575.95  481.44  3.30
392.0  15102.95  493.73  3.27
393.4  15633.63  507.98  3.25
394.9  16155.90  525.48  3.25
396.4  16689.38  545.10  3.27
397.9  17220.00  553.50  3.21
399.3  17727.50  574.03  3.24
400.8  18245.10  584.91  3.21
402.2  18854.40  605.57  3.21
403.7  19452.60  622.74  3.20
405.2  20052.73  634.49  3.16
406.6  20624.80  658.88  3.19
408.1  21176.20  681.01  3.22
409.6  21730.50  696.55  3.21
411.0  22353.45  714.51  3.20
412.5  23011.63  741.37  3.22
414.0  23635.00  763.38  3.23
415.4  24327.00  789.70  3.25
416.9  24961.13  809.55  3.24
418.4  25622.10  831.66  3.25
419.8  26317.20  861.47  3.27
421.3  27004.88  888.87  3.29
422.7  27770.40  918.72  3.31
424.2  28485.00  951.75  3.34
425.7  29242.20  982.35  3.36
427.1  29972.55  1008.58  3.37
428.6  30752.00  1039.53  3.38
430.0  31472.95  1064.27  3.38
431.5  32327.55  1098.48  3.40
432.9  33152.95  1130.98  3.41
434.4  34021.88  1163.19  3.42
435.9  34832.00  1192.80  3.42
437.3  35653.75  1221.00  3.42
438.8  36476.03  1254.33  3.44
440.2  37325.75  1288.21  3.45
441.7  38257.00  1327.49  3.47
443.1  39127.25  1363.87  3.49
444.6  40072.90  1402.57  3.50
446.0  41001.00  1442.82  3.52
447.5  41941.63  1485.51  3.54
448.9  42840.90  1525.64  3.56
450.4  43822.80  1569.54  3.58
451.8  44668.00  1610.27  3.60
453.3  45566.38  1649.19  3.62
454.7  46547.28  1695.18  3.64
456.2  47398.40  1728.07  3.65
457.6  48347.55  1770.00  3.66
459.1  49302.50  1810.42  3.67
460.5  50223.13  1849.32  3.68
462.0  51259.75  1891.70  3.69
463.4  52279.20  1928.96  3.69
464.8  53238.38  1964.70  3.69
466.3  54192.60  2000.90  3.69
467.7  55145.85  2041.81  3.70
469.2  56187.40  2086.85  3.71
470.6  57169.45  2131.85  3.73
472.0  58200.13  2169.43  3.73
473.5  59197.88  2211.03  3.73
474.9  60206.25  2251.50  3.74
476.4  61344.00  2302.08  3.75
477.8  62379.00  2349.00  3.77
479.2  63350.50  2397.33  3.78
480.7  64428.23  2439.52  3.79
482.1  65545.20  2489.25  3.80
483.6  66715.65  2541.27  3.81
485.0  67771.95  2591.99  3.82
486.4  68937.90  2648.10  3.84
487.9  69980.63  2700.75  3.86
489.3  71107.03  2762.41  3.88
490.7  72152.50  2829.16  3.92
492.2  73353.00  2904.72  3.96
493.6  74436.65  2974.93  4.00
495.0  75523.50  3055.65  4.05
496.5  76691.55  3142.41  4.10
497.9  77777.50  3238.28  4.16
499.3  78922.15  3341.99  4.23
500.7  80164.80  3465.21  4.32
502.2  81292.80  3599.39  4.43
503.6  82519.20  3749.28  4.54
505.0  83592.90  3916.43  4.69
506.5  84882.38  4107.45  4.84
507.9  86029.48  4322.97  5.02
509.3  87334.80  4576.16  5.24
510.7  88539.75  4847.70  5.48
512.2  89904.23  5164.68  5.74
513.6  91352.10  5521.88  6.04
515.0  92775.45  5917.60  6.38
516.4  94136.18  6344.73  6.74
517.8  95739.25  6834.62  7.14
519.3  97061.20  7341.52  7.56
520.7  98602.90  7896.10  8.01
522.1  99865.35  8444.63  8.46
523.5  101164.20  9016.47  8.91
524.9  102602.25  9601.32  9.36
526.3  103980.10  10171.28  9.78
527.8  105435.00  10747.44  10.19
529.2  106505.20  11294.20  10.60
530.6  108071.55  11860.56  10.97
532.0  109718.00  12409.60  11.31
533.4  111002.78  12889.01  11.61
534.8  111883.50  13293.77  11.88
536.3  113403.90  13747.96  12.12
537.7  115277.40  14217.84  12.33
539.1  116668.45  14612.52  12.52
540.5  117849.00  14964.49  12.70
541.9  119551.58  15376.58  12.86
543.3  120843.00  15725.02  13.01
544.7  122139.60  16080.08  13.17
546.1  123900.98  16487.06  13.31
547.5  125115.20  16813.44  13.44
549.0  126753.00  17180.53  13.55
550.4  128201.25  17508.58  13.66
551.8  129699.58  17816.72  13.74
553.2  131178.43  18081.25  13.78
554.6  132485.60  18277.65  13.80
556.0  133960.05  18451.98  13.77
557.4  135525.95  18587.75  13.72
558.8  137137.50  18692.10  13.63
560.2  138568.50  18723.42  13.51
561.6  140195.40  18731.64  13.36
563.0  141747.70  18676.23  13.18
564.4  143311.20  18586.29  12.97
565.8  144786.88  18445.00  12.74
567.2  146511.75  18293.63  12.49
568.6  147965.25  18082.95  12.22
570.0  149358.78  17832.18  11.94
571.4  151031.40  17593.07  11.65
572.8  152746.25  17359.45  11.36
574.2  154336.00  17118.08  11.09
575.6  155846.25  16893.00  10.84
577.0  157341.20  16687.84  10.61
578.4  159022.50  16524.08  10.39
579.8  160512.30  16364.88  10.20
581.2  162188.90  16246.67  10.02
582.5  163589.40  16116.36  9.85
583.9  165070.20  16013.39  9.70
585.3  166806.90  15950.88  9.56
586.7  168265.83  15879.41  9.44
588.1  169713.63  15817.47  9.32
589.5  171328.50  15791.07  9.22
590.9  172905.60  15776.11  9.12
592.3  174670.90  15797.94  9.04
593.7  176093.78  15801.50  8.97
595.0  177664.73  15831.18  8.91
596.4  179085.55  15850.80  8.85
597.8  180526.53  15876.54  8.79
599.2  182028.00  15896.32  8.73
600.6  183751.75  15924.26  8.67
602.0  185009.93  15898.78  8.59
603.3  186746.10  15893.25  8.51
604.7  188373.13  15852.06  8.42
606.1  189832.80  15772.48  8.31
607.5  191413.05  15685.12  8.19
608.9  193089.15  15582.39  8.07
610.2  194424.30  15441.30  7.94
611.6  196008.98  15312.47  7.81
613.0  197531.50  15176.35  7.68
614.4  198883.95  15029.18  7.56
615.8  200304.00  14892.15  7.43
617.1  201801.60  14774.48  7.32
618.5  203396.40  14681.60  7.22
619.9  204905.33  14614.56  7.13
621.3  206482.28  14570.49  7.06
622.6  208025.25  14552.57  7.00
624.0  209471.10  14551.84  6.95
625.4  210907.13  14579.84  6.91
626.8  212439.50  14642.51  6.89
628.1  213699.48  14702.01  6.88
629.5  215436.43  14797.59  6.87
630.9  216900.75  14867.12  6.85
632.2  218128.75  14897.26  6.83
633.6  219628.13  14907.88  6.79
635.0  221037.20  14863.09  6.72
636.3  222512.60  14758.05  6.63
637.7  223842.13  14581.10  6.51
639.1  225435.00  14368.67  6.37
640.4  226876.30  14097.58  6.21
641.8  228070.88  13787.04  6.05
643.2  229602.45  13482.70  5.87
644.5  230917.25  13166.77  5.70
645.9  232451.55  12863.34  5.53
647.2  233401.70  12574.24  5.39
648.6  234819.00  12363.30  5.27
650.0  236109.60  12196.80  5.17
651.3  237174.58  12069.86  5.09
652.7  239397.30  12007.51  5.02
654.0  241503.40  11962.96  4.95
655.4  242872.60  11876.40  4.89
656.8  243048.90  11743.47  4.83
658.1  244388.20  11637.53  4.76
659.5  246519.00  11540.34  4.68
660.8  247747.50  11388.00  4.60
662.2  248729.60  11202.99  4.50
663.5  250206.40  11054.33  4.42
664.9  251210.70  10899.72  4.34
666.2  251970.00  10765.52  4.27
667.6  253656.65  10704.09  4.22
668.9  254555.03  10655.83  4.19
670.3  256417.50  10653.48  4.15
671.6  257402.25  10664.25  4.14
673.0  258597.00  10708.50  4.14
674.3  259851.80  10790.69  4.15
675.7  261169.33  10896.22  4.17
677.0  262229.65  11024.25  4.20
678.4  263529.13  11185.76  4.24
679.7  264586.33  11379.58  4.30
681.1  265871.30  11629.11  4.37
682.4  266968.00  11928.11  4.47
683.8  268139.30  12317.07  4.59
685.1  269128.50  12805.95  4.76
686.4  270440.40  13473.92  4.98
687.8  271672.50  14349.77  5.28
689.1  272762.75  15506.77  5.69
690.5  274122.75  17063.48  6.22
691.8  274914.20  19070.79  6.94
693.1  276262.05  21653.40  7.84
694.5  277413.50  24779.30  8.93
695.8  278664.75  28434.47  10.20
697.1  279847.75  32547.67  11.63
698.5  280889.80  37079.69  13.20
699.8  281963.63  41939.68  14.87
701.1  283120.05  47076.32  16.63
702.5  283904.50  52303.97  18.42
703.8  284827.50  57627.00  20.23
705.1  285986.03  62996.31  22.03
706.5  287004.13  68300.43  23.80
707.8  287979.75  73516.60  25.53
709.1  288818.53  78595.91  27.21
710.5  289934.78  83650.29  28.85
711.8  290747.40  88525.05  30.45
713.1  291706.30  93338.88  32.00
714.4  292598.30  98009.99  33.50
715.8  293423.40  102556.21  34.95
717.1  294707.10  107142.92  36.36
718.4  295680.00  111477.33  37.70
719.7  296737.43  115734.26  39.00
721.0  297270.00  119637.00  40.25
722.4  297998.25  123468.77  41.43
723.7  298957.35  127235.62  42.56
725.0  299970.00  130862.67  43.63
726.3  300901.98  134305.34  44.63
727.6  301426.95  137400.41  45.58
729.0  302289.05  140481.34  46.47
730.3  303078.08  143341.37  47.30
731.6  303936.35  146079.59  48.06
732.9  304716.30  148612.43  48.77
734.2  305511.25  151011.85  49.43
735.5  306530.75  153364.18  50.03
736.8  307317.90  155475.16  50.59
738.1  308142.70  157469.13  51.10
739.5  309101.55  159390.61  51.57
740.8  309780.08  161068.34  51.99
742.1  310455.53  162642.92  52.39
743.4  311075.00  164100.00  52.75
744.7  311918.25  165597.79  53.09
746.0  312768.30  166995.66  53.39
747.3  313370.43  168155.30  53.66
748.6  314098.50  169304.53  53.90
749.9  314756.00  170338.13  54.12
751.2  315342.85  171285.99  54.32
752.5  316075.05  172276.20  54.50
753.8  316550.50  173075.42  54.68
755.1  317226.00  173888.00  54.82
756.4  317778.15  174614.34  54.95
757.7  318740.80  175516.04  55.07
759.0  320521.95  176801.96  55.16
760.3  321604.80  177721.28  55.26
761.6  323136.80  178826.48  55.34
762.9  323621.50  179339.13  55.42
764.2  323983.60  179756.56  55.48
765.5  324218.93  180076.58  55.54
766.8  324604.80  180455.68  55.59
768.1  325046.20  180883.84  55.65
769.3  325606.40  181336.07  55.69
770.6  326232.40  181820.34  55.73
771.9  326914.53  182311.03  55.77
773.2  327253.20  182612.00  55.80
774.5  327813.20  183032.37  55.83
775.8  328399.55  183478.31  55.87
777.1  328928.60  183866.54  55.90
778.4  329177.48  184110.26  55.93
779.6  329888.05  184600.18  55.96
780.9  330330.00  184924.00  55.98
782.2  330753.50  185251.00  56.01
783.5  330986.00  185468.47  56.04
784.8  331430.40  185808.99  56.06
786.0  331747.50  186081.79  56.09
787.3  332092.73  186344.59  56.11
788.6  332475.78  186630.29  56.13
789.9  332883.60  186936.03  56.16
791.2  333470.28  187319.28  56.17
792.4  334069.73  187728.87  56.19
793.7  334467.60  188037.55  56.22
795.0  335070.45  188432.31  56.24
796.2  335644.58  188821.61  56.26
797.5  336207.45  189246.62  56.29
798.8  336856.68  189637.31  56.30
800.0  337449.83  190038.35  56.32
801.3  337823.80  190309.57  56.33
802.6  338363.55  190675.77  56.35
803.8  338961.65  191084.46  56.37
805.1  339339.88  191380.82  56.40
806.4  339737.70  191668.40  56.42
807.7  340272.90  192000.51  56.43
808.9  340734.60  192329.91  56.45
810.2  341197.85  192645.41  56.46
811.4  341611.90  192950.51  56.48
812.7  342225.00  193337.08  56.49
814.0  342985.25  193827.47  56.51
815.2  343602.50  194221.00  56.52
816.5  343949.40  194493.18  56.55
817.7  344385.45  194790.39  56.56
819.0  344862.65  195090.50  56.57
820.2  345004.00  195236.80  56.59
821.5  345635.65  195662.25  56.61
822.7  345991.55  195913.98  56.62
824.0  346269.60  196115.40  56.64
825.2  346657.73  196416.09  56.66
826.5  346998.50  196632.48  56.67
827.7  347556.93  196985.74  56.68
829.0  347945.23  197245.30  56.69
830.2  348177.45  197457.15  56.71
831.5  348692.95  197758.17  56.71
832.7  348989.03  197955.66  56.72
834.0  349298.93  198189.51  56.74
835.2  349658.93  198432.45  56.75
836.4  349976.00  198654.06  56.76
837.7  350348.80  198942.91  56.78
838.9  350827.75  199261.35  56.80
840.1  351164.70  199508.76  56.81
841.4  351585.10  199787.28  56.82
842.6  351886.40  200034.24  56.85
843.8  352303.20  200294.80  56.85
845.1  352835.75  200642.57  56.87
846.3  353207.70  200926.32  56.89
847.5  353646.30  201213.60  56.90
848.8  354052.20  201476.24  56.91
850.0  354411.05  201724.65  56.92
851.2  354939.30  202075.56  56.93
852.5  355321.80  202313.52  56.94
853.7  355873.50  202666.50  56.95
854.9  356279.00  202953.44  56.96
856.1  356776.55  203251.27  56.97
857.4  356962.98  203429.78  56.99
858.6  357529.20  203744.05  56.99
859.8  357905.63  204018.00  57.00
861.0  358300.80  204282.00  57.01
862.2  358786.60  204572.80  57.02
863.5  359125.00  204816.17  57.03
864.7  359660.40  205128.88  57.03
865.9  360100.40  205382.99  57.03
867.1  360443.15  205603.12  57.04
868.3  360851.85  205867.44  57.05
869.5  361304.40  206171.47  57.06
870.8  361845.00  206499.00  57.07
872.0  362344.95  206777.36  57.07
873.2  362694.15  207055.82  57.09
874.4  363206.03  207325.17  57.08
875.6  363614.45  207553.28  57.08
876.8  364134.75  207818.92  57.07
878.0  364567.25  208109.52  57.08
879.2  365065.05  208388.20  57.08
880.4  365608.50  208661.10  57.07
881.6  365956.03  208934.08  57.09
882.8  366282.40  209172.16  57.11
884.0  366991.43  209534.59  57.10
885.2  367463.00  209801.79  57.09
886.5  368016.70  210112.48  57.09
887.7  368472.33  210370.42  57.09
888.8  369024.83  210687.04  57.09
890.0  369522.65  210983.23  57.10
891.2  370208.70  211299.75  57.08
892.4  370692.53  211627.01  57.09
893.6  371236.55  211944.31  57.09
894.8  372134.25  212404.23  57.08
896.0  372882.25  212858.17  57.08
897.2  373581.00  213281.03  57.09
898.4  374315.70  213670.60  57.08
899.6  374781.00  213927.10  57.08
900.8  375102.15  214139.26  57.09
902.0  375394.50  214242.24  57.07
903.2  375605.03  214387.52  57.08
904.3  375881.40  214518.84  57.07
905.5  376346.43  214831.55  57.08
906.7  377047.00  215105.20  57.05
907.9  377346.55  215361.21  57.07
909.1  377650.35  215473.23  57.06
910.2  377775.75  215549.29  57.06
911.4  378003.60  215625.15  57.04
912.6  378020.50  215678.32  57.05
913.8  378177.53  215775.19  57.06
915.0  378473.55  215930.26  57.05
916.2  378602.25  215965.10  57.04
917.3  378615.83  215923.65  57.03
918.5  378721.10  216018.04  57.04
919.7  378864.00  216040.18  57.02
920.8  378855.20  216014.86  57.02
922.0  378917.00  215977.30  57.00
923.2  379060.50  215961.20  56.97
924.4  379147.50  216012.60  56.97
925.5  379371.20  216062.00  56.95
926.7  379856.50  216315.08  56.95
927.9  380587.20  216687.92  56.94
929.0  382001.40  217389.60  56.91
930.2  383955.80  218465.55  56.90
931.4  386433.45  219683.79  56.85
932.5  389026.75  221006.85  56.81
933.7  390346.25  221652.94  56.78
934.9  390604.38  221876.67  56.80
936.0  390125.13  221524.98  56.78
937.2  387980.25  220224.98  56.76
938.3  386116.50  219055.65  56.73
939.5  384760.80  217997.28  56.66
940.7  384884.10  217923.36  56.62
941.8  386285.85  218602.94  56.59
943.0  387538.50  219186.90  56.56
944.2  388131.25  219520.95  56.56
945.3  387543.00  218990.20  56.51
946.5  386746.65  218374.56  56.46
947.6  386930.30  218160.80  56.38
948.8  386885.85  217799.53  56.30
949.9  386706.60  217587.44  56.27
951.1  386010.63  217075.00  56.24
952.2  385764.00  216648.00  56.16
953.4  385485.00  216147.93  56.07
954.5  385398.00  215794.80  55.99
955.7  385345.80  215399.52  55.90
956.8  385029.30  214936.56  55.82
958.0  384524.00  214441.53  55.77
959.1  384183.95  214047.49  55.71
960.3  383598.30  213600.78  55.68
961.4  383254.70  213346.68  55.67
962.6  383360.25  213217.67  55.62
963.7  383197.65  212974.81  55.58
964.9  383064.15  212802.26  55.55
966.0  382676.40  212666.58  55.57
967.2  382753.35  212482.26  55.51
968.3  382060.80  212268.06  55.56
969.5  381619.88  212066.96  55.57
970.6  381983.18  212039.64  55.51
971.8  382365.73  212112.67  55.47
972.9  382163.40  211979.96  55.47
974.0  382606.60  212139.17  55.45
975.2  382060.00  211997.82  55.49
976.3  381829.13  211959.98  55.51
977.5  381956.75  211878.85  55.47
978.6  381695.40  211786.27  55.49
979.7  381403.05  211852.83  55.55
980.9  381482.55  211874.63  55.54
982.0  380600.35  211881.93  55.67
983.2  381150.05  211659.20  55.53
984.3  380116.20  211574.45  55.66
985.4  380123.78  211295.59  55.59
986.6  380757.50  211177.12  55.46
987.7  380899.40  211407.86  55.50
988.9  379859.40  211416.00  55.66
990.0  380587.10  211712.19  55.63
993.1  386297.39  213499.24  55.27
996.9  384753.75  213320.73  55.44
1000.7  384466.66  213823.80  55.62
1004.5  384541.50  214350.76  55.74
1008.4  384127.96  214680.29  55.89
1012.2  383890.46  215081.17  56.03
1016.0  383381.40  215311.07  56.16
1019.8  382541.78  215339.48  56.29
1023.7  381199.93  214985.91  56.40
1027.5  379358.60  214335.14  56.50
1031.3  378192.85  213974.42  56.58
1035.1  377074.31  213580.82  56.64
1038.9  376571.25  213505.23  56.70
1042.7  376292.67  213561.00  56.75
1046.5  376189.17  213665.30  56.80
1050.3  376177.99  213808.55  56.84
1054.2  375823.00  213750.96  56.88
1058.0  375519.43  213626.40  56.89
1061.8  375465.68  213700.62  56.92
1065.6  374876.07  213416.87  56.93
1069.4  373951.07  212915.64  56.94
1073.2  372567.98  212129.58  56.94
1077.0  371859.63  211696.27  56.93
1080.8  372136.46  211753.70  56.90
1084.6  372359.98  211785.26  56.88
1088.4  372749.08  211898.70  56.85
1092.2  372323.25  211529.50  56.81
1096.0  371662.40  210992.63  56.77
1099.8  370998.55  210415.11  56.72
1103.6  370072.15  209720.31  56.67
1107.4  368880.49  208847.53  56.62
1111.2  368576.20  208439.42  56.55
1114.9  368041.33  207867.08  56.48
1118.7  367809.75  207381.90  56.38
1122.5  367509.13  206741.99  56.25
1126.3  366632.06  205630.54  56.09
1130.1  366289.94  204511.95  55.83
1133.9  364620.20  202313.54  55.49
1137.7  363063.90  199837.49  55.04
1141.4  361006.32  196840.13  54.53
1145.2  360063.19  194352.43  53.98
1149.0  358809.79  191843.43  53.47
1152.8  357030.65  189384.16  53.04
1156.6  355216.40  187339.86  52.74
1160.3  353441.67  185695.78  52.54
1164.1  351165.23  184060.24  52.41
1167.9  349576.04  182988.42  52.35
1171.7  348279.75  182180.25  52.31
1175.4  346789.90  181316.72  52.28
1179.2  345378.20  180471.41  52.25
1183.0  345060.00  180161.19  52.21
1186.7  345133.83  180065.04  52.17
1190.5  344905.07  179825.48  52.14
1194.3  344002.83  179270.99  52.11
1198.0  342489.13  178496.57  52.12
1201.8  340803.25  177697.22  52.14
1205.6  339757.00  177336.59  52.20
1209.3  339254.82  177346.70  52.28
1213.1  338888.63  177460.45  52.37
1216.8  338343.68  177519.53  52.47
1220.6  337239.47  177312.18  52.58
1224.3  336014.25  177010.04  52.68
1228.1  334494.80  176608.98  52.80
1231.9  332880.43  176095.40  52.90
1235.6  331150.58  175469.92  52.99
1239.4  329606.63  174917.72  53.07
1243.1  328199.29  174393.87  53.14
1246.9  326904.25  173888.08  53.19
1250.6  325866.60  173467.14  53.23
1254.3  324712.85  172965.53  53.27
1258.1  323494.85  172388.87  53.29
1261.8  322050.40  171658.52  53.30
1265.6  320915.93  171050.54  53.30
1269.3  320237.93  170619.04  53.28
1273.1  320623.88  170711.52  53.24
1276.8  320308.40  170363.20  53.19
1280.6  319035.43  169482.29  53.12
1284.3  316962.80  168107.29  53.04
1288.0  315770.48  167108.70  52.92
1291.8  315413.17  166455.43  52.77
1295.5  314777.47  165592.53  52.61
1299.2  313648.70  164379.04  52.41
1302.9  312026.19  162801.86  52.18
1306.7  310240.23  161038.87  51.91
1310.4  308490.24  159154.39  51.59
1314.1  306904.95  157232.12  51.23
1317.9  305505.00  155239.91  50.81
1321.6  303970.06  153050.98  50.35
1325.3  302261.93  150653.07  49.84
1329.0  300974.68  148370.60  49.30
1332.8  299068.00  145680.58  48.71
1336.5  297425.20  143092.77  48.11
1340.2  297327.33  141255.59  47.51
1343.9  297292.50  139463.80  46.91
