/*** Spectra Vista SIG Data ***/
name= 2_20220824_ACSA_19_avg.sig
comm= Averaged Ref/Tar of files: HR.082422.0004_moc.sig,HR.082422.0005_moc.sig,HR.082422.0006_moc.sig
data=
337.3  3374.50  259.94  7.70
338.8  3511.30  261.11  7.44
340.3  3654.30  272.18  7.45
341.8  3840.90  269.99  7.03
343.2  3996.00  262.17  6.56
344.7  4179.70  251.84  6.03
346.2  4330.10  248.99  5.75
347.7  4601.03  247.19  5.37
349.2  4800.60  252.00  5.25
350.6  5031.33  248.33  4.94
352.1  5323.03  255.18  4.79
353.6  5586.70  254.47  4.55
355.1  5859.45  256.57  4.38
356.6  6161.70  259.08  4.20
358.0  6443.80  261.28  4.05
359.5  6736.20  273.68  4.06
361.0  7062.30  282.15  4.00
362.5  7435.85  292.75  3.94
364.0  7770.93  294.94  3.80
365.4  8120.90  299.73  3.69
366.9  8508.50  310.45  3.65
368.4  8891.65  316.91  3.56
369.9  9269.58  334.59  3.61
371.3  9692.10  345.83  3.57
372.8  10115.55  359.06  3.55
374.3  10561.88  358.33  3.39
375.8  10968.65  367.03  3.35
377.2  11432.50  379.16  3.32
378.7  11889.80  384.29  3.23
380.2  12293.30  391.97  3.19
381.7  12836.88  404.09  3.15
383.1  13313.30  408.10  3.07
384.6  13865.15  418.75  3.02
386.1  14377.30  429.83  2.99
387.6  14849.45  438.90  2.96
389.0  15356.40  456.88  2.98
390.5  15876.90  462.73  2.91
392.0  16451.90  471.06  2.86
393.4  17052.48  475.45  2.79
394.9  17617.50  489.68  2.78
396.4  18216.00  497.79  2.73
397.9  18783.13  512.50  2.73
399.3  19348.30  523.38  2.71
400.8  19915.08  531.73  2.67
402.2  20572.90  551.79  2.68
403.7  21186.00  564.04  2.66
405.2  21828.35  574.96  2.63
406.6  22434.40  585.52  2.61
408.1  23052.00  602.67  2.61
409.6  23684.05  616.69  2.60
411.0  24360.35  628.30  2.58
412.5  25010.83  642.60  2.57
414.0  25692.88  659.76  2.57
415.4  26433.75  679.54  2.57
416.9  27119.93  695.73  2.57
418.4  27825.75  718.54  2.58
419.8  28574.00  734.93  2.57
421.3  29322.13  748.65  2.55
422.7  30119.40  772.23  2.56
424.2  30915.00  795.53  2.57
425.7  31703.50  821.21  2.59
427.1  32457.08  842.49  2.60
428.6  33294.00  868.00  2.61
430.0  34037.53  888.82  2.61
431.5  34954.35  915.40  2.62
432.9  35848.55  940.39  2.62
434.4  36757.95  965.92  2.63
435.9  37618.00  990.67  2.63
437.3  38486.25  1016.19  2.64
438.8  39353.93  1043.33  2.65
440.2  40236.35  1067.73  2.65
441.7  41231.80  1097.52  2.66
443.1  42161.50  1124.36  2.67
444.6  43138.30  1154.05  2.68
446.0  44102.03  1182.58  2.68
447.5  45082.40  1214.95  2.69
448.9  46053.00  1247.00  2.71
450.4  47086.20  1280.20  2.72
451.8  47983.00  1308.67  2.73
453.3  48926.65  1337.38  2.73
454.7  49959.60  1372.71  2.75
456.2  50850.13  1396.81  2.75
457.6  51852.15  1428.64  2.76
459.1  52846.95  1456.87  2.76
460.5  53821.00  1487.81  2.76
462.0  54911.50  1516.09  2.76
463.4  55964.50  1547.45  2.77
464.8  56970.75  1577.79  2.77
466.3  57993.38  1606.86  2.77
467.7  59016.48  1640.74  2.78
469.2  60114.33  1671.57  2.78
470.6  61117.50  1700.72  2.78
472.0  62183.35  1733.23  2.79
473.5  63209.38  1762.26  2.79
474.9  64267.50  1798.22  2.80
476.4  65433.60  1832.23  2.80
477.8  66540.50  1867.05  2.81
479.2  67599.00  1902.95  2.82
480.7  68741.78  1936.89  2.82
482.1  69909.10  1976.21  2.83
483.6  71122.90  2014.74  2.83
485.0  72244.73  2051.31  2.84
486.4  73462.95  2095.20  2.85
487.9  74572.88  2136.64  2.87
489.3  75774.85  2183.51  2.88
490.7  76879.23  2232.59  2.90
492.2  78130.50  2287.60  2.93
493.6  79256.50  2339.81  2.95
495.0  80408.25  2397.10  2.98
496.5  81622.35  2461.21  3.02
497.9  82767.00  2528.29  3.05
499.3  83955.68  2609.35  3.11
500.7  85233.70  2695.60  3.16
502.2  86402.80  2793.46  3.23
503.6  87673.00  2903.31  3.31
505.0  88779.00  3019.30  3.40
506.5  90127.50  3157.63  3.50
507.9  91366.48  3313.74  3.63
509.3  92766.40  3506.90  3.78
510.7  94053.38  3711.96  3.95
512.2  95491.58  3957.88  4.14
513.6  96991.65  4236.67  4.37
515.0  98451.23  4552.00  4.62
516.4  99848.70  4900.50  4.91
517.8  101502.25  5296.20  5.22
519.3  102846.03  5713.11  5.56
520.7  104433.65  6179.33  5.92
522.1  105762.80  6652.10  6.29
523.5  107155.10  7148.57  6.67
524.9  108642.60  7653.90  7.05
526.3  110078.85  8149.43  7.40
527.8  111568.05  8639.87  7.74
529.2  112688.70  9103.19  8.08
530.6  114313.95  9587.92  8.39
532.0  116088.00  10053.33  8.66
533.4  117396.60  10439.82  8.89
534.8  118257.95  10753.81  9.09
536.3  119982.90  11118.57  9.27
537.7  122081.40  11494.80  9.42
539.1  123582.78  11800.31  9.55
540.5  124753.65  12059.18  9.67
541.9  126522.38  12364.87  9.77
543.3  127788.00  12622.26  9.88
544.7  129093.60  12883.09  9.98
546.1  130880.20  13189.60  10.08
547.5  132160.00  13435.73  10.17
549.0  133969.00  13720.67  10.24
550.4  135500.63  13964.28  10.31
551.8  137056.55  14179.68  10.35
553.2  138615.68  14361.72  10.36
554.6  139984.00  14483.74  10.35
556.0  141546.60  14579.70  10.30
557.4  143176.78  14635.93  10.22
558.8  144837.90  14654.61  10.12
560.2  146297.88  14611.95  9.99
561.6  147993.30  14549.33  9.83
563.0  149593.48  14442.53  9.65
564.4  151202.60  14305.80  9.46
565.8  152745.00  14127.20  9.25
567.2  154499.00  13937.12  9.02
568.6  156034.50  13697.32  8.78
570.0  157469.30  13426.08  8.53
571.4  159230.50  13168.45  8.27
572.8  161001.00  12918.77  8.02
574.2  162646.40  12670.93  7.79
575.6  164193.75  12436.07  7.57
577.0  165748.40  12223.37  7.37
578.4  167508.25  12052.08  7.19
579.8  169026.75  11885.91  7.03
581.2  170765.98  11755.79  6.88
582.5  172200.60  11625.34  6.75
583.9  173731.40  11514.55  6.63
585.3  175547.93  11435.51  6.51
586.7  177044.08  11355.04  6.41
588.1  178552.75  11292.42  6.32
589.5  180222.00  11256.00  6.25
590.9  181883.20  11233.22  6.18
592.3  183706.90  11240.02  6.12
593.7  185169.08  11242.12  6.07
595.0  186808.95  11261.57  6.03
596.4  188280.05  11278.83  5.99
597.8  189770.55  11295.55  5.95
599.2  191334.00  11310.51  5.91
600.6  193105.90  11323.71  5.86
602.0  194420.85  11294.90  5.81
603.3  196231.10  11274.89  5.75
604.7  197904.60  11230.43  5.67
606.1  199410.00  11150.40  5.59
607.5  201063.08  11061.75  5.50
608.9  202783.65  10961.68  5.41
610.2  204176.70  10833.75  5.31
611.6  205792.95  10715.10  5.21
613.0  207371.95  10591.16  5.11
614.4  208763.40  10463.53  5.01
615.8  210234.38  10351.71  4.92
617.1  211782.90  10256.40  4.84
618.5  213401.20  10180.99  4.77
619.9  214920.00  10119.15  4.71
621.3  216567.45  10083.02  4.66
622.6  218181.75  10065.00  4.61
624.0  219637.20  10060.16  4.58
625.4  221111.55  10073.80  4.56
626.8  222695.20  10108.58  4.54
628.1  224034.80  10141.40  4.53
629.5  225896.75  10203.01  4.52
630.9  227502.55  10247.13  4.50
632.2  228873.93  10273.92  4.49
633.6  230502.50  10286.42  4.46
635.0  232028.00  10269.22  4.43
636.3  233567.30  10216.88  4.37
637.7  234962.13  10118.87  4.31
639.1  236617.50  10005.00  4.23
640.4  238099.93  9859.28  4.14
641.8  239318.45  9691.71  4.05
643.2  240922.15  9536.08  3.96
644.5  242305.25  9377.02  3.87
645.9  244001.25  9233.79  3.78
647.2  245800.45  9119.67  3.71
648.6  247657.50  9035.36  3.65
650.0  249091.20  8960.92  3.60
651.3  249522.90  8880.01  3.56
652.7  250807.05  8833.64  3.52
654.0  252953.40  8819.77  3.49
655.4  254465.08  8771.63  3.45
656.8  254535.10  8671.40  3.41
658.1  255783.60  8602.22  3.36
659.5  258325.73  8572.05  3.32
660.8  260280.00  8517.86  3.27
662.2  261161.60  8422.40  3.22
663.5  262765.45  8368.48  3.18
664.9  264006.60  8318.02  3.15
666.2  264712.80  8273.20  3.13
667.6  266404.23  8287.89  3.11
668.9  267551.95  8306.36  3.10
670.3  268858.00  8344.81  3.10
671.6  270345.38  8411.71  3.11
673.0  271495.88  8502.32  3.13
674.3  272758.20  8608.48  3.16
675.7  274083.20  8739.60  3.19
677.0  275224.40  8870.83  3.22
678.4  276589.95  9036.54  3.27
679.7  277713.23  9216.94  3.32
681.1  279028.00  9435.49  3.38
682.4  280205.90  9681.91  3.46
683.8  281465.60  9957.63  3.54
685.1  282492.00  10270.21  3.64
686.4  283804.80  10658.11  3.76
687.8  285111.50  11161.02  3.91
689.1  286179.50  11811.57  4.13
690.5  287577.45  12705.44  4.42
691.8  288331.78  13876.71  4.81
693.1  289716.15  15464.56  5.34
694.5  290904.25  17476.33  6.01
695.8  292155.50  19963.67  6.83
697.1  293384.00  22945.00  7.82
698.5  294441.70  26399.02  8.97
699.8  295523.28  30293.80  10.25
701.1  296679.70  34548.06  11.64
702.5  297457.05  39011.50  13.12
703.8  298440.00  43656.43  14.63
705.1  299642.85  48418.78  16.16
706.5  300720.00  53184.31  17.69
707.8  301702.65  57929.07  19.20
709.1  302593.05  62597.17  20.69
710.5  303753.95  67253.53  22.14
711.8  304640.30  71778.39  23.56
713.1  305666.10  76272.37  24.95
714.4  306602.70  80655.92  26.31
715.8  307427.80  84937.51  27.63
717.1  308765.25  89265.90  28.91
718.4  309702.40  93384.53  30.15
719.7  310851.73  97451.60  31.35
721.0  311400.00  101226.43  32.51
722.4  312204.75  104943.40  33.61
723.7  313181.55  108586.26  34.67
725.0  314264.03  112122.99  35.68
726.3  315236.08  115479.29  36.63
727.6  315783.88  118542.18  37.54
729.0  316754.73  121589.83  38.39
730.3  317537.78  124427.10  39.18
731.6  318451.40  127161.85  39.93
732.9  319263.18  129706.03  40.63
734.2  320097.25  132117.73  41.27
735.5  321139.78  134489.06  41.88
736.8  321940.80  136604.54  42.43
738.1  322817.30  138613.17  42.94
739.5  323799.95  140548.85  43.41
740.8  324514.03  142248.70  43.83
742.1  325270.98  143874.32  44.23
743.4  326000.00  145390.48  44.60
744.7  327023.25  146916.50  44.93
746.0  327927.60  148290.26  45.22
747.3  328557.80  149430.64  45.48
748.6  329316.75  150556.57  45.72
749.9  330070.00  151604.76  45.93
751.2  330797.50  152581.52  46.13
752.5  331712.75  153567.74  46.30
753.8  332351.95  154361.52  46.45
755.1  333060.00  155138.29  46.58
756.4  333674.85  155812.89  46.70
757.7  334672.63  156626.32  46.80
759.0  336519.20  157787.08  46.89
760.3  337708.80  158621.26  46.97
761.6  339336.20  159610.13  47.04
762.9  339939.00  160074.55  47.09
764.2  340311.90  160436.73  47.14
765.5  340623.10  160734.40  47.19
766.8  341060.80  161086.17  47.23
768.1  341595.80  161456.46  47.27
769.3  342224.05  161849.93  47.29
770.6  342918.55  162256.40  47.32
771.9  343678.65  162693.18  47.34
773.2  344094.40  162961.91  47.36
774.5  344744.40  163327.79  47.38
775.8  345449.90  163730.62  47.40
777.1  346068.80  164053.42  47.40
778.4  346420.53  164272.77  47.42
779.6  347217.73  164704.81  47.44
780.9  347700.00  164980.00  47.45
782.2  348177.50  165257.19  47.46
783.5  348554.00  165463.95  47.47
784.8  349123.95  165762.17  47.48
786.0  349534.15  165987.97  47.49
787.3  349939.05  166217.98  47.50
788.6  350425.08  166469.00  47.50
789.9  350915.60  166725.47  47.51
791.2  351581.98  167081.83  47.52
792.4  352304.90  167440.77  47.53
793.7  352804.20  167702.99  47.53
795.0  353437.43  168045.82  47.55
796.2  354160.30  168393.52  47.55
797.5  354924.23  168763.50  47.55
798.8  355596.38  169120.26  47.56
800.0  356321.90  169480.03  47.56
801.3  356848.50  169731.88  47.56
802.6  357434.55  170042.77  47.57
803.8  358069.60  170374.79  47.58
805.1  358603.88  170645.50  47.59
806.4  359092.50  170891.20  47.59
807.7  359702.78  171173.44  47.59
808.9  360287.50  171469.03  47.59
810.2  360814.65  171733.63  47.60
811.4  361341.10  171994.63  47.60
812.7  361968.75  172323.51  47.61
814.0  362860.70  172747.70  47.61
815.2  363517.25  173075.62  47.61
816.5  363945.48  173307.37  47.62
817.7  364439.25  173558.82  47.62
819.0  364980.00  173824.83  47.63
820.2  365156.00  173934.10  47.63
821.5  365906.75  174288.09  47.63
822.7  366274.75  174481.23  47.64
824.0  366603.30  174656.06  47.64
825.2  367104.15  174913.52  47.65
826.5  367421.30  175097.60  47.66
827.7  367919.53  175391.87  47.67
829.0  368409.73  175614.18  47.67
830.2  368699.20  175773.56  47.67
831.5  369204.30  176026.50  47.68
832.7  369511.80  176195.65  47.68
834.0  369833.75  176377.32  47.69
835.2  370248.73  176584.05  47.69
836.4  370515.75  176756.17  47.71
837.7  370944.80  176986.23  47.71
838.9  371370.73  177226.10  47.72
840.1  371781.90  177439.18  47.73
841.4  372182.90  177695.99  47.74
842.6  372578.80  177902.89  47.75
843.8  372989.00  178099.35  47.75
845.1  373430.20  178383.49  47.77
846.3  373822.00  178605.75  47.78
847.5  374230.50  178831.40  47.79
848.8  374631.60  179055.20  47.80
850.0  375022.90  179262.53  47.80
851.2  375560.55  179563.50  47.81
852.5  375962.10  179776.68  47.82
853.7  376492.50  180009.21  47.81
854.9  376902.20  180257.85  47.83
856.1  377397.15  180509.95  47.83
857.4  377513.95  180614.74  47.84
858.6  377918.25  180882.94  47.86
859.8  378301.88  181081.96  47.87
861.0  378869.40  181303.20  47.85
862.2  379327.28  181552.63  47.86
863.5  379810.60  181751.45  47.85
864.7  380278.80  182032.40  47.87
865.9  380652.40  182220.74  47.87
867.1  380908.55  182380.75  47.88
868.3  381435.60  182591.23  47.87
869.5  381956.85  182842.45  47.87
870.8  382500.00  183104.57  47.87
872.0  382990.73  183378.08  47.88
873.2  383403.90  183607.84  47.89
874.4  383818.50  183816.19  47.89
875.6  384196.40  183983.94  47.89
876.8  384781.15  184235.32  47.88
878.0  385306.35  184459.02  47.87
879.2  385727.55  184703.07  47.88
880.4  386263.88  184962.57  47.89
881.6  386761.48  185203.14  47.89
882.8  387254.40  185376.99  47.87
884.0  387856.00  185699.25  47.88
885.2  388335.60  185940.70  47.88
886.5  389074.15  186221.14  47.86
887.7  389538.18  186446.06  47.86
888.8  390200.63  186748.65  47.86
890.0  390786.15  187021.95  47.86
891.2  391384.90  187283.99  47.85
892.4  391978.13  187588.40  47.86
893.6  392626.25  187836.62  47.84
894.8  393541.50  188294.43  47.85
896.0  394419.50  188688.43  47.84
897.2  395242.25  189083.76  47.84
898.4  396105.60  189430.37  47.82
899.6  396698.63  189705.43  47.82
900.8  397030.55  189875.45  47.82
902.0  397212.30  189994.13  47.83
903.2  397635.60  190135.80  47.82
904.3  398011.50  190305.23  47.81
905.5  398701.43  190592.34  47.80
906.7  399293.00  190863.76  47.80
907.9  399800.80  191105.13  47.80
909.1  400187.93  191244.08  47.79
910.2  400394.93  191318.41  47.78
911.4  400669.43  191457.41  47.78
912.6  400993.45  191551.23  47.77
913.8  401220.60  191655.95  47.77
915.0  401589.30  191839.90  47.77
916.2  401924.25  191899.50  47.75
917.3  401869.80  191904.94  47.75
918.5  402139.10  192002.82  47.75
919.7  402411.45  192063.00  47.73
920.8  402666.68  192100.77  47.71
922.0  402767.75  192140.67  47.71
923.2  403084.50  192244.00  47.69
924.4  403363.13  192328.07  47.68
925.5  403643.10  192411.43  47.67
926.7  404202.63  192613.04  47.65
927.9  405024.60  192965.26  47.64
929.0  406575.45  193635.39  47.63
930.2  408722.30  194601.08  47.61
931.4  411255.90  195748.59  47.60
932.5  413918.20  196924.99  47.58
933.7  415360.28  197563.00  47.56
934.9  416180.63  197780.42  47.52
936.0  415728.63  197512.71  47.51
937.2  413790.45  196460.06  47.48
938.3  412024.75  195629.18  47.48
939.5  410648.40  194870.06  47.45
940.7  410841.00  194852.75  47.43
941.8  412424.18  195473.57  47.40
943.0  413888.25  196048.29  47.37
944.2  414798.15  196322.66  47.33
945.3  414404.25  196012.14  47.30
946.5  413580.60  195531.30  47.28
947.6  413819.00  195531.06  47.25
948.8  413855.33  195300.02  47.19
949.9  414145.20  195238.00  47.14
951.1  413883.60  194891.20  47.09
952.2  413712.00  194596.57  47.04
953.4  413256.50  194301.81  47.02
954.5  412986.60  194113.03  47.00
955.7  413406.00  193840.80  46.89
956.8  413138.40  193536.70  46.85
958.0  413097.50  193211.29  46.77
959.1  412851.03  192984.12  46.74
960.3  412345.18  192675.25  46.73
961.4  412338.90  192554.38  46.70
962.6  412370.00  192462.17  46.67
963.7  412146.00  192264.71  46.65
964.9  412183.05  192165.62  46.62
966.0  412251.53  192072.98  46.59
967.2  412074.00  192024.47  46.60
968.3  411909.30  191831.53  46.57
969.5  411813.98  191815.08  46.58
970.6  412010.58  191768.40  46.54
971.8  412308.23  191888.65  46.54
972.9  412137.00  191795.36  46.54
974.0  412263.50  191877.51  46.54
975.2  412079.00  191809.72  46.55
976.3  412303.75  191793.80  46.52
977.5  412210.75  191860.78  46.54
978.6  412103.00  191819.37  46.55
979.7  412407.98  191894.80  46.53
980.9  412145.45  191836.38  46.55
982.0  411797.10  191888.58  46.60
983.2  411805.55  191718.52  46.56
984.3  411656.60  191624.76  46.55
985.4  411945.40  191756.29  46.55
986.6  412077.88  191665.49  46.51
987.7  412858.43  192313.20  46.58
988.9  412950.60  192244.11  46.55
990.0  413333.60  192528.63  46.58
993.1  365050.64  169164.60  46.34
996.9  365481.40  169757.12  46.45
1000.7  366431.98  170563.79  46.55
1004.5  366863.42  171096.53  46.64
1008.4  366618.00  171328.89  46.73
1012.2  366615.63  171636.45  46.82
1016.0  366693.60  171996.34  46.90
1019.8  366816.45  172320.23  46.98
1023.7  366706.21  172499.08  47.04
1027.5  366297.07  172527.07  47.10
1031.3  366385.05  172723.40  47.14
1035.1  366202.67  172724.95  47.17
1038.9  366135.55  172779.75  47.19
1042.7  365951.75  172780.83  47.21
1046.5  365831.50  172771.76  47.23
1050.3  365811.75  172827.71  47.24
1054.2  365527.75  172744.67  47.26
1058.0  365034.31  172524.81  47.26
1061.8  364908.61  172494.93  47.27
1065.6  364604.67  172318.39  47.26
1069.4  364529.93  172267.93  47.26
1073.2  364056.04  171988.68  47.24
1077.0  363542.70  171682.95  47.22
1080.8  363104.17  171380.51  47.20
1084.6  362176.97  170849.35  47.17
1088.4  361569.60  170502.07  47.16
1092.2  360798.75  170005.18  47.12
1096.0  360192.41  169577.57  47.08
1099.8  359701.98  169176.83  47.03
1103.6  359033.58  168684.35  46.98
1107.4  358110.26  168056.88  46.93
1111.2  357800.90  167731.42  46.88
1114.9  357102.08  167171.17  46.81
1118.7  356456.93  166601.44  46.74
1122.5  355741.53  165924.70  46.64
1126.3  354662.47  164996.05  46.52
1130.1  354149.78  164171.25  46.36
1133.9  352628.50  162648.30  46.12
1137.7  351216.20  161021.52  45.85
1141.4  349470.88  159069.38  45.52
1145.2  348736.83  157430.77  45.14
1149.0  347628.75  155709.38  44.79
1152.8  346032.25  153921.49  44.48
1156.6  344414.58  152388.87  44.25
1160.3  342735.00  151089.14  44.08
1164.1  340429.87  149699.69  43.97
1167.9  338651.04  148736.76  43.92
1171.7  337388.63  148078.13  43.89
1175.4  336244.90  147499.44  43.87
1179.2  335164.90  146955.06  43.85
1183.0  334883.33  146733.33  43.82
1186.7  334387.43  146412.97  43.79
1190.5  333411.33  145891.97  43.76
1194.3  332278.87  145317.30  43.73
1198.0  331099.45  144762.67  43.72
1201.8  329608.33  144127.82  43.73
1205.6  328367.00  143686.29  43.76
1209.3  327475.90  143435.44  43.80
1213.1  326577.23  143175.76  43.84
1216.8  325643.73  142965.25  43.90
1220.6  324549.87  142671.47  43.96
1224.3  323321.58  142316.24  44.02
1228.1  322078.80  141977.52  44.08
1231.9  320837.60  141597.64  44.13
1235.6  319403.78  141093.37  44.17
1239.4  318040.50  140645.36  44.22
1243.1  316796.46  140199.68  44.26
1246.9  315607.23  139743.19  44.28
1250.6  314658.27  139357.37  44.29
1254.3  313620.18  138917.49  44.29
1258.1  312607.75  138479.58  44.30
1261.8  311325.87  137924.29  44.30
1265.6  309918.60  137270.29  44.29
1269.3  308559.68  136596.84  44.27
1273.1  308549.62  136475.42  44.23
1276.8  308746.40  136405.83  44.18
1280.6  308478.93  136133.26  44.13
1284.3  307057.20  135330.46  44.07
1288.0  305651.93  134476.36  44.00
1291.8  304482.53  133657.32  43.90
1295.5  303209.87  132763.50  43.79
1299.2  301987.89  131834.63  43.66
1302.9  300538.46  130744.32  43.50
1306.7  298975.13  129539.78  43.33
1310.4  297488.69  128267.77  43.12
1314.1  296131.55  126980.91  42.88
1317.9  294904.79  125651.25  42.61
1321.6  293503.00  124154.98  42.30
1325.3  291863.25  122465.55  41.96
1329.0  290551.45  120847.50  41.59
1332.8  288519.00  118841.80  41.19
1336.5  286738.53  116912.13  40.77
1340.2  286331.50  115550.50  40.36
1343.9  285764.58  114123.34  39.94
1347.6  284913.45  112590.77  39.52
1351.4  284797.00  111409.57  39.12
