/*** Spectra Vista SIG Data ***/
name= 15_20221020_QUPA_36_avg.sig
comm= Averaged Ref/Tar of files: HR.102022.0043_moc.sig,HR.102022.0044_moc.sig
data=
337.3  3027.13  258.05  8.52
338.8  3174.60  250.12  7.88
340.3  3326.35  234.25  7.04
341.8  3520.83  228.63  6.49
343.2  3685.20  222.00  6.02
344.7  3838.50  230.31  6.00
346.2  4003.30  220.59  5.51
347.7  4168.45  228.09  5.47
349.2  4384.80  219.24  5.00
350.6  4627.35  213.01  4.60
352.1  4894.33  214.35  4.38
353.6  5170.30  215.14  4.16
355.1  5421.68  222.26  4.10
356.6  5702.85  222.87  3.91
358.0  5965.30  229.68  3.85
359.5  6241.80  228.66  3.66
361.0  6523.65  233.42  3.58
362.5  6879.63  240.06  3.49
364.0  7226.10  235.14  3.25
365.4  7587.00  247.28  3.26
366.9  7956.00  265.20  3.33
368.4  8291.60  278.21  3.36
369.9  8620.98  291.87  3.39
371.3  8997.90  304.38  3.38
372.8  9425.25  313.29  3.32
374.3  9836.25  317.13  3.22
375.8  10241.00  312.62  3.05
377.2  10625.50  328.18  3.09
378.7  11055.90  328.18  2.97
380.2  11432.50  333.56  2.92
381.7  11918.03  340.52  2.86
383.1  12343.10  339.57  2.75
384.6  12813.13  345.28  2.69
386.1  13269.28  367.54  2.77
387.6  13744.50  377.30  2.75
389.0  14177.20  380.56  2.68
390.5  14655.60  387.63  2.64
392.0  15182.30  407.33  2.68
393.4  15712.45  425.66  2.71
394.9  16234.20  438.48  2.70
396.4  16741.13  450.23  2.69
397.9  17271.25  461.25  2.67
399.3  17803.48  481.18  2.70
400.8  18344.80  493.52  2.69
402.2  18952.60  510.64  2.69
403.7  19524.83  534.47  2.74
405.2  20123.75  558.73  2.78
406.6  20671.20  575.36  2.78
408.1  21244.00  596.64  2.81
409.6  21840.25  614.60  2.81
411.0  22460.20  636.23  2.83
412.5  23115.75  662.24  2.86
414.0  23736.88  688.68  2.90
415.4  24406.50  719.48  2.95
416.9  25038.23  744.02  2.97
418.4  25734.15  776.88  3.02
419.8  26426.40  804.44  3.04
421.3  27129.65  844.91  3.11
422.7  27857.40  876.96  3.15
424.2  28586.25  911.25  3.19
425.7  29340.00  945.40  3.22
427.1  30083.33  981.15  3.26
428.6  30860.50  1019.90  3.30
430.0  31594.35  1053.15  3.33
431.5  32432.03  1086.54  3.35
432.9  33270.15  1128.05  3.39
434.4  34122.15  1166.06  3.42
435.9  34958.00  1204.00  3.44
437.3  35777.50  1243.00  3.47
438.8  36611.78  1284.20  3.51
440.2  37460.50  1317.86  3.52
441.7  38391.00  1361.44  3.55
443.1  39259.75  1401.85  3.57
444.6  40203.90  1438.38  3.58
446.0  41130.75  1479.15  3.60
447.5  42070.88  1519.98  3.61
448.9  42982.80  1558.32  3.63
450.4  43965.25  1600.62  3.64
451.8  44824.00  1638.00  3.65
453.3  45723.28  1670.99  3.65
454.7  46705.38  1715.39  3.67
456.2  47557.10  1753.64  3.69
457.6  48493.58  1789.47  3.69
459.1  49449.08  1830.86  3.70
460.5  50370.25  1867.15  3.71
462.0  51422.05  1909.73  3.71
463.4  52443.60  1950.88  3.72
464.8  53418.75  1995.23  3.74
466.3  54360.90  2036.43  3.75
467.7  55300.68  2069.03  3.74
469.2  56342.23  2108.44  3.74
470.6  57324.00  2146.84  3.75
472.0  58354.95  2190.07  3.75
473.5  59353.25  2234.58  3.76
474.9  60377.25  2271.45  3.76
476.4  61516.80  2312.64  3.76
477.8  62538.50  2351.90  3.76
479.2  63510.00  2383.80  3.75
480.7  64572.98  2426.01  3.76
482.1  65704.15  2468.06  3.76
483.6  66874.60  2514.30  3.76
485.0  67931.18  2550.50  3.75
486.4  69097.95  2601.54  3.77
487.9  70141.50  2644.20  3.77
489.3  71269.00  2691.73  3.78
490.7  72285.03  2741.80  3.79
492.2  73485.30  2795.94  3.80
493.6  74568.50  2853.82  3.83
495.0  75669.75  2910.38  3.85
496.5  76823.63  2979.03  3.88
497.9  77909.58  3034.79  3.90
499.3  79054.23  3108.17  3.93
500.7  80282.00  3181.98  3.96
502.2  81409.60  3258.72  4.00
503.6  82650.60  3349.24  4.05
505.0  83724.75  3431.03  4.10
506.5  85000.58  3525.32  4.15
507.9  86148.08  3626.20  4.21
509.3  87453.20  3732.56  4.27
510.7  88656.75  3849.30  4.34
512.2  90020.03  3977.73  4.42
513.6  91481.25  4112.71  4.50
515.0  92903.48  4253.28  4.58
516.4  94263.75  4394.25  4.66
517.8  95852.25  4542.60  4.74
519.3  97159.73  4695.42  4.83
520.7  98715.30  4858.49  4.92
522.1  99977.15  5011.44  5.01
523.5  101289.30  5168.02  5.10
524.9  102727.80  5317.74  5.18
526.3  104109.25  5464.48  5.25
527.8  105568.65  5619.24  5.32
529.2  106624.40  5757.36  5.40
530.6  108172.70  5918.72  5.47
532.0  109830.00  6084.40  5.54
533.4  111124.95  6222.78  5.60
534.8  112002.53  6332.13  5.65
536.3  113545.80  6480.96  5.71
537.7  115428.60  6645.24  5.76
539.1  116816.35  6783.68  5.81
540.5  118005.65  6914.29  5.86
541.9  119704.65  7074.42  5.91
543.3  120993.48  7208.91  5.96
544.7  122299.20  7353.00  6.01
546.1  124070.10  7529.45  6.07
547.5  125283.20  7678.72  6.13
549.0  126918.00  7849.60  6.18
550.4  128381.88  8011.25  6.24
551.8  129910.08  8182.14  6.30
553.2  131366.98  8348.58  6.36
554.6  132683.20  8505.12  6.41
556.0  134177.40  8677.44  6.47
557.4  135753.10  8865.05  6.53
558.8  137375.55  9060.39  6.60
560.2  138817.50  9256.58  6.67
561.6  140445.60  9470.07  6.74
563.0  142009.58  9689.38  6.82
564.4  143585.50  9921.22  6.91
565.8  145084.38  10151.13  7.00
567.2  146802.00  10418.90  7.10
568.6  148269.75  10677.08  7.20
570.0  149666.08  10928.91  7.30
571.4  151362.90  11193.65  7.40
572.8  153091.13  11474.33  7.50
574.2  154672.00  11748.80  7.60
575.6  156206.25  12039.75  7.71
577.0  157702.80  12332.82  7.82
578.4  159397.88  12664.93  7.95
579.8  160902.45  12998.88  8.08
581.2  162582.45  13357.55  8.22
582.5  163975.50  13712.40  8.36
583.9  165471.40  14082.12  8.51
585.3  167224.28  14491.26  8.67
586.7  168698.73  14884.55  8.82
588.1  170162.25  15289.63  8.99
589.5  171781.75  15719.20  9.15
590.9  173376.80  16157.20  9.32
592.3  175147.80  16626.24  9.49
593.7  176588.10  17075.76  9.67
595.0  178164.90  17539.47  9.84
596.4  179590.60  17987.55  10.02
597.8  181062.60  18440.98  10.18
599.2  182569.20  18873.36  10.34
600.6  184298.08  19313.26  10.48
602.0  185560.35  19670.31  10.60
603.3  187315.20  20037.74  10.70
604.7  188961.15  20351.14  10.77
606.1  190412.40  20597.88  10.82
607.5  192025.75  20809.52  10.84
608.9  193707.35  20976.65  10.83
610.2  195048.00  21069.72  10.80
611.6  196624.95  21158.03  10.76
613.0  198167.30  21221.27  10.71
614.4  199524.15  21234.27  10.64
615.8  200962.13  21261.83  10.58
617.1  202477.80  21291.48  10.52
618.5  204077.20  21341.60  10.46
619.9  205576.95  21405.44  10.41
621.3  207160.65  21496.95  10.38
622.6  208742.00  21621.45  10.36
624.0  210181.80  21765.96  10.36
625.4  211643.85  21935.60  10.36
626.8  213172.05  22142.12  10.39
628.1  214445.83  22338.58  10.42
629.5  216196.58  22599.59  10.45
630.9  217638.85  22830.78  10.49
632.2  218892.63  23014.71  10.51
633.6  220381.63  23187.25  10.52
635.0  221794.00  23281.92  10.50
636.3  223291.10  23285.80  10.43
637.7  224641.38  23178.25  10.32
639.1  226257.50  22995.00  10.16
640.4  227707.03  22705.31  9.97
641.8  228890.83  22313.34  9.75
643.2  230449.63  21900.38  9.50
644.5  231775.00  21429.15  9.25
645.9  233300.25  20955.51  8.98
647.2  234221.93  20463.66  8.74
648.6  235649.25  20079.90  8.52
650.0  236952.00  19742.40  8.33
651.3  238041.93  19433.21  8.16
652.7  240273.20  19246.75  8.01
654.0  242373.60  19029.90  7.85
655.4  243692.50  18721.05  7.68
656.8  243866.10  18291.66  7.50
658.1  245273.50  17892.14  7.29
659.5  247467.15  17482.08  7.06
660.8  248760.00  16969.50  6.82
662.2  249737.60  16405.76  6.57
663.5  251181.00  15894.84  6.33
664.9  252183.10  15403.70  6.11
666.2  252946.80  14958.36  5.91
667.6  254638.95  14640.74  5.75
668.9  255546.13  14370.95  5.62
670.3  257402.00  14190.23  5.51
671.6  258397.88  14049.38  5.44
673.0  259570.50  13983.00  5.39
674.3  260846.30  13971.62  5.36
675.7  262162.70  14026.46  5.35
677.0  263220.78  14104.81  5.36
678.4  264520.25  14254.58  5.39
679.7  265577.45  14474.83  5.45
681.1  266842.60  14799.08  5.55
682.4  267918.30  15249.00  5.69
683.8  269111.70  15916.42  5.91
685.1  270124.13  16828.28  6.23
686.4  271417.20  18093.00  6.67
687.8  272651.50  19802.50  7.26
689.1  273741.75  22027.50  8.05
690.5  275083.80  24880.02  9.04
691.8  275880.63  28367.95  10.28
693.1  277213.35  32597.88  11.76
694.5  278391.75  37405.55  13.44
695.8  279643.00  42683.55  15.26
697.1  280803.25  48298.25  17.20
698.5  281865.90  54144.04  19.21
699.8  282893.30  60115.96  21.25
701.1  284049.73  66115.77  23.28
702.5  284851.60  71961.56  25.26
703.8  285772.50  77652.00  27.17
705.1  286927.88  83196.75  29.00
706.5  287943.88  88461.80  30.72
707.8  288918.45  93485.58  32.36
709.1  289733.85  98225.54  33.90
710.5  290827.78  102846.81  35.36
711.8  291661.70  107155.96  36.74
713.1  292620.60  111343.90  38.05
714.4  293534.90  115317.76  39.29
715.8  294337.70  119108.76  40.47
717.1  295623.45  122929.47  41.58
718.4  296598.40  126456.96  42.64
719.7  297681.38  129869.54  43.63
721.0  298192.50  132912.00  44.57
722.4  298945.35  135908.85  45.46
723.7  299886.00  138844.50  46.30
725.0  300879.00  141640.38  47.08
726.3  301792.15  144267.70  47.80
727.6  302317.13  146568.46  48.48
729.0  303228.98  148888.71  49.10
730.3  303999.08  151030.19  49.68
731.6  304885.50  153090.95  50.21
732.9  305624.03  154974.26  50.71
734.2  306399.50  156752.75  51.16
735.5  307424.70  158530.27  51.57
736.8  308218.50  160117.20  51.95
738.1  309050.90  161626.14  52.30
739.5  309996.03  163099.06  52.61
740.8  310661.18  164359.42  52.91
742.1  311322.65  165546.55  53.18
743.4  311950.00  166650.00  53.42
744.7  312824.55  167836.69  53.65
746.0  313680.90  168952.68  53.86
747.3  314289.33  169853.56  54.04
748.6  315025.50  170774.00  54.21
749.9  315666.00  171605.20  54.36
751.2  316231.95  172386.03  54.51
752.5  316964.15  173222.83  54.65
753.8  317437.05  173883.75  54.78
755.1  318084.00  174574.40  54.88
756.4  318687.28  175185.79  54.97
757.7  319653.43  175995.82  55.06
759.0  321387.38  177197.08  55.14
760.3  322502.40  178041.60  55.21
761.6  323988.00  179071.20  55.27
762.9  324477.50  179529.95  55.33
764.2  324817.50  179891.06  55.38
765.5  325056.70  180186.49  55.43
766.8  325420.80  180531.84  55.48
768.1  325895.60  180938.64  55.52
769.3  326435.90  181372.94  55.56
770.6  327042.95  181837.11  55.60
771.9  327703.43  182309.16  55.63
773.2  328048.40  182600.64  55.66
774.5  328614.00  182994.24  55.69
775.8  329236.20  183416.76  55.71
777.1  329715.65  183784.92  55.74
778.4  329971.95  184023.95  55.77
779.6  330660.90  184497.13  55.80
780.9  331050.00  184800.00  55.82
782.2  331479.50  185117.90  55.85
783.5  331748.50  185311.90  55.86
784.8  332201.03  185628.15  55.88
786.0  332526.25  185865.82  55.90
787.3  332848.13  186111.68  55.91
788.6  333207.75  186373.57  55.93
789.9  333592.00  186656.96  55.95
791.2  334186.93  187039.14  55.97
792.4  334795.18  187416.71  55.98
793.7  335202.40  187687.96  55.99
795.0  335746.95  188067.00  56.01
796.2  336294.85  188436.01  56.03
797.5  336936.68  188834.55  56.04
798.8  337525.95  189235.75  56.07
800.0  338127.65  189605.49  56.08
801.3  338509.70  189849.90  56.08
802.6  339023.70  190196.55  56.10
803.8  339630.80  190566.49  56.11
805.1  340017.13  190849.05  56.13
806.4  340423.50  191101.98  56.14
807.7  340888.50  191420.82  56.15
808.9  341357.80  191743.06  56.17
810.2  341830.65  192031.07  56.18
811.4  342293.60  192287.52  56.18
812.7  342834.38  192660.00  56.20
814.0  343602.50  193125.18  56.21
815.2  344187.00  193502.90  56.22
816.5  344541.25  193746.33  56.23
817.7  344985.35  194024.80  56.24
819.0  345470.95  194308.40  56.24
820.2  345576.00  194400.80  56.25
821.5  346260.75  194816.88  56.26
822.7  346580.13  195035.65  56.27
824.0  346866.30  195231.06  56.28
825.2  347309.78  195503.22  56.29
826.5  347660.35  195671.23  56.28
827.7  348181.25  195999.63  56.29
829.0  348578.65  196225.32  56.29
830.2  348820.30  196405.51  56.31
831.5  349344.90  196708.36  56.31
832.7  349600.13  196896.42  56.32
834.0  349971.35  197103.29  56.32
835.2  350341.75  197294.41  56.31
836.4  350616.20  197448.35  56.31
837.7  351053.40  197721.60  56.32
838.9  351488.65  197994.63  56.33
840.1  351893.03  198272.48  56.34
841.4  352211.00  198512.72  56.36
842.6  352637.80  198727.96  56.35
843.8  353006.40  198982.16  56.37
845.1  353547.95  199273.56  56.36
846.3  353928.90  199544.02  56.38
847.5  354438.00  199788.54  56.37
848.8  354793.80  200071.32  56.39
850.0  355162.85  200317.11  56.40
851.2  355637.25  200628.90  56.41
852.5  356093.40  200834.62  56.40
853.7  356656.50  201152.70  56.40
854.9  357138.30  201433.14  56.40
856.1  357646.90  201720.35  56.40
857.4  357776.88  201887.90  56.43
858.6  358353.00  202201.71  56.43
859.8  358738.13  202436.25  56.43
861.0  359213.40  202681.44  56.42
862.2  359639.50  202947.56  56.43
863.5  360058.73  203178.56  56.43
864.7  360531.60  203483.28  56.44
865.9  360981.20  203743.72  56.44
867.1  361258.80  203897.67  56.44
868.3  361675.20  204160.86  56.45
869.5  362212.20  204436.56  56.44
870.8  362763.00  204714.00  56.43
872.0  363272.85  205019.51  56.44
873.2  363710.10  205268.79  56.44
874.4  364074.75  205524.54  56.45
875.6  364491.98  205755.68  56.45
876.8  365021.90  206012.36  56.44
878.0  365547.05  206264.23  56.43
879.2  365974.20  206542.35  56.44
880.4  366528.38  206804.63  56.42
881.6  366970.93  207039.60  56.42
882.8  367395.20  207288.96  56.42
884.0  368030.33  207606.85  56.41
885.2  368515.40  207831.46  56.40
886.5  369082.90  208140.01  56.39
887.7  369462.60  208353.86  56.39
888.8  370028.85  208691.16  56.40
890.0  370632.05  208992.47  56.39
891.2  371145.70  209250.84  56.38
892.4  371737.80  209530.13  56.37
893.6  372296.40  209811.76  56.36
894.8  373111.75  210260.25  56.35
896.0  373874.75  210668.05  56.35
897.2  374790.00  211111.55  56.33
898.4  375338.70  211474.56  56.34
899.6  375923.63  211759.58  56.33
900.8  376261.83  211904.25  56.32
902.0  376464.00  211953.51  56.30
903.2  376798.80  212036.15  56.27
904.3  376982.40  212206.74  56.29
905.5  377575.95  212484.28  56.28
906.7  378068.50  212744.40  56.27
907.9  378498.05  212981.44  56.27
909.1  378701.33  213067.67  56.26
910.2  378960.00  213117.63  56.24
911.4  379082.93  213178.68  56.24
912.6  379114.45  213223.01  56.24
913.8  379286.55  213302.48  56.24
915.0  379723.05  213439.59  56.21
916.2  379869.75  213447.00  56.19
917.3  379643.63  213345.59  56.20
918.5  379892.00  213364.00  56.16
919.7  380047.95  213453.03  56.16
920.8  379919.40  213398.71  56.17
922.0  379995.00  213363.15  56.15
923.2  380152.50  213322.20  56.11
924.4  380254.50  213318.90  56.10
925.5  380353.30  213340.18  56.09
926.7  380995.50  213562.50  56.05
927.9  381744.00  213892.32  56.03
929.0  383031.45  214544.70  56.01
930.2  385156.60  215603.64  55.98
931.4  387659.25  216813.38  55.93
932.5  390122.60  218136.77  55.91
933.7  391302.20  218721.36  55.90
934.9  391899.38  218822.63  55.84
936.0  391274.00  218351.90  55.81
937.2  389303.85  217037.31  55.75
938.3  387620.85  215924.37  55.71
939.5  385776.00  214884.00  55.70
940.7  385915.50  214840.62  55.67
941.8  387162.98  215386.82  55.63
943.0  388614.00  215924.55  55.56
944.2  389227.15  216148.01  55.53
945.3  388839.75  215593.95  55.45
946.5  387872.55  214934.31  55.41
947.6  387883.80  214766.34  55.37
948.8  387661.95  214320.02  55.29
949.9  387693.60  214021.08  55.20
951.1  387213.78  213438.81  55.12
952.2  386784.00  212935.20  55.05
953.4  386521.25  212389.80  54.95
954.5  386451.00  211989.96  54.86
955.7  386202.60  211501.08  54.76
956.8  385900.90  211014.36  54.68
958.0  385410.00  210380.70  54.59
959.1  385312.58  209924.25  54.48
960.3  384748.18  209369.24  54.42
961.4  384427.45  209077.87  54.39
962.6  384559.00  208918.15  54.33
963.7  383933.63  208526.25  54.31
964.9  383817.23  208250.34  54.26
966.0  383705.10  207900.27  54.18
967.2  383545.80  207833.22  54.19
968.3  383146.20  207419.94  54.14
969.5  383017.75  207332.82  54.13
970.6  382849.35  207189.06  54.12
971.8  382964.58  207261.99  54.12
972.9  383100.08  207005.18  54.03
974.0  383258.40  207011.68  54.01
975.2  383424.50  206789.98  53.93
976.3  383263.23  206868.93  53.98
977.5  383091.28  206786.09  53.98
978.6  382895.70  206851.70  54.02
979.7  383101.95  206756.13  53.97
980.9  383286.25  206613.84  53.91
982.0  383000.10  206474.49  53.91
983.2  382682.83  206515.89  53.97
984.3  382291.40  206317.72  53.97
985.4  381859.50  206088.42  53.97
986.6  381985.75  206100.35  53.95
987.7  382856.08  206624.88  53.97
988.9  382617.00  206268.48  53.91
990.0  382770.20  206666.80  53.99
993.1  388264.68  207405.00  53.42
996.9  386833.50  207189.32  53.56
1000.7  386610.64  207714.15  53.73
1004.5  386672.08  208317.31  53.87
1008.4  386362.17  208699.31  54.02
1012.2  386215.92  209180.52  54.16
1016.0  385790.40  209495.40  54.30
1019.8  385088.55  209563.20  54.42
1023.7  383742.02  209248.30  54.53
1027.5  381906.32  208601.78  54.62
1031.3  380767.23  208249.78  54.69
1035.1  379598.68  207873.87  54.76
1038.9  379098.13  207827.95  54.82
1042.7  378788.75  207898.89  54.89
1046.5  378601.67  208021.84  54.94
1050.3  378667.15  208196.57  54.98
1054.2  378296.33  208161.92  55.03
1058.0  377981.16  208081.61  55.05
1061.8  377954.98  208172.16  55.08
1065.6  377278.73  207820.66  55.08
1069.4  376372.80  207324.00  55.08
1073.2  375029.63  206520.86  55.07
1077.0  374351.70  206061.58  55.04
1080.8  374643.75  206151.74  55.03
1084.6  374867.97  206208.61  55.01
1088.4  375259.98  206332.21  54.98
1092.2  374809.50  205939.50  54.95
1096.0  374147.08  205361.97  54.89
1099.8  373439.52  204719.53  54.82
1103.6  372481.58  203952.00  54.75
1107.4  371323.23  202996.69  54.67
1111.2  370986.10  202505.47  54.59
1114.9  370454.00  201859.78  54.49
1118.7  370260.00  201238.13  54.35
1122.5  369927.13  200443.25  54.18
1126.3  369031.31  199182.18  53.97
1130.1  368665.19  197867.12  53.67
1133.9  367003.00  195484.57  53.27
1137.7  365454.00  192775.70  52.75
1141.4  363379.03  189497.61  52.15
1145.2  362418.68  186659.53  51.50
1149.0  361140.21  183764.10  50.88
1152.8  359313.80  180925.32  50.35
1156.6  357459.67  178534.77  49.95
1160.3  355656.00  176595.11  49.65
1164.1  353346.23  174762.73  49.46
1167.9  351732.29  173538.20  49.34
1171.7  350429.63  172596.38  49.25
1175.4  348945.77  171586.68  49.17
1179.2  347533.30  170596.47  49.09
1183.0  347237.33  170139.67  49.00
1186.7  347325.53  169947.09  48.93
1190.5  347068.87  169637.27  48.88
1194.3  346144.93  169064.67  48.84
1198.0  344634.68  168243.08  48.82
1201.8  342920.60  167420.82  48.82
1205.6  341856.33  167031.00  48.86
1209.3  341346.40  167025.78  48.93
1213.1  340926.08  167150.38  49.03
1216.8  340316.90  167275.60  49.15
1220.6  339169.60  167182.40  49.29
1224.3  337882.00  166999.61  49.43
1228.1  336337.80  166704.20  49.56
1231.9  334706.83  166259.48  49.67
1235.6  332957.78  165716.48  49.77
1239.4  331394.63  165241.00  49.86
1243.1  329964.89  164807.73  49.95
1246.9  328705.23  164385.97  50.01
1250.6  327677.87  164060.11  50.07
1254.3  326517.40  163612.54  50.11
1258.1  325256.52  163077.49  50.14
1261.8  323797.07  162416.71  50.16
1265.6  322703.00  161889.91  50.17
1269.3  322031.98  161543.48  50.16
1273.1  322417.58  161654.45  50.14
1276.8  322079.60  161288.54  50.08
1280.6  320803.03  160371.52  49.99
1284.3  318766.80  159014.40  49.88
1288.0  317573.31  158047.66  49.77
1291.8  317232.23  157408.82  49.62
1295.5  316600.53  156530.98  49.44
1299.2  315430.43  155275.94  49.23
1302.9  313758.72  153643.23  48.97
1306.7  311947.07  151815.07  48.67
1310.4  310200.57  149835.77  48.30
1314.1  308594.00  147799.49  47.89
1317.9  307177.92  145655.28  47.42
1321.6  305625.95  143297.93  46.89
1325.3  303921.45  140729.75  46.30
1329.0  302655.85  138247.94  45.68
1332.8  300746.60  135371.13  45.01
1336.5  299089.27  132585.91  44.33
1340.2  298965.33  130509.17  43.65
1343.9  298965.42  128515.49  42.99
1347.6  299189.25  126684.85  42.34
