/*** Spectra Vista SIG Data ***/
name= 35_20220721_BENI_47_avg.sig
comm= Averaged Ref/Tar of files: HR.072122.0027_moc.sig,HR.072122.0028_moc.sig,HR.072122.0029_moc.sig
data=
337.3  3341.42  317.60  9.50
338.8  3463.20  295.01  8.52
340.3  3623.07  287.35  7.93
341.8  3810.42  286.54  7.52
343.2  4025.60  272.32  6.76
344.7  4208.13  261.59  6.22
346.2  4357.33  255.99  5.88
347.7  4535.48  256.92  5.66
349.2  4737.60  257.04  5.43
350.6  4994.60  259.52  5.20
352.1  5287.30  252.46  4.77
353.6  5552.00  249.84  4.50
355.1  5814.55  255.93  4.40
356.6  6118.00  262.20  4.29
358.0  6358.73  250.95  3.95
359.5  6633.20  263.68  3.98
361.0  6962.55  263.34  3.78
362.5  7338.27  261.52  3.56
364.0  7684.90  275.28  3.58
365.4  8036.60  284.75  3.54
366.9  8398.00  290.98  3.46
368.4  8728.00  294.57  3.38
369.9  9062.38  302.68  3.34
371.3  9451.80  331.08  3.50
372.8  9858.90  343.38  3.48
374.3  10284.17  336.83  3.28
375.8  10690.17  344.96  3.23
377.2  11082.80  344.32  3.11
378.7  11495.27  351.49  3.06
380.2  11889.80  355.08  2.99
381.7  12359.43  371.14  3.00
383.1  12846.17  384.49  2.99
384.6  13343.63  395.63  2.96
386.1  13800.77  396.37  2.87
387.6  14229.60  406.05  2.85
389.0  14704.27  418.08  2.84
390.5  15186.60  431.88  2.84
392.0  15728.93  451.41  2.87
393.4  16290.50  462.44  2.84
394.9  16825.80  469.80  2.79
396.4  17336.25  483.00  2.79
397.9  17869.17  495.42  2.77
399.3  18402.83  513.25  2.79
400.8  18943.00  535.06  2.82
402.2  19574.53  559.74  2.86
403.7  20158.80  574.59  2.85
405.2  20755.08  590.30  2.84
406.6  21297.60  606.29  2.85
408.1  21876.80  632.80  2.89
409.6  22462.17  655.57  2.92
411.0  23100.70  677.51  2.93
412.5  23754.38  699.72  2.95
414.0  24395.67  728.07  2.98
415.4  25095.50  744.65  2.97
416.9  25738.55  773.57  3.01
418.4  26394.00  801.78  3.04
419.8  27081.60  827.49  3.06
421.3  27783.23  857.98  3.09
422.7  28559.20  888.56  3.11
424.2  29317.50  922.50  3.15
425.7  30057.20  949.75  3.16
427.1  30774.35  979.04  3.18
428.6  31537.33  1008.53  3.20
430.0  32251.93  1037.97  3.22
431.5  33103.65  1076.59  3.25
432.9  33958.70  1107.54  3.26
434.4  34828.85  1144.09  3.28
435.9  35625.33  1176.00  3.30
437.3  36437.50  1210.00  3.32
438.8  37240.75  1243.47  3.34
440.2  38071.37  1281.02  3.36
441.7  39011.87  1318.56  3.38
443.1  39891.33  1355.03  3.40
444.6  40828.33  1393.84  3.41
446.0  41736.25  1432.44  3.43
447.5  42652.50  1475.17  3.46
448.9  43550.40  1515.32  3.48
450.4  44513.47  1557.45  3.50
451.8  45352.67  1596.40  3.52
453.3  46241.92  1633.50  3.53
454.7  47227.98  1677.62  3.55
456.2  48077.28  1715.72  3.57
457.6  49002.45  1755.84  3.58
459.1  49950.98  1799.76  3.60
460.5  50842.83  1836.83  3.61
462.0  51872.88  1877.27  3.62
463.4  52863.73  1908.87  3.61
464.8  53825.75  1951.75  3.63
466.3  54800.35  1993.42  3.64
467.7  55755.77  2038.06  3.66
469.2  56778.55  2081.22  3.67
470.6  57717.40  2120.61  3.67
472.0  58711.52  2161.92  3.68
473.5  59673.42  2199.73  3.69
474.9  60657.50  2242.00  3.70
476.4  61785.60  2292.48  3.71
477.8  62823.67  2341.27  3.73
479.2  63819.33  2387.67  3.74
480.7  64886.60  2435.66  3.75
482.1  65978.70  2481.55  3.76
483.6  67134.70  2531.64  3.77
485.0  68177.25  2580.41  3.78
486.4  69325.90  2638.40  3.81
487.9  70385.25  2694.90  3.83
489.3  71514.42  2756.52  3.85
490.7  72554.98  2817.38  3.88
492.2  73754.80  2887.08  3.91
493.6  74822.43  2955.39  3.95
495.0  75894.00  3024.45  3.99
496.5  77033.97  3107.19  4.03
497.9  78090.57  3191.32  4.09
499.3  79225.43  3289.16  4.15
500.7  80438.27  3402.71  4.23
502.2  81536.13  3521.52  4.32
503.6  82733.33  3659.73  4.42
505.0  83768.70  3807.05  4.54
506.5  85035.05  3981.37  4.68
507.9  86202.43  4182.63  4.85
509.3  87537.07  4418.29  5.05
510.7  88764.00  4681.95  5.27
512.2  90111.70  4987.12  5.53
513.6  91524.30  5330.55  5.82
515.0  92879.77  5714.66  6.15
516.4  94197.60  6142.50  6.52
517.8  95748.67  6627.45  6.92
519.3  97023.67  7144.47  7.36
520.7  98509.23  7705.02  7.82
522.1  99762.87  8284.38  8.30
523.5  101080.80  8879.32  8.78
524.9  102476.70  9493.44  9.26
526.3  103817.47  10087.09  9.72
527.8  105256.80  10680.12  10.15
529.2  106356.20  11240.56  10.57
530.6  107825.90  11820.10  10.96
532.0  109452.00  12364.80  11.30
533.4  110781.05  12843.76  11.59
534.8  111768.88  13237.34  11.84
536.3  113391.00  13680.88  12.07
537.7  115290.00  14128.80  12.26
539.1  116660.23  14490.91  12.42
540.5  117849.00  14803.83  12.56
541.9  119531.95  15175.62  12.70
543.3  120819.85  15490.44  12.82
544.7  122078.80  15806.48  12.95
546.1  123807.02  16175.87  13.07
547.5  125029.33  16469.97  13.17
549.0  126749.33  16816.80  13.27
550.4  128180.00  17119.00  13.36
551.8  129660.98  17380.28  13.40
553.2  131140.02  17593.81  13.42
554.6  132440.53  17731.31  13.39
556.0  133901.40  17833.74  13.32
557.4  135443.35  17888.41  13.21
558.8  137013.30  17901.36  13.07
560.2  138395.58  17850.53  12.90
561.6  140000.80  17793.39  12.71
563.0  141517.25  17684.59  12.50
564.4  143029.87  17550.98  12.27
565.8  144500.00  17371.17  12.02
567.2  146157.00  17181.37  11.76
568.6  147610.00  16931.65  11.47
570.0  148989.28  16639.56  11.17
571.4  150648.33  16365.79  10.86
572.8  152330.92  16089.72  10.56
574.2  153873.07  15814.40  10.28
575.6  155362.50  15552.00  10.01
577.0  156821.40  15312.25  9.76
578.4  158468.92  15124.20  9.54
579.8  159915.60  14941.98  9.34
581.2  161563.85  14812.91  9.17
582.5  162926.40  14671.80  9.01
583.9  164397.60  14562.77  8.86
585.3  166115.25  14496.03  8.73
586.7  167524.28  14415.57  8.61
588.1  168957.83  14365.70  8.50
589.5  170528.17  14345.57  8.41
590.9  172087.20  14354.24  8.34
592.3  173834.23  14390.67  8.28
593.7  175219.20  14420.77  8.23
595.0  176788.35  14473.44  8.19
596.4  178183.37  14516.09  8.15
597.8  179589.48  14560.32  8.11
599.2  181086.40  14600.96  8.06
600.6  182765.70  14637.96  8.01
602.0  184003.05  14613.56  7.94
603.3  185725.33  14596.06  7.86
604.7  187320.15  14542.91  7.76
606.1  188756.40  14440.32  7.65
607.5  190336.18  14318.61  7.52
608.9  191941.73  14183.01  7.39
610.2  193271.40  14020.02  7.25
611.6  194791.35  13858.96  7.11
613.0  196279.17  13702.45  6.98
614.4  197608.40  13537.32  6.85
615.8  198997.50  13394.55  6.73
617.1  200468.80  13273.12  6.62
618.5  202029.87  13185.81  6.53
619.9  203477.50  13120.07  6.45
621.3  205030.05  13087.11  6.38
622.6  206546.00  13074.33  6.33
624.0  207926.10  13068.64  6.29
625.4  209323.95  13093.85  6.26
626.8  210857.62  13139.19  6.23
628.1  212136.47  13185.52  6.22
629.5  213943.67  13275.08  6.20
630.9  215491.65  13355.14  6.20
632.2  216838.65  13407.99  6.18
633.6  218400.83  13457.97  6.16
635.0  219873.33  13461.87  6.12
636.3  221336.20  13445.56  6.07
637.7  222654.83  13374.12  6.01
639.1  224245.00  13297.67  5.93
640.4  225662.62  13183.19  5.84
641.8  226817.18  13033.64  5.75
643.2  228340.70  12898.69  5.65
644.5  229658.00  12738.50  5.55
645.9  231289.20  12597.66  5.45
647.2  233121.93  12485.22  5.36
648.6  234940.50  12393.00  5.27
650.0  236318.40  12291.84  5.20
651.3  236695.25  12161.16  5.14
652.7  237522.57  12059.76  5.08
654.0  239427.13  11996.55  5.01
655.4  241005.05  11912.84  4.94
656.8  241497.73  11758.60  4.87
658.1  242799.20  11634.51  4.79
659.5  244953.80  11561.41  4.72
660.8  246585.00  11460.00  4.65
662.2  247445.33  11316.48  4.57
663.5  248966.00  11240.39  4.51
664.9  250289.87  11167.87  4.46
666.2  251052.40  11091.12  4.42
667.6  252659.47  11079.15  4.39
668.9  253796.68  11088.31  4.37
670.3  254821.42  11106.95  4.36
671.6  256384.50  11183.45  4.36
673.0  257520.25  11269.00  4.38
674.3  258702.60  11371.19  4.40
675.7  259984.63  11496.66  4.42
677.0  261099.03  11626.26  4.45
678.4  262420.53  11790.72  4.49
679.7  263477.73  11972.79  4.54
681.1  264723.40  12194.23  4.61
682.4  265818.80  12446.72  4.68
683.8  267056.40  12759.07  4.78
685.1  268007.50  13106.85  4.89
686.4  269315.60  13562.72  5.04
687.8  270589.67  14142.10  5.23
689.1  271598.33  14898.60  5.49
690.5  272893.50  15916.18  5.83
691.8  273700.55  17245.82  6.30
693.1  274940.80  18989.76  6.91
694.5  276109.17  21166.60  7.67
695.8  277277.00  23802.57  8.58
697.1  278429.67  26905.67  9.66
698.5  279482.40  30466.43  10.90
699.8  280535.10  34453.91  12.28
701.1  281653.73  38831.69  13.79
702.5  282401.17  43470.39  15.39
703.8  283320.00  48351.00  17.07
705.1  284453.65  53428.31  18.78
706.5  285490.08  58610.57  20.53
707.8  286452.50  63858.42  22.29
709.1  287307.87  69109.27  24.05
710.5  288424.12  74437.50  25.81
711.8  289260.73  79682.36  27.55
713.1  290241.93  84951.11  29.27
714.4  291133.93  90145.52  30.96
715.8  291951.60  95259.65  32.63
717.1  293232.00  100455.80  34.26
718.4  294141.87  105429.33  35.84
719.7  295231.60  110355.25  37.38
721.0  295755.00  114942.00  38.86
722.4  296517.47  119466.89  40.29
723.7  297454.90  123901.54  41.65
725.0  298500.45  128199.30  42.95
726.3  299418.35  132263.27  44.17
727.6  299966.15  135963.96  45.33
729.0  300867.70  139631.59  46.41
730.3  301642.85  143028.23  47.42
731.6  302539.63  146283.31  48.35
732.9  303319.80  149298.26  49.22
734.2  304139.92  152140.08  50.02
735.5  305134.93  154888.60  50.76
736.8  305919.60  157352.20  51.44
738.1  306732.60  159671.12  52.06
739.5  307651.05  161898.36  52.62
740.8  308336.05  163845.44  53.14
742.1  309092.90  165698.50  53.61
743.4  309850.00  167426.67  54.03
744.7  310844.12  169155.86  54.42
746.0  311720.50  170717.04  54.77
747.3  312272.85  171987.45  55.08
748.6  312999.83  173259.73  55.35
749.9  313768.00  174453.07  55.60
751.2  314532.20  175564.13  55.82
752.5  315438.73  176686.83  56.01
753.8  316063.77  177591.61  56.19
755.1  316749.33  178481.33  56.35
756.4  317327.92  179241.35  56.48
757.7  318306.22  180164.34  56.60
759.0  320049.90  181487.49  56.71
760.3  321235.20  182434.56  56.79
761.6  322782.13  183564.83  56.87
762.9  323318.33  184086.37  56.94
764.2  323696.67  184498.13  57.00
765.5  324011.73  184832.98  57.05
766.8  324477.87  185224.75  57.08
768.1  325018.80  185658.75  57.12
769.3  325624.83  186102.93  57.15
770.6  326325.57  186575.57  57.17
771.9  327036.62  187078.24  57.20
773.2  327452.00  187371.84  57.22
774.5  328061.07  187791.41  57.24
775.8  328774.60  188248.17  57.26
777.1  329375.57  188623.82  57.27
778.4  329736.55  188873.19  57.28
779.6  330522.18  189360.14  57.29
780.9  331000.00  189672.00  57.30
782.2  331479.50  189982.10  57.31
783.5  331819.67  190210.20  57.32
784.8  332375.70  190551.93  57.33
786.0  332785.83  190808.29  57.34
787.3  333194.35  191070.04  57.34
788.6  333632.08  191357.36  57.36
789.9  334107.20  191650.11  57.36
791.2  334784.13  192049.17  57.37
792.4  335487.65  192464.08  57.37
793.7  335959.47  192758.08  57.38
795.0  336581.30  193136.24  57.38
796.2  337253.15  193530.97  57.38
797.5  338013.15  193964.59  57.38
798.8  338676.63  194376.25  57.39
800.0  339388.17  194795.01  57.40
801.3  339869.47  195079.59  57.40
802.6  340441.80  195433.74  57.41
803.8  341117.80  195823.03  57.41
805.1  341609.92  196131.60  57.41
806.4  342138.00  196428.36  57.41
807.7  342658.35  196750.89  57.42
808.9  343253.37  197092.19  57.42
810.2  343794.97  197396.69  57.42
811.4  344298.60  197719.73  57.43
812.7  344933.33  198092.92  57.43
814.0  345769.73  198589.90  57.43
815.2  346413.67  198947.10  57.43
816.5  346824.10  199205.44  57.44
817.7  347342.10  199498.17  57.44
819.0  347831.73  199806.27  57.44
820.2  348040.00  199912.53  57.44
821.5  348746.27  200335.62  57.44
822.7  349130.62  200556.18  57.44
824.0  349452.00  200742.12  57.44
825.2  349964.55  201042.54  57.45
826.5  350307.75  201227.61  57.44
827.7  350838.63  201538.51  57.44
829.0  351274.77  201779.97  57.44
830.2  351589.50  201953.80  57.44
831.5  352086.43  202218.17  57.43
832.7  352401.00  202403.11  57.44
834.0  352764.50  202589.58  57.43
835.2  353143.08  202795.52  57.43
836.4  353425.97  202993.19  57.44
837.7  353853.73  203213.87  57.43
838.9  354279.12  203498.45  57.44
840.1  354638.25  203729.31  57.45
841.4  355131.87  203990.29  57.44
842.6  355470.00  204211.25  57.45
843.8  355819.20  204412.43  57.45
845.1  356337.40  204702.11  57.45
846.3  356713.53  204949.01  57.45
847.5  357077.00  205200.52  57.47
848.8  357533.60  205456.16  57.46
850.0  357856.80  205667.42  57.47
851.2  358407.90  205967.16  57.47
852.5  358794.00  206197.24  57.47
853.7  359223.00  206485.80  57.48
854.9  359672.13  206743.17  57.48
856.1  360146.37  207009.40  57.48
857.4  360376.83  207128.51  57.48
858.6  360824.40  207387.07  57.48
859.8  361212.50  207597.75  57.47
861.0  361670.40  207876.24  57.48
862.2  362150.82  208136.03  57.47
863.5  362476.83  208349.96  57.48
864.7  363000.00  208662.08  57.48
865.9  363427.87  208906.19  57.48
867.1  363730.47  209063.45  57.48
868.3  364170.20  209300.56  57.47
869.5  364633.00  209580.76  57.48
870.8  365211.00  209895.60  57.47
872.0  365695.70  210169.35  57.47
873.2  366106.70  210411.06  57.47
874.4  366549.30  210642.12  57.47
875.6  366965.00  210840.01  57.46
876.8  367441.40  211130.95  57.46
878.0  367914.90  211386.41  57.46
879.2  368398.60  211650.12  57.45
880.4  368953.50  211939.20  57.44
881.6  369479.98  212204.31  57.43
882.8  369906.13  212436.37  57.43
884.0  370541.00  212778.26  57.42
885.2  371029.47  213052.53  57.42
886.5  371689.17  213370.31  57.41
887.7  372163.35  213623.32  57.40
888.8  372827.95  213960.77  57.39
890.0  373374.73  214286.77  57.39
891.2  373987.93  214622.97  57.39
892.4  374651.90  214959.22  57.38
893.6  375251.13  215245.90  57.36
894.8  376207.17  215714.70  57.34
896.0  377083.83  216192.97  57.33
897.2  377812.50  216639.37  57.34
898.4  378578.20  217066.96  57.34
899.6  379213.00  217361.90  57.32
900.8  379670.57  217569.09  57.30
902.0  379957.70  217693.16  57.29
903.2  380343.95  217860.32  57.28
904.3  380725.80  218027.36  57.27
905.5  381450.82  218378.54  57.25
906.7  382041.00  218737.20  57.25
907.9  382605.07  219015.30  57.24
909.1  382944.15  219163.32  57.23
910.2  383223.30  219244.15  57.21
911.4  383520.15  219398.79  57.21
912.6  383773.87  219486.89  57.19
913.8  384051.25  219619.81  57.19
915.0  384512.80  219845.36  57.18
916.2  384813.00  219953.50  57.16
917.3  384911.10  219966.33  57.15
918.5  385182.73  220111.85  57.14
919.7  385441.50  220197.16  57.13
920.8  385595.13  220200.72  57.11
922.0  385834.17  220235.40  57.08
923.2  386113.00  220311.00  57.06
924.4  386435.25  220440.60  57.04
925.5  386760.33  220551.60  57.03
926.7  387544.75  220833.12  56.98
927.9  388395.60  221218.72  56.96
929.0  389751.30  221902.20  56.93
930.2  391861.07  222988.56  56.91
931.4  394299.00  224239.68  56.87
932.5  397010.80  225703.35  56.85
933.7  398418.72  226368.96  56.82
934.9  399183.75  226668.17  56.78
936.0  398933.17  226317.43  56.73
937.2  396969.70  225100.24  56.70
938.3  395365.47  224092.43  56.68
939.5  394123.20  223163.52  56.62
940.7  394338.60  223240.80  56.61
941.8  395992.70  223912.47  56.54
943.0  397457.00  224540.50  56.49
944.2  398420.53  224829.97  56.43
945.3  398040.50  224448.90  56.39
946.5  397317.60  223929.00  56.36
947.6  397545.93  223830.95  56.30
948.8  397621.90  223568.54  56.23
949.9  397826.80  223404.16  56.16
951.1  397707.92  222930.33  56.05
952.2  397528.00  222604.80  56.00
953.4  397229.17  222199.63  55.94
954.5  397332.00  221860.08  55.84
955.7  397412.40  221539.92  55.75
956.8  397304.33  221124.92  55.66
958.0  397075.67  220732.13  55.59
959.1  396975.03  220427.99  55.53
960.3  396783.53  220070.74  55.46
961.4  396858.60  219914.08  55.41
962.6  397026.00  219802.80  55.36
963.7  396935.85  219582.23  55.32
964.9  396954.20  219429.32  55.28
966.0  396906.75  219353.13  55.27
967.2  397281.60  219314.94  55.20
968.3  397075.50  219178.44  55.20
969.5  396996.50  219037.69  55.17
970.6  397093.12  219084.53  55.17
971.8  397237.17  219219.02  55.19
972.9  397150.20  219140.32  55.18
974.0  397815.27  219135.16  55.08
975.2  397751.75  218956.77  55.05
976.3  397723.73  218891.46  55.04
977.5  397840.10  219089.38  55.07
978.6  397699.40  219094.76  55.09
979.7  398108.90  219271.36  55.08
980.9  398317.08  219209.67  55.03
982.0  398358.50  219241.16  55.04
983.2  398180.88  219152.76  55.04
984.3  398061.60  219042.64  55.03
985.4  398059.60  219164.21  55.06
986.6  398362.42  219037.92  54.98
987.7  399596.52  219669.38  54.97
988.9  399392.40  219688.80  55.01
990.0  400720.13  220056.48  54.92
993.1  344984.27  188964.92  54.77
996.9  345723.78  189858.07  54.92
1000.7  346820.83  190926.62  55.05
1004.5  347457.83  191662.93  55.16
1008.4  347237.54  191991.82  55.29
1012.2  347347.54  192427.72  55.40
1016.0  347509.20  192875.73  55.50
1019.8  347816.70  193348.28  55.59
1023.7  347963.03  193696.42  55.67
1027.5  347781.27  193841.77  55.74
1031.3  347986.85  194210.85  55.81
1035.1  347892.53  194365.66  55.87
1038.9  347856.67  194515.32  55.92
1042.7  347701.17  194572.04  55.96
1046.5  347593.00  194629.78  55.99
1050.3  347631.44  194728.50  56.02
1054.2  347317.83  194644.46  56.04
1058.0  346860.09  194432.38  56.05
1061.8  346733.66  194379.32  56.06
1065.6  346524.60  194255.60  56.06
1069.4  346514.60  194230.89  56.05
1073.2  346172.07  193978.68  56.04
1077.0  345767.90  193667.92  56.01
1080.8  345281.25  193272.92  55.98
1084.6  344258.48  192567.46  55.94
1088.4  343634.60  192083.85  55.90
1092.2  342868.50  191490.00  55.85
1096.0  342337.36  191012.44  55.80
1099.8  341934.02  190559.39  55.73
1103.6  341299.03  189990.35  55.67
1107.4  340400.44  189262.49  55.60
1111.2  340128.30  188833.98  55.52
1114.9  339418.33  188145.35  55.43
1118.7  338760.68  187404.80  55.32
1122.5  338036.40  186514.37  55.18
1126.3  336961.33  185305.04  54.99
1130.1  336493.75  184161.05  54.73
1133.9  335068.30  182215.13  54.38
1137.7  333765.90  180042.78  53.94
1141.4  332155.09  177460.14  53.43
1145.2  331496.69  175257.98  52.87
1149.0  330448.13  172941.16  52.34
1152.8  328970.00  170633.41  51.87
1156.6  327468.17  168700.15  51.52
1160.3  325896.33  167083.48  51.27
1164.1  323636.17  165438.27  51.12
1167.9  321976.04  164274.31  51.02
1171.7  320803.88  163479.75  50.96
1175.4  319747.83  162793.97  50.91
1179.2  318837.68  162163.47  50.86
1183.0  318624.33  161853.70  50.80
1186.7  318079.30  161400.24  50.74
1190.5  317031.60  160726.13  50.70
1194.3  315925.20  160076.55  50.67
1198.0  314802.40  159485.88  50.66
1201.8  313502.95  158826.28  50.66
1205.6  312331.67  158333.41  50.69
1209.3  311425.75  158045.42  50.75
1213.1  310451.03  157798.82  50.83
1216.8  309459.15  157591.44  50.92
1220.6  308431.20  157394.84  51.03
1224.3  307275.00  157118.61  51.13
1228.1  306112.60  156859.78  51.24
1231.9  304989.78  156554.61  51.33
1235.6  303647.25  156109.45  51.41
1239.4  302414.13  155709.14  51.49
1243.1  301292.28  155295.14  51.54
1246.9  300162.50  154847.46  51.59
1250.6  299289.40  154477.73  51.61
1254.3  298316.88  154035.44  51.63
1258.1  297404.57  153597.76  51.65
1261.8  296252.13  152992.47  51.64
1265.6  294917.55  152259.61  51.63
1269.3  293547.20  151467.47  51.60
1273.1  293452.64  151294.54  51.56
1276.8  293724.00  151259.02  51.50
1280.6  293601.63  150987.96  51.43
1284.3  292362.80  150074.58  51.33
1288.0  291001.94  149033.53  51.21
1291.8  289800.06  148008.50  51.07
1295.5  288512.40  146885.04  50.91
1299.2  287288.59  145720.33  50.72
1302.9  285913.45  144390.96  50.50
1306.7  284436.02  142922.29  50.25
1310.4  283051.08  141359.47  49.94
1314.1  281751.80  139736.34  49.60
1317.9  280608.96  138047.73  49.20
1321.6  279313.98  136147.72  48.74
1325.3  277795.35  134010.45  48.24
1329.0  276536.63  131912.15  47.70
1332.8  274597.40  129387.38  47.12
1336.5  272845.87  126927.07  46.52
1340.2  272408.50  125084.56  45.92
1343.9  271788.13  123173.98  45.32
