/*** Spectra Vista SIG Data ***/
name= 14_20221020_QUPA_38_avg.sig
comm= Averaged Ref/Tar of files: HR.102022.0040_moc.sig,HR.102022.0041_moc.sig,HR.102022.0042_moc.sig
data=
337.3  3076.75  197.55  6.42
338.8  3174.60  196.07  6.18
340.3  3373.20  182.05  5.40
341.8  3520.83  199.45  5.66
343.2  3729.60  197.90  5.31
344.7  3838.50  191.72  4.99
346.2  4044.15  179.74  4.44
347.7  4207.78  176.78  4.20
349.2  4384.80  162.72  3.71
350.6  4664.08  161.59  3.46
352.1  4930.05  172.16  3.49
353.6  5205.00  170.53  3.28
355.1  5489.03  169.98  3.10
356.6  5768.40  170.43  2.95
358.0  6029.10  174.39  2.89
359.5  6303.60  181.87  2.89
361.0  6613.43  184.11  2.78
362.5  6938.18  188.48  2.72
364.0  7283.45  203.18  2.79
365.4  7615.10  203.39  2.67
366.9  7956.00  199.95  2.51
368.4  8318.88  206.25  2.48
369.9  8675.03  220.32  2.54
371.3  9078.00  230.38  2.54
372.8  9531.45  246.28  2.58
374.3  9943.75  247.76  2.49
375.8  10294.90  248.45  2.41
377.2  10706.20  247.99  2.32
378.7  11109.70  250.55  2.26
380.2  11513.20  253.12  2.20
381.7  12026.13  259.44  2.16
383.1  12477.85  262.31  2.10
384.6  12948.00  271.29  2.10
386.1  13377.38  277.97  2.08
387.6  13825.35  282.33  2.04
389.0  14284.40  289.44  2.03
390.5  14761.80  296.85  2.01
392.0  15288.10  299.26  1.96
393.4  15843.83  310.80  1.96
394.9  16364.70  320.66  1.96
396.4  16896.38  329.72  1.95
397.9  17399.38  334.83  1.92
399.3  17930.10  343.94  1.92
400.8  18494.35  348.00  1.88
402.2  19124.45  359.60  1.88
403.7  19693.35  367.32  1.87
405.2  20265.80  378.80  1.87
406.6  20833.60  393.74  1.89
408.1  21402.20  402.49  1.88
409.6  21971.95  412.24  1.88
411.0  22652.35  423.75  1.87
412.5  23282.35  431.57  1.85
414.0  23899.88  445.92  1.87
415.4  24585.38  458.07  1.86
416.9  25230.98  471.05  1.87
418.4  25902.23  489.46  1.89
419.8  26608.40  500.59  1.88
421.3  27307.90  515.06  1.89
422.7  28066.20  534.93  1.91
424.2  28839.38  550.29  1.91
425.7  29568.20  571.59  1.93
427.1  30304.88  588.09  1.94
428.6  31108.50  607.60  1.95
430.0  31821.98  623.76  1.96
431.5  32670.83  648.17  1.98
432.9  33519.20  666.92  1.99
434.4  34394.33  691.42  2.01
435.9  35224.00  714.67  2.03
437.3  36052.50  732.55  2.03
438.8  36869.70  754.77  2.05
440.2  37730.00  774.88  2.05
441.7  38672.40  796.85  2.06
443.1  39551.25  823.52  2.08
444.6  40505.20  850.13  2.10
446.0  41429.18  869.70  2.10
447.5  42381.08  896.38  2.12
448.9  43305.30  916.27  2.12
450.4  44289.00  945.72  2.14
451.8  45149.00  972.15  2.15
453.3  46050.15  995.44  2.16
454.7  47047.93  1025.64  2.18
456.2  47887.73  1045.40  2.18
457.6  48852.00  1069.84  2.19
459.1  49808.85  1094.17  2.20
460.5  50744.75  1118.40  2.20
462.0  51800.75  1144.86  2.21
463.4  52827.20  1170.37  2.22
464.8  53807.25  1189.81  2.21
466.3  54753.60  1216.30  2.22
467.7  55708.85  1244.76  2.23
469.2  56764.48  1271.04  2.24
470.6  57745.50  1293.67  2.24
472.0  58791.28  1319.56  2.24
473.5  59791.13  1343.89  2.25
474.9  60819.00  1369.09  2.25
476.4  61963.20  1396.12  2.25
477.8  62988.00  1428.73  2.27
479.2  63988.50  1453.04  2.27
480.7  65065.13  1476.73  2.27
482.1  66209.90  1505.00  2.27
483.6  67380.35  1535.83  2.28
485.0  68452.28  1569.36  2.29
486.4  69607.20  1606.60  2.31
487.9  70668.00  1641.34  2.32
489.3  71813.83  1680.61  2.34
490.7  72859.30  1715.67  2.35
492.2  74073.30  1765.96  2.38
493.6  75154.50  1811.58  2.41
495.0  76254.75  1862.81  2.44
496.5  77425.30  1918.09  2.48
497.9  78511.25  1977.35  2.52
499.3  79670.58  2045.56  2.57
500.7  80911.95  2123.00  2.62
502.2  82052.00  2214.75  2.70
503.6  83307.60  2314.31  2.78
505.0  84384.00  2421.85  2.87
506.5  85680.23  2553.96  2.98
507.9  86830.03  2693.92  3.10
509.3  88148.80  2862.18  3.25
510.7  89373.38  3048.69  3.41
512.2  90743.78  3269.14  3.60
513.6  92213.10  3522.99  3.82
515.0  93628.95  3802.82  4.06
516.4  95000.85  4103.73  4.32
517.8  96615.00  4449.78  4.61
519.3  97947.93  4810.43  4.91
520.7  99502.10  5209.20  5.24
522.1  100773.73  5615.29  5.57
523.5  102095.50  6036.83  5.91
524.9  103536.90  6468.28  6.25
526.3  104927.20  6892.10  6.57
527.8  106385.40  7323.17  6.88
529.2  107473.70  7735.51  7.20
530.6  109039.70  8171.27  7.49
532.0  110698.00  8596.53  7.77
533.4  111993.75  8976.57  8.02
534.8  112875.38  9304.61  8.24
536.3  114423.00  9669.10  8.45
537.7  116323.20  10043.52  8.63
539.1  117716.08  10375.07  8.81
540.5  118885.30  10677.68  8.98
541.9  120611.33  11026.56  9.14
543.3  121896.33  11332.48  9.30
544.7  123199.80  11640.38  9.45
546.1  124994.65  11989.73  9.59
547.5  126212.80  12280.53  9.73
549.0  127842.00  12604.74  9.86
550.4  129316.88  12898.75  9.97
551.8  130857.33  13178.50  10.07
553.2  132330.68  13437.93  10.15
554.6  133650.40  13645.79  10.21
556.0  135139.95  13841.99  10.24
557.4  136723.65  14019.19  10.25
558.8  138348.45  14175.36  10.25
560.2  139782.38  14283.31  10.22
561.6  141425.55  14381.93  10.17
563.0  142983.75  14444.73  10.10
564.4  144566.65  14484.85  10.02
565.8  146061.88  14493.51  9.92
567.2  147791.00  14495.30  9.81
568.6  149259.38  14446.56  9.68
570.0  150664.80  14350.28  9.52
571.4  152346.35  14252.60  9.36
572.8  154070.13  14145.49  9.18
574.2  155668.80  14028.37  9.01
575.6  157196.25  13915.29  8.85
577.0  158708.50  13814.41  8.70
578.4  160398.88  13740.35  8.57
579.8  161900.78  13667.27  8.44
581.2  163577.90  13621.02  8.33
582.5  164970.00  13567.99  8.22
583.9  166474.40  13533.81  8.13
585.3  168237.90  13536.12  8.05
586.7  169708.83  13520.91  7.97
588.1  171156.50  13516.03  7.90
589.5  172774.00  13544.30  7.84
590.9  174368.80  13585.20  7.79
592.3  176151.80  13661.57  7.76
593.7  177589.43  13716.52  7.72
595.0  179165.25  13794.08  7.70
596.4  180600.70  13858.47  7.67
597.8  182056.30  13925.00  7.65
599.2  183559.20  13984.21  7.62
600.6  185284.13  14038.71  7.58
602.0  186553.80  14034.88  7.52
603.3  188317.90  14034.70  7.45
604.7  189959.43  13996.43  7.37
606.1  191419.80  13911.98  7.27
607.5  193028.35  13803.79  7.15
608.9  194704.90  13673.73  7.02
610.2  196054.43  13502.16  6.89
611.6  197627.70  13331.80  6.75
613.0  199164.35  13151.70  6.60
614.4  200528.10  12973.33  6.47
615.8  201956.63  12806.76  6.34
617.1  203477.40  12657.12  6.22
618.5  205068.80  12536.87  6.11
619.9  206576.93  12436.08  6.02
621.3  208170.68  12375.57  5.94
622.6  209733.25  12342.33  5.88
624.0  211170.60  12329.10  5.84
625.4  212631.38  12339.06  5.80
626.8  214159.40  12384.80  5.78
628.1  215419.33  12427.73  5.77
629.5  217171.55  12509.58  5.76
630.9  218645.35  12578.37  5.75
632.2  219911.13  12623.58  5.74
633.6  221409.13  12649.99  5.71
635.0  222826.00  12626.11  5.67
636.3  224294.50  12550.57  5.60
637.7  225649.13  12406.41  5.50
639.1  227255.00  12208.00  5.37
640.4  228714.50  11957.39  5.23
641.8  229906.85  11644.99  5.07
643.2  231422.98  11339.27  4.90
644.5  232760.50  11011.53  4.73
645.9  234315.00  10692.57  4.56
647.2  235251.98  10385.16  4.41
648.6  236702.25  10149.68  4.29
650.0  237988.80  9935.59  4.17
651.3  239046.23  9751.71  4.08
652.7  241287.40  9610.31  3.98
654.0  243404.10  9473.62  3.89
655.4  244762.93  9309.99  3.80
656.8  244933.00  9096.00  3.71
658.1  246295.00  8898.40  3.61
659.5  248460.45  8689.44  3.50
660.8  249750.00  8443.29  3.38
662.2  250745.60  8197.12  3.27
663.5  252222.05  7978.64  3.16
664.9  253199.70  7777.51  3.07
666.2  253968.00  7599.17  2.99
667.6  255643.58  7492.27  2.93
668.9  256559.75  7402.79  2.89
670.3  258453.63  7364.57  2.85
671.6  259437.75  7345.50  2.83
673.0  260610.38  7362.78  2.83
674.3  261862.90  7403.71  2.83
675.7  263156.08  7472.70  2.84
677.0  264255.95  7557.72  2.86
678.4  265555.43  7678.96  2.89
679.7  266612.63  7829.99  2.94
681.1  267880.13  8036.14  3.00
682.4  268979.10  8283.92  3.08
683.8  270172.50  8616.47  3.19
685.1  271164.00  9061.56  3.34
686.4  272482.80  9682.58  3.55
687.8  273697.25  10527.85  3.85
689.1  274809.75  11673.41  4.25
690.5  276134.25  13209.06  4.78
691.8  276936.95  15212.36  5.49
693.1  278300.55  17792.11  6.39
694.5  279461.00  20911.37  7.48
695.8  280735.00  24545.73  8.74
697.1  281895.25  28635.10  10.16
698.5  282932.80  33098.33  11.70
699.8  284004.38  37855.59  13.33
701.1  285138.13  42830.27  15.02
702.5  285934.00  47846.81  16.73
703.8  286875.00  52894.71  18.44
705.1  288026.70  57922.71  20.11
706.5  289062.63  62834.12  21.74
707.8  290013.60  67605.13  23.31
709.1  290827.78  72190.97  24.82
710.5  291944.03  76704.45  26.27
711.8  292776.70  80995.30  27.66
713.1  293735.60  85194.49  29.00
714.4  294649.90  89221.24  30.28
715.8  295475.00  93087.00  31.50
717.1  296763.30  96952.17  32.67
718.4  297718.40  100560.21  33.78
719.7  298760.18  104075.95  34.84
721.0  299295.00  107265.43  35.84
722.4  300050.30  110377.31  36.79
723.7  300995.85  113407.90  37.68
725.0  301992.53  116308.71  38.51
726.3  302933.40  119038.68  39.30
727.6  303458.38  121469.43  40.03
729.0  304352.30  123891.50  40.71
730.3  305127.30  126125.25  41.34
731.6  305996.70  128257.17  41.91
732.9  306764.50  130220.30  42.45
734.2  307544.88  132077.65  42.95
735.5  308553.90  133901.61  43.40
736.8  309332.40  135519.76  43.81
738.1  310150.30  137064.91  44.19
739.5  311083.90  138553.14  44.54
740.8  311762.55  139838.03  44.85
742.1  312462.30  141057.05  45.14
743.4  313100.00  142178.57  45.41
744.7  313957.43  143349.33  45.66
746.0  314821.65  144434.64  45.88
747.3  315386.90  145331.08  46.08
748.6  316107.00  146232.53  46.26
749.9  316784.00  147052.04  46.42
751.2  317382.55  147795.32  46.57
752.5  318140.90  148573.84  46.70
753.8  318610.43  149193.70  46.83
755.1  319254.00  149831.81  46.93
756.4  319804.20  150400.20  47.03
757.7  320774.65  151137.16  47.12
759.0  322515.05  152188.42  47.19
760.3  323637.60  152923.38  47.25
761.6  325158.40  153825.01  47.31
762.9  325627.75  154235.91  47.37
764.2  326001.10  154557.15  47.41
765.5  326245.80  154816.70  47.45
766.8  326590.40  155130.67  47.50
768.1  327073.80  155473.34  47.53
769.3  327597.20  155838.56  47.57
770.6  328216.85  156229.85  47.60
771.9  328858.60  156635.83  47.63
773.2  329184.40  156871.86  47.65
774.5  329758.00  157209.02  47.67
775.8  330361.35  157568.26  47.70
777.1  330852.50  157873.07  47.72
778.4  331119.53  158057.09  47.73
779.6  331820.18  158461.43  47.76
780.9  332250.00  158717.71  47.77
782.2  332659.25  158966.34  47.79
783.5  332907.50  159136.22  47.80
784.8  333341.55  159392.85  47.82
786.0  333678.80  159604.89  47.83
787.3  334012.70  159802.47  47.84
788.6  334385.28  160021.55  47.86
789.9  334783.40  160253.57  47.87
791.2  335327.05  160563.11  47.88
792.4  335949.30  160896.02  47.89
793.7  336371.40  161131.78  47.90
795.0  336897.00  161443.18  47.92
796.2  337492.73  161761.04  47.93
797.5  338082.60  162085.05  47.94
798.8  338688.38  162402.01  47.95
800.0  339269.25  162720.81  47.96
801.3  339664.90  162937.52  47.97
802.6  340160.63  163224.01  47.98
803.8  340783.23  163531.05  47.99
805.1  341183.50  163761.20  48.00
806.4  341566.50  163988.21  48.01
807.7  342081.23  164256.01  48.02
808.9  342565.25  164530.74  48.03
810.2  343017.15  164768.31  48.04
811.4  343456.50  165005.77  48.04
812.7  344012.50  165305.06  48.05
814.0  344795.85  165702.03  48.06
815.2  345356.00  166029.81  48.07
816.5  345767.23  166240.60  48.08
817.7  346228.00  166471.84  48.08
819.0  346644.10  166736.27  48.10
820.2  346808.00  166827.89  48.10
821.5  347466.30  167173.00  48.11
822.7  347802.55  167364.00  48.12
824.0  348059.70  167534.13  48.13
825.2  348474.15  167767.58  48.14
826.5  348842.23  167937.91  48.14
827.7  349381.88  168220.14  48.15
829.0  349748.05  168423.30  48.16
830.2  350056.55  168566.10  48.15
831.5  350548.50  168832.60  48.16
832.7  350822.33  169000.19  48.17
834.0  351212.75  169185.09  48.17
835.2  351549.83  169383.62  48.18
836.4  351843.25  169537.16  48.19
837.7  352245.80  169761.63  48.19
838.9  352700.30  170012.85  48.20
840.1  353069.55  170231.70  48.21
841.4  353462.80  170469.15  48.23
842.6  353909.40  170672.94  48.23
843.8  354295.60  170886.53  48.23
845.1  354853.65  171162.01  48.23
846.3  355191.00  171385.74  48.25
847.5  355534.20  171601.12  48.27
848.8  355968.00  171845.20  48.28
850.0  356415.85  172071.51  48.28
851.2  356969.70  172354.37  48.28
852.5  357379.40  172561.60  48.29
853.7  357896.25  172836.69  48.29
854.9  358328.10  173071.20  48.30
856.1  358785.05  173311.23  48.31
857.4  358997.73  173453.72  48.32
858.6  359520.05  173752.50  48.33
859.8  359986.88  173947.57  48.32
861.0  360406.80  174161.52  48.32
862.2  360847.78  174401.80  48.33
863.5  361279.75  174614.10  48.33
864.7  361838.40  174866.43  48.33
865.9  362155.60  175082.07  48.34
867.1  362519.35  175248.23  48.34
868.3  363022.50  175462.66  48.33
869.5  363498.25  175721.26  48.34
870.8  363987.00  175986.43  48.35
872.0  364510.05  176246.50  48.35
873.2  364960.50  176456.75  48.35
874.4  365417.33  176690.39  48.35
875.6  365848.15  176868.01  48.34
876.8  366312.30  177147.34  48.36
878.0  366853.45  177376.46  48.35
879.2  367296.60  177606.19  48.35
880.4  367782.75  177840.91  48.35
881.6  368239.55  178053.73  48.35
882.8  368764.80  178232.24  48.33
884.0  369328.95  178524.25  48.34
885.2  369830.90  178750.97  48.33
886.5  370415.65  179023.44  48.33
887.7  370812.98  179213.20  48.33
888.8  371489.25  179493.59  48.32
890.0  372018.80  179754.50  48.32
891.2  372457.50  180012.87  48.33
892.4  373068.15  180285.05  48.32
893.6  373548.95  180526.86  48.33
894.8  374480.25  180911.97  48.31
896.0  375264.25  181300.45  48.31
897.2  376099.75  181626.34  48.29
898.4  376770.90  181953.70  48.29
899.6  377274.00  182208.62  48.30
900.8  377632.35  182367.18  48.29
902.0  377747.40  182442.44  48.30
903.2  377992.58  182508.04  48.28
904.3  378303.60  182615.01  48.27
905.5  378917.25  182863.90  48.26
906.7  379430.50  183124.14  48.26
907.9  379995.00  183336.35  48.25
909.1  380102.63  183434.62  48.26
910.2  380262.68  183479.80  48.25
911.4  380522.03  183519.51  48.23
912.6  380573.05  183577.54  48.24
913.8  380642.03  183633.42  48.24
915.0  381097.50  183764.56  48.22
916.2  381264.00  183792.33  48.21
917.3  381185.33  183721.70  48.20
918.5  381323.10  183755.72  48.19
919.7  381495.00  183821.71  48.18
920.8  381382.68  183784.81  48.19
922.0  381342.50  183750.23  48.19
923.2  381517.50  183770.60  48.17
924.4  381776.63  183806.81  48.15
925.5  381896.60  183809.04  48.13
926.7  382419.25  183953.93  48.10
927.9  383190.00  184234.17  48.08
929.0  384650.10  184823.20  48.05
930.2  386507.50  185780.92  48.07
931.4  388885.05  186829.43  48.04
932.5  391375.00  187952.44  48.02
933.7  392736.13  188464.78  47.99
934.9  393356.25  188622.92  47.95
936.0  392915.25  188215.42  47.90
937.2  390792.90  187059.34  47.87
938.3  388790.90  186100.03  47.87
939.5  387298.80  185230.49  47.83
940.7  387290.70  185173.96  47.81
941.8  388917.23  185726.63  47.75
943.0  390406.50  186204.90  47.70
944.2  391053.65  186393.46  47.66
945.3  390321.75  185948.66  47.64
946.5  389373.75  185408.92  47.62
947.6  389409.40  185222.37  47.56
948.8  389214.15  184926.15  47.51
949.9  389470.20  184713.76  47.43
951.1  388817.98  184219.45  47.38
952.2  388620.00  183809.83  47.30
953.4  388179.25  183359.01  47.24
954.5  387925.20  183041.49  47.18
955.7  387702.00  182596.32  47.10
956.8  387426.20  182156.10  47.02
958.0  386960.50  181684.85  46.95
959.1  386666.93  181332.42  46.90
960.3  386358.00  180953.09  46.84
961.4  386069.30  180585.63  46.78
962.6  385997.50  180520.33  46.77
963.7  385896.23  180213.41  46.70
964.9  385323.38  180001.66  46.71
966.0  385248.15  179821.66  46.68
967.2  385130.70  179702.50  46.66
968.3  384502.95  179494.15  46.68
969.5  384415.63  179322.07  46.65
970.6  384581.70  179273.48  46.62
971.8  384761.13  179267.17  46.59
972.9  384661.20  179127.94  46.57
974.0  384887.90  179251.21  46.57
975.2  384789.00  179210.83  46.57
976.3  384338.80  179160.07  46.62
977.5  384225.80  179110.88  46.62
978.6  384496.10  178993.31  46.55
979.7  384800.85  179120.69  46.55
980.9  384639.03  179064.47  46.55
982.0  384439.95  179062.49  46.58
983.2  384215.60  178872.41  46.56
984.3  383379.00  178780.72  46.63
985.4  383595.23  178708.04  46.59
986.6  383214.00  178493.97  46.58
987.7  384160.53  178896.00  46.57
988.9  383995.80  178731.87  46.55
990.0  383497.90  179083.50  46.70
993.1  389287.68  180050.28  46.25
996.9  387734.73  179948.99  46.41
1000.7  387493.46  180413.90  46.56
1004.5  387535.83  180933.23  46.69
1008.4  387141.54  181281.80  46.83
1012.2  386975.25  181706.66  46.96
1016.0  386535.00  181998.73  47.08
1019.8  385735.35  182088.32  47.21
1023.7  384349.08  181824.90  47.31
1027.5  382480.45  181308.23  47.40
1031.3  381282.10  181031.14  47.48
1035.1  380069.90  180735.63  47.55
1038.9  379524.75  180701.07  47.61
1042.7  379242.58  180762.02  47.66
1046.5  379116.33  180863.98  47.71
1050.3  379139.78  181005.37  47.74
1054.2  378821.92  180978.31  47.77
1058.0  378437.03  180887.82  47.80
1061.8  378404.86  180972.10  47.82
1065.6  377699.20  180684.35  47.84
1069.4  376815.80  180300.53  47.85
1073.2  375444.84  179635.35  47.85
1077.0  374742.03  179268.79  47.84
1080.8  375036.46  179311.39  47.81
1084.6  375291.00  179325.84  47.78
1088.4  375708.36  179442.05  47.76
1092.2  375306.75  179114.47  47.72
1096.0  374638.24  178635.34  47.68
1099.8  373893.65  178108.57  47.64
1103.6  372929.85  177464.68  47.59
1107.4  371711.84  176672.10  47.53
1111.2  371401.60  176276.20  47.46
1114.9  370920.08  175735.18  47.38
1118.7  370668.38  175235.22  47.28
1122.5  370357.00  174598.79  47.14
1126.3  369457.84  173549.98  46.97
1130.1  369087.46  172457.39  46.73
1133.9  367417.40  170432.28  46.39
1137.7  365865.20  168164.89  45.96
1141.4  363782.90  165423.87  45.47
1145.2  362819.61  163052.59  44.94
1149.0  361536.88  160678.73  44.44
1152.8  359731.15  158344.77  44.02
1156.6  357874.18  156395.09  43.70
1160.3  356069.67  154844.97  43.49
1164.1  353758.20  153362.00  43.35
1167.9  352163.54  152393.25  43.27
1171.7  350854.88  151663.50  43.23
1175.4  349344.13  150884.26  43.19
1179.2  347931.53  150114.84  43.14
1183.0  347616.00  149794.22  43.09
1186.7  347726.17  149649.08  43.04
1190.5  347464.40  149416.69  43.00
1194.3  346559.53  148947.06  42.98
1198.0  345045.53  148303.81  42.98
1201.8  343326.05  147623.49  43.00
1205.6  342258.33  147321.66  43.04
1209.3  341742.70  147310.02  43.11
1213.1  341337.90  147380.02  43.18
1216.8  340736.73  147459.13  43.28
1220.6  339621.33  147326.34  43.38
1224.3  338343.92  147116.79  43.48
1228.1  336803.40  146826.90  43.59
1231.9  335163.43  146423.35  43.69
1235.6  333390.75  145930.21  43.77
1239.4  331823.00  145510.32  43.85
1243.1  330443.08  145096.82  43.91
1246.9  329178.21  144715.29  43.96
1250.6  328126.20  144391.51  44.00
1254.3  326924.31  143975.35  44.04
1258.1  325679.32  143496.70  44.06
1261.8  324216.27  142902.28  44.08
1265.6  323132.58  142409.47  44.07
1269.3  322488.95  142052.60  44.05
1273.1  322832.78  142123.04  44.02
1276.8  322489.60  141815.75  43.98
1280.6  321179.47  141064.82  43.92
1284.3  319111.20  139912.31  43.84
1288.0  317930.63  139068.63  43.74
1291.8  317589.55  138492.69  43.61
1295.5  316971.60  137724.12  43.45
1299.2  315828.14  136664.45  43.27
1302.9  314148.93  135282.13  43.06
1306.7  312350.50  133732.98  42.82
1310.4  310570.37  132051.86  42.52
1314.1  308943.98  130332.68  42.19
1317.9  307512.50  128535.52  41.80
1321.6  305960.17  126555.02  41.36
1325.3  304271.63  124385.83  40.88
1329.0  302976.80  122296.51  40.36
1332.8  301070.00  119842.07  39.81
1336.5  299425.13  117484.76  39.24
1340.2  299299.00  115741.17  38.67
1343.9  299269.58  114063.47  38.11
1347.6  299467.35  112514.01  37.57
1351.4  301056.50  111546.86  37.05
