/*** Spectra Vista SIG Data ***/
name= 27_20221021_QUPH_20_avg.sig
comm= Averaged Ref/Tar of files: HR.102122.0000_moc.sig,HR.102122.0001_moc.sig
data=
337.3  6618.15  471.30  7.12
338.8  6637.80  452.14  6.81
340.3  6994.85  453.72  6.49
341.8  7167.28  462.70  6.46
343.2  7638.95  453.01  5.93
344.7  8158.13  463.73  5.68
346.2  8471.75  435.93  5.15
347.7  9023.10  411.58  4.56
349.2  9223.20  415.80  4.51
350.6  9642.60  423.69  4.39
352.1  10188.00  424.50  4.17
353.6  10732.80  447.20  4.17
355.1  11242.73  439.07  3.91
356.6  11843.65  455.53  3.85
358.0  12411.70  462.28  3.72
359.5  12926.70  487.80  3.77
361.0  13579.70  486.26  3.58
362.5  14188.05  496.01  3.50
364.0  14935.80  514.84  3.45
365.4  15601.65  520.06  3.33
366.9  16306.68  530.92  3.26
368.4  16943.65  550.54  3.25
369.9  17702.00  588.30  3.32
371.3  18541.33  625.05  3.37
372.8  19221.50  628.60  3.27
374.3  20040.60  636.46  3.18
375.8  20918.70  639.19  3.06
377.2  21691.80  663.39  3.06
378.7  22544.90  679.51  3.01
380.2  23357.18  685.43  2.93
381.7  24212.25  706.85  2.92
383.1  25255.28  717.06  2.84
384.6  26129.78  751.83  2.88
386.1  27047.93  748.70  2.77
387.6  27917.33  778.11  2.79
389.0  28886.18  812.59  2.81
390.5  29862.35  827.20  2.77
392.0  30894.75  853.88  2.76
393.4  32006.63  873.38  2.73
394.9  32983.20  885.66  2.69
396.4  34104.40  920.92  2.70
397.9  35170.20  941.88  2.68
399.3  36105.90  961.84  2.66
400.8  37285.05  997.84  2.68
402.2  38519.25  1023.99  2.66
403.7  39719.70  1051.68  2.65
405.2  40798.50  1106.40  2.71
406.6  42083.70  1123.44  2.67
408.1  43144.50  1140.25  2.64
409.6  44357.68  1176.32  2.65
411.0  45594.45  1195.92  2.62
412.5  46916.35  1240.83  2.64
414.0  48226.15  1283.12  2.66
415.4  49536.00  1335.15  2.70
416.9  50846.38  1358.41  2.67
418.4  52162.70  1387.62  2.66
419.8  53484.55  1421.07  2.66
421.3  54989.55  1462.23  2.66
422.7  56446.00  1521.00  2.69
424.2  57946.20  1566.65  2.70
425.7  59360.13  1603.39  2.70
427.1  60847.40  1639.38  2.69
428.6  62301.88  1690.41  2.71
430.0  63793.40  1724.31  2.70
431.5  65457.28  1773.11  2.71
432.9  67106.88  1818.84  2.71
434.4  68813.45  1865.90  2.71
435.9  70432.90  1910.55  2.71
437.3  72073.88  1962.27  2.72
438.8  73675.10  2007.41  2.72
440.2  75330.68  2059.93  2.73
441.7  77204.65  2112.89  2.74
443.1  79027.65  2164.86  2.74
444.6  80786.75  2210.88  2.74
446.0  82571.98  2266.78  2.75
447.5  84475.00  2322.50  2.75
448.9  86215.58  2375.36  2.76
450.4  88075.00  2437.50  2.77
451.8  89872.13  2489.89  2.77
453.3  91672.43  2550.25  2.78
454.7  93462.30  2600.98  2.78
456.2  95275.95  2659.76  2.79
457.6  97187.85  2706.08  2.78
459.1  98989.80  2762.87  2.79
460.5  100820.80  2814.93  2.79
462.0  102807.90  2876.22  2.80
463.4  104775.13  2930.54  2.80
464.8  106751.93  2985.42  2.80
466.3  108760.28  3045.94  2.80
467.7  110812.80  3108.96  2.81
469.2  112672.50  3157.55  2.80
470.6  114684.50  3217.03  2.81
472.0  116716.63  3274.59  2.81
473.5  118673.53  3327.55  2.80
474.9  120861.85  3391.41  2.81
476.4  122959.40  3452.76  2.81
477.8  125104.00  3516.80  2.81
479.2  127205.48  3575.99  2.81
480.7  129356.40  3645.15  2.82
482.1  131526.75  3705.65  2.82
483.6  133724.70  3769.29  2.82
485.0  135930.53  3838.17  2.82
486.4  138016.70  3902.43  2.83
487.9  140289.50  3980.43  2.84
489.3  142466.10  4056.25  2.85
490.7  144725.15  4139.48  2.86
492.2  147010.88  4216.53  2.87
493.6  149254.20  4301.60  2.88
495.0  151554.00  4391.11  2.90
496.5  153742.05  4493.48  2.92
497.9  156034.13  4596.75  2.95
499.3  158304.13  4707.42  2.97
500.7  160630.80  4825.15  3.00
502.2  162971.15  4956.31  3.04
503.6  165280.20  5098.56  3.08
505.0  167542.38  5262.79  3.14
506.5  170015.25  5453.05  3.21
507.9  172566.15  5657.58  3.28
509.3  174993.30  5889.31  3.37
510.7  177736.65  6158.30  3.46
512.2  180382.80  6462.23  3.58
513.6  183234.53  6795.40  3.71
515.0  185950.80  7173.73  3.86
516.4  188786.00  7595.28  4.02
517.8  191594.75  8074.18  4.21
519.3  194534.40  8603.36  4.42
520.7  197206.70  9159.80  4.64
522.1  199911.73  9754.16  4.88
523.5  202555.58  10386.64  5.13
524.9  205545.45  11036.56  5.37
526.3  208171.35  11673.32  5.61
527.8  210966.25  12337.38  5.85
529.2  213638.40  12997.44  6.08
530.6  216420.30  13673.79  6.32
532.0  219252.80  14312.94  6.53
533.4  221752.00  14884.58  6.71
534.8  224343.90  15452.42  6.89
536.3  227390.78  16004.35  7.04
537.7  230350.75  16538.50  7.18
539.1  233240.48  17055.91  7.31
540.5  236103.75  17558.40  7.44
541.9  238994.50  18049.30  7.55
543.3  241620.50  18513.46  7.66
544.7  244574.00  19012.40  7.77
546.1  247401.70  19501.79  7.88
547.5  250322.40  19982.16  7.98
549.0  253403.60  20458.00  8.07
550.4  256347.00  20892.69  8.15
551.8  259378.08  21278.62  8.20
553.2  262315.35  21599.36  8.23
554.6  265201.35  21842.47  8.24
556.0  268147.95  22010.84  8.21
557.4  271237.00  22126.81  8.16
558.8  274148.08  22150.63  8.08
560.2  277340.00  22126.00  7.98
561.6  280287.15  22022.28  7.86
563.0  283067.20  21858.72  7.72
564.4  286270.60  21682.43  7.57
565.8  289326.60  21450.01  7.41
567.2  292509.90  21183.61  7.24
568.6  295586.55  20853.86  7.06
570.0  298475.13  20482.80  6.86
571.4  301956.08  20130.41  6.67
572.8  305057.00  19767.18  6.48
574.2  307958.18  19406.94  6.30
575.6  311010.75  19097.04  6.14
577.0  314056.60  18822.54  5.99
578.4  317493.75  18600.32  5.86
579.8  320551.08  18397.31  5.74
581.2  323648.50  18231.65  5.63
582.5  326542.50  18078.75  5.54
583.9  329649.40  17960.24  5.45
585.3  332576.70  17852.84  5.37
586.7  335573.70  17777.76  5.30
588.1  338572.30  17719.65  5.23
589.5  341922.45  17709.60  5.18
590.9  344914.53  17699.60  5.13
592.3  347883.75  17716.80  5.09
593.7  350863.80  17759.69  5.06
595.0  353846.40  17807.94  5.03
596.4  357180.13  17872.69  5.00
597.8  359858.70  17916.38  4.98
599.2  363037.35  17960.48  4.95
600.6  366234.00  17999.69  4.91
602.0  369249.60  17990.34  4.87
603.3  372164.00  17953.00  4.82
604.7  375201.08  17885.45  4.77
606.1  378248.33  17801.79  4.71
607.5  381579.55  17686.61  4.64
608.9  384684.30  17547.15  4.56
610.2  387901.80  17404.95  4.49
611.6  390857.50  17245.25  4.41
613.0  393695.00  17084.15  4.34
614.4  396507.08  16933.72  4.27
615.8  399778.70  16809.42  4.20
617.1  402516.73  16678.16  4.14
618.5  405795.30  16608.73  4.09
619.9  408549.00  16542.51  4.05
621.3  411487.05  16519.07  4.01
622.6  414384.75  16514.55  3.99
624.0  417031.13  16533.72  3.96
625.4  420057.53  16574.34  3.95
626.8  422995.30  16646.70  3.94
628.1  425820.50  16727.55  3.93
629.5  428689.45  16816.26  3.92
630.9  431710.20  16930.19  3.92
632.2  434908.83  17026.96  3.92
633.6  437524.43  17082.13  3.90
635.0  440546.00  17110.73  3.88
636.3  443582.93  17105.03  3.86
637.7  446288.40  17035.74  3.82
639.1  449200.95  16939.40  3.77
640.4  451892.50  16802.00  3.72
641.8  454689.00  16651.98  3.66
643.2  457303.80  16476.90  3.60
644.5  460215.00  16317.00  3.55
645.9  462978.95  16151.42  3.49
647.2  465782.63  16016.20  3.44
648.6  468587.60  15915.76  3.40
650.0  471463.20  15843.78  3.36
651.3  474193.90  15786.00  3.33
652.7  477678.75  15775.13  3.30
654.0  480420.60  15733.38  3.27
655.4  482680.28  15652.14  3.24
656.8  484554.00  15556.28  3.21
658.1  487299.23  15460.41  3.17
659.5  490406.40  15361.92  3.13
660.8  493353.00  15252.62  3.09
662.2  495998.38  15143.94  3.05
663.5  498748.30  15039.67  3.02
664.9  500958.70  14944.96  2.98
666.2  503108.78  14884.22  2.96
667.6  505775.25  14864.18  2.94
668.9  508507.20  14899.68  2.93
670.3  511284.38  14911.93  2.92
671.6  513633.60  14962.96  2.91
673.0  515965.60  15030.80  2.91
674.3  518364.00  15135.89  2.92
675.7  520839.90  15261.84  2.93
677.0  523167.75  15386.79  2.94
678.4  525432.20  15563.36  2.96
679.7  527854.73  15745.71  2.98
681.1  530459.23  15981.92  3.01
682.4  532738.50  16267.77  3.05
683.8  535153.88  16619.48  3.11
685.1  537459.45  17047.92  3.17
686.4  539765.85  17583.48  3.26
687.8  542313.90  18290.51  3.37
689.1  544723.90  19210.73  3.53
690.5  546894.55  20422.31  3.73
691.8  549617.75  22088.33  4.02
693.1  552102.00  24316.50  4.40
694.5  554684.10  27168.29  4.90
695.8  557175.00  30712.36  5.51
697.1  559578.50  34999.33  6.25
698.5  561977.25  40021.58  7.12
699.8  564402.00  45766.92  8.11
701.1  566387.85  52106.99  9.20
702.5  568516.13  59003.02  10.38
703.8  570936.85  66347.91  11.62
705.1  572816.25  73937.53  12.91
706.5  575137.40  81812.35  14.22
707.8  577008.28  89818.99  15.57
709.1  579374.65  98036.77  16.92
710.5  581568.93  106336.29  18.28
711.8  583553.00  114689.60  19.65
713.1  585531.00  123096.10  21.02
714.4  587635.45  131587.66  22.39
715.8  589955.20  140161.75  23.76
717.1  592233.75  148733.74  25.11
718.4  594555.23  157287.32  26.45
719.7  596746.35  165774.94  27.78
721.0  598555.80  174043.42  29.08
722.4  600405.75  182212.56  30.35
723.7  602367.45  190278.31  31.59
725.0  604128.55  198067.80  32.79
726.3  606468.20  205821.72  33.94
727.6  608216.25  213134.55  35.04
729.0  610120.70  220205.30  36.09
730.3  612092.18  227024.95  37.09
731.6  613603.40  233394.69  38.04
732.9  615554.55  239630.79  38.93
734.2  617236.13  245456.07  39.77
735.5  619014.00  251011.09  40.55
736.8  621015.33  256336.24  41.28
738.1  622791.38  261261.33  41.95
739.5  624481.95  265901.33  42.58
740.8  626372.45  270349.70  43.16
742.1  628105.65  274496.34  43.70
743.4  630017.50  278506.66  44.21
744.7  632100.00  282254.70  44.65
746.0  633579.63  285512.83  45.06
747.3  635166.00  288563.17  45.43
748.6  636754.55  291446.73  45.77
749.9  638707.70  294310.27  46.08
751.2  640246.00  296873.31  46.37
752.5  642081.10  299360.89  46.62
753.8  643557.60  301535.42  46.85
755.1  645120.55  303604.35  47.06
756.4  646156.93  305276.34  47.24
757.7  648045.75  307254.48  47.41
759.0  651662.45  309859.51  47.55
760.3  654324.15  311985.76  47.68
761.6  657162.80  314089.14  47.79
762.9  658611.25  315422.80  47.89
764.2  659344.85  316387.79  47.99
765.5  660259.68  317330.34  48.06
766.8  660867.10  318092.12  48.13
768.1  661985.10  319024.13  48.19
769.3  663247.55  320019.24  48.25
770.6  664653.30  321085.15  48.31
771.9  665856.75  321946.42  48.35
773.2  667344.60  322929.66  48.39
774.5  668322.75  323631.59  48.42
775.8  669369.78  324409.90  48.46
777.1  670671.03  325213.58  48.49
778.4  671965.13  326071.07  48.52
779.6  673315.80  326874.48  48.55
780.9  674045.55  327368.39  48.57
782.2  675046.55  328029.51  48.59
783.5  676011.50  328648.90  48.62
784.8  676864.13  329194.69  48.64
786.0  677743.65  329736.39  48.65
787.3  678548.35  330251.13  48.67
788.6  679450.88  330824.53  48.69
789.9  680281.10  331268.69  48.70
791.2  681662.60  332064.70  48.71
792.4  682892.38  332747.67  48.73
793.7  684474.15  333627.09  48.74
795.0  685528.20  334251.40  48.76
796.2  686944.50  334984.49  48.76
797.5  688198.75  335658.69  48.77
798.8  689660.13  336465.94  48.79
800.0  690830.00  337120.00  48.80
801.3  692165.25  337804.43  48.80
802.6  693216.00  338457.60  48.82
803.8  694430.10  339107.53  48.83
805.1  695533.13  339677.25  48.84
806.4  696545.93  340259.21  48.85
807.7  697708.40  340903.71  48.86
808.9  698902.83  341584.65  48.87
810.2  699766.20  342120.87  48.89
811.4  700847.20  342764.24  48.91
812.7  702280.75  343506.72  48.91
814.0  703637.55  344178.45  48.91
815.2  705055.65  344962.82  48.93
816.5  706230.00  345617.13  48.94
817.7  707110.25  346124.28  48.95
819.0  707709.80  346595.90  48.97
820.2  708671.40  347100.12  48.98
821.5  709863.00  347767.02  48.99
822.7  710907.58  348345.61  49.00
824.0  711867.65  348904.60  49.01
825.2  712578.75  349333.14  49.02
826.5  713321.30  349774.95  49.03
827.7  714325.43  350385.27  49.05
829.0  715312.73  350960.80  49.06
830.2  716377.00  351526.34  49.07
831.5  717402.83  352053.86  49.07
832.7  718305.30  352609.83  49.09
834.0  718978.95  353007.05  49.10
835.2  719983.15  353592.19  49.11
836.4  720725.20  354071.64  49.13
837.7  721513.13  354547.13  49.14
838.9  722739.80  355274.64  49.16
840.1  723770.85  355838.34  49.16
841.4  724784.20  356440.20  49.18
842.6  725790.10  356996.08  49.19
843.8  726596.00  357547.71  49.21
845.1  727501.50  358104.12  49.22
846.3  728511.00  358690.82  49.24
847.5  729316.25  359258.90  49.26
848.8  730347.20  359827.81  49.27
850.0  731534.20  360555.12  49.29
851.2  732420.05  361070.68  49.30
852.5  733748.30  361764.73  49.30
853.7  734356.80  362227.68  49.33
854.9  735559.50  362880.38  49.33
856.1  736660.10  363486.04  49.34
857.4  737559.98  364043.61  49.36
858.6  738616.20  364623.00  49.37
859.8  739772.40  365300.38  49.38
861.0  740742.45  365869.25  49.39
862.2  741911.10  366495.36  49.40
863.5  742841.18  367068.51  49.41
864.7  743906.25  367655.00  49.42
865.9  744901.50  368191.27  49.43
867.1  745684.38  368582.82  49.43
868.3  746964.70  369269.92  49.44
869.5  748100.55  369926.65  49.45
870.8  749151.00  370617.44  49.47
872.0  750281.13  371140.09  49.47
873.2  751231.33  371649.59  49.47
874.4  751909.65  372103.70  49.49
875.6  753309.23  372746.46  49.48
876.8  754475.70  373460.67  49.50
878.0  755639.15  374027.61  49.50
879.2  756762.65  374657.39  49.51
880.4  757956.00  375193.20  49.50
881.6  758908.00  375709.83  49.51
882.8  760293.55  376405.68  49.51
884.0  761111.98  376825.22  49.51
885.2  762692.25  377547.48  49.50
886.5  764040.03  378311.94  49.51
887.7  764904.38  378837.91  49.53
888.8  766444.80  379611.55  49.53
890.0  767340.00  380068.50  49.53
891.2  768364.35  380588.04  49.53
892.4  769869.38  381269.55  49.52
893.6  771693.13  382242.14  49.53
894.8  773427.08  383076.86  49.53
896.0  775090.55  383912.66  49.53
897.2  776840.63  384771.67  49.53
898.4  778541.40  385726.32  49.54
899.6  780013.00  386323.68  49.53
900.8  780594.10  386706.91  49.54
902.0  781467.40  387069.24  49.53
903.2  781633.70  387207.98  49.54
904.3  782730.00  387701.44  49.53
905.5  783857.25  388297.80  49.54
906.7  785226.98  388926.02  49.53
907.9  786352.65  389549.83  49.54
909.1  787519.43  390126.09  49.54
910.2  787893.75  390355.88  49.54
911.4  788081.63  390453.19  49.54
912.6  788610.00  390764.50  49.55
913.8  789820.50  391293.32  49.54
915.0  790598.00  391582.94  49.53
916.2  790799.85  391731.79  49.54
917.3  791585.70  392045.40  49.53
918.5  791807.70  392238.56  49.54
919.7  791665.75  392233.20  49.55
920.8  792009.50  392496.52  49.56
922.0  792059.95  392556.98  49.56
923.2  792684.15  392714.17  49.54
924.4  793637.13  392973.48  49.52
925.5  794098.00  393373.14  49.54
926.7  795097.28  393762.46  49.52
927.9  796979.78  394529.56  49.50
929.0  799907.40  395980.65  49.50
930.2  804235.80  398125.24  49.50
931.4  809358.00  400632.21  49.50
932.5  814295.90  402860.54  49.47
933.7  817335.15  404176.38  49.45
934.9  819087.50  404784.63  49.42
936.0  818061.30  404172.18  49.41
937.2  814765.55  402543.24  49.41
938.3  810429.75  400394.48  49.41
939.5  808212.60  399254.31  49.40
940.7  808372.95  399224.60  49.39
941.8  811608.20  400564.52  49.35
943.0  813909.68  401354.05  49.31
944.2  815814.00  402087.60  49.29
945.3  814851.60  401520.54  49.28
946.5  813076.25  400593.38  49.27
947.6  814109.25  400815.80  49.23
948.8  813166.75  400124.73  49.21
949.9  813831.38  400143.66  49.17
951.1  814008.28  399713.91  49.10
952.2  813403.38  398956.94  49.05
953.4  813105.60  398513.39  49.01
954.5  811440.00  397478.82  48.98
955.7  811126.95  396966.48  48.94
956.8  811727.55  396757.02  48.88
958.0  810881.10  396050.00  48.84
959.1  810583.20  395357.76  48.77
960.3  810300.00  394928.75  48.74
961.4  810466.80  395031.72  48.74
962.6  809949.60  394651.44  48.73
963.7  810488.00  394569.28  48.68
964.9  810732.15  394485.47  48.66
966.0  811275.15  394426.10  48.62
967.2  811301.40  394235.94  48.59
968.3  812488.65  394762.91  48.59
969.5  812396.85  394924.58  48.61
970.6  812465.80  395111.25  48.63
971.8  811798.05  394735.29  48.62
972.9  813414.00  394670.50  48.52
974.0  813675.75  394665.82  48.50
975.2  812261.25  393746.07  48.48
976.3  812699.10  394042.55  48.49
977.5  811538.18  393331.14  48.47
978.6  811962.23  393464.38  48.46
979.7  812380.80  393081.92  48.39
980.9  812174.05  392795.24  48.36
982.0  811990.40  392527.09  48.34
983.2  812396.20  392363.44  48.30
984.3  810954.55  391758.54  48.31
985.4  810746.30  391488.09  48.29
986.6  813166.25  391821.03  48.18
987.7  811995.13  391559.15  48.22
988.9  814160.50  392200.77  48.17
990.0  812327.85  391811.32  48.23
993.1  881637.00  425490.42  48.26
996.9  880395.70  425662.51  48.35
1000.7  879520.25  425924.98  48.43
1004.5  878347.53  426042.97  48.51
1008.4  879115.73  427160.38  48.59
1012.2  880353.79  428282.28  48.65
1016.0  880017.93  428577.60  48.70
1019.8  878236.65  428109.33  48.75
1023.7  876118.50  427450.35  48.79
1027.5  872955.67  426348.33  48.84
1031.3  870578.86  425644.96  48.89
1035.1  868926.08  425317.10  48.95
1038.9  868179.13  425309.49  48.99
1042.7  867862.70  425472.12  49.03
1046.5  867142.50  425395.75  49.06
1050.3  865449.57  424797.21  49.08
1054.2  863356.18  424001.65  49.11
1058.0  862660.80  423799.89  49.13
1061.8  861450.17  423445.69  49.15
1065.6  859149.33  422335.75  49.16
1069.4  856248.10  420940.20  49.16
1073.2  853866.00  419604.25  49.14
1077.0  852508.80  418808.97  49.13
1080.8  852529.33  418681.87  49.11
1084.6  852936.33  418727.09  49.09
1088.4  852653.05  418487.18  49.08
1092.2  851448.73  417775.19  49.07
1096.0  849932.97  416801.26  49.04
1099.8  848248.50  415689.40  49.01
1103.6  846266.13  414352.20  48.96
1107.4  844589.46  413187.33  48.92
1111.2  842985.28  412037.60  48.88
1114.9  841996.50  411108.47  48.83
1118.7  841789.42  410353.47  48.75
1122.5  841886.93  409620.79  48.66
1126.3  839515.95  407413.20  48.53
1130.1  838978.35  405673.87  48.35
1133.9  835457.76  401985.27  48.12
1137.7  832666.80  398224.11  47.83
1141.4  828735.80  393469.83  47.48
1145.2  827715.90  389869.17  47.10
1149.0  825598.20  385995.06  46.75
1152.8  822101.70  381811.54  46.44
1156.6  818468.97  378133.70  46.20
1160.3  815235.45  375254.88  46.03
1164.1  810600.13  372177.58  45.91
1167.9  807588.54  370181.27  45.84
1171.7  804946.30  368505.51  45.78
1175.4  802289.91  366918.65  45.73
1179.2  800134.50  365456.02  45.67
1183.0  800582.50  365171.17  45.61
1186.7  801082.33  365031.72  45.57
1190.5  800200.42  364331.90  45.53
1194.3  797379.10  362925.46  45.51
1198.0  794089.03  361402.95  45.51
1201.8  791508.67  360300.11  45.52
1205.6  789956.08  359842.28  45.55
1209.3  788874.75  359804.36  45.61
1213.1  787623.96  359796.42  45.68
1216.8  785587.73  359654.18  45.78
1220.6  783193.83  359258.50  45.87
1224.3  780770.83  358813.89  45.96
1228.1  778462.30  358467.54  46.05
1231.9  775930.35  357847.24  46.12
1235.6  773393.78  357156.97  46.18
1239.4  770998.45  356557.32  46.25
1243.1  768844.80  355903.14  46.29
1246.9  766826.96  355209.42  46.32
1250.6  764688.87  354434.04  46.35
1254.3  762674.40  353657.32  46.37
1258.1  760507.33  352737.83  46.38
1261.8  758005.27  351610.97  46.39
1265.6  756045.47  350618.97  46.38
1269.3  754295.00  349678.70  46.36
1273.1  754895.34  349804.76  46.34
1276.8  754266.40  349271.17  46.31
1280.6  752762.67  348193.39  46.26
1284.3  749831.07  346333.48  46.19
1288.0  748264.73  345010.95  46.11
1291.8  747381.60  343929.60  46.02
1295.5  746058.73  342542.73  45.91
1299.2  743593.50  340530.96  45.80
1302.9  740461.24  337976.34  45.64
1306.7  737070.08  335153.70  45.47
1310.4  733767.55  332076.24  45.26
1314.1  731060.63  329084.24  45.01
1317.9  728444.38  325771.62  44.72
1321.6  725486.13  322094.60  44.40
1325.3  722547.68  318156.45  44.03
1329.0  719888.40  314177.97  43.64
1332.8  716155.00  309511.13  43.22
1336.5  712730.13  304906.12  42.78
1340.2  711003.60  301045.58  42.34
