/*** Spectra Vista SIG Data ***/
name= 58_20220722_ACRU_28_avg.sig
comm= Averaged Ref/Tar of files: HR.072222.0048_moc.sig,HR.072222.0049_moc.sig,HR.072222.0050_moc.sig
data=
337.3  3126.38  302.48  9.67
338.8  3270.80  297.76  9.10
340.3  3420.05  290.02  8.48
341.8  3612.28  296.13  8.20
343.2  3774.00  291.77  7.73
344.7  3923.80  280.27  7.14
346.2  4085.00  272.33  6.67
347.7  4247.10  273.40  6.44
349.2  4460.40  277.20  6.21
350.6  4664.08  276.31  5.92
352.1  4930.05  275.59  5.59
353.6  5205.00  280.90  5.40
355.1  5455.35  282.23  5.17
356.6  5768.40  293.41  5.09
358.0  5997.20  294.69  4.91
359.5  6241.80  297.23  4.76
361.0  6523.65  299.25  4.59
362.5  6879.63  312.27  4.54
364.0  7226.10  316.79  4.38
365.4  7558.90  331.85  4.39
366.9  7900.75  347.28  4.40
368.4  8237.05  350.68  4.26
369.9  8566.93  365.48  4.27
371.3  8944.50  371.26  4.15
372.8  9345.60  389.40  4.17
374.3  9755.63  396.72  4.07
375.8  10160.15  397.83  3.92
377.2  10517.90  409.90  3.90
378.7  10921.40  417.59  3.82
380.2  11271.10  422.72  3.75
381.7  11782.90  429.82  3.65
383.1  12235.30  444.03  3.63
384.6  12759.18  452.15  3.54
386.1  13242.25  471.01  3.56
387.6  13690.60  477.40  3.49
389.0  14177.20  487.50  3.44
390.5  14655.60  498.13  3.40
392.0  15208.75  511.36  3.36
393.4  15765.00  525.50  3.33
394.9  16286.40  536.92  3.30
396.4  16792.88  552.00  3.29
397.9  17348.13  561.31  3.24
399.3  17854.13  569.21  3.19
400.8  18394.65  579.21  3.15
402.2  19001.70  596.21  3.14
403.7  19597.05  616.78  3.15
405.2  20171.10  631.33  3.13
406.6  20717.60  642.97  3.10
408.1  21289.20  656.48  3.08
409.6  21840.25  675.22  3.09
411.0  22481.55  691.33  3.08
412.5  23094.93  704.08  3.05
414.0  23736.88  721.86  3.04
415.4  24386.63  742.00  3.04
416.9  25038.23  758.15  3.03
418.4  25659.45  782.57  3.05
419.8  26335.40  800.80  3.04
421.3  27022.70  823.35  3.05
422.7  27770.40  843.48  3.04
424.2  28518.75  867.86  3.04
425.7  29225.90  891.07  3.05
427.1  29940.90  916.34  3.06
428.6  30690.00  943.28  3.07
430.0  31397.08  963.97  3.07
431.5  32208.15  986.47  3.06
432.9  33035.75  1014.34  3.07
434.4  33878.63  1040.95  3.07
435.9  34664.00  1065.33  3.07
437.3  35461.25  1092.14  3.08
438.8  36245.25  1122.20  3.10
440.2  37069.73  1148.58  3.10
441.7  37975.60  1177.93  3.10
443.1  38835.75  1203.86  3.10
444.6  39732.30  1236.39  3.11
446.0  40624.73  1265.37  3.11
447.5  41515.10  1301.12  3.13
448.9  42389.40  1333.00  3.14
450.4  43330.70  1367.77  3.16
451.8  44148.00  1399.05  3.17
453.3  45030.30  1430.78  3.18
454.7  45980.75  1464.31  3.18
456.2  46803.28  1493.80  3.19
457.6  47723.63  1524.73  3.19
459.1  48636.25  1554.58  3.20
460.5  49500.88  1585.89  3.20
462.0  50488.83  1619.14  3.21
463.4  51470.90  1653.13  3.21
464.8  52392.00  1682.18  3.21
466.3  53337.08  1715.06  3.22
467.7  54273.20  1747.98  3.22
469.2  55286.60  1781.49  3.22
470.6  56185.95  1811.78  3.22
472.0  57158.58  1843.15  3.22
473.5  58096.13  1876.61  3.23
474.9  59066.25  1912.21  3.24
476.4  60163.20  1952.91  3.25
477.8  61161.00  1988.57  3.25
479.2  62118.00  2027.24  3.26
480.7  63168.90  2060.96  3.26
482.1  64230.25  2100.07  3.27
483.6  65357.35  2141.35  3.28
485.0  66367.88  2182.28  3.29
486.4  67497.45  2228.23  3.30
487.9  68518.13  2275.93  3.32
489.3  69619.80  2326.55  3.34
490.7  70621.10  2381.24  3.37
492.2  71780.10  2438.80  3.40
493.6  72810.50  2496.08  3.43
495.0  73856.25  2562.86  3.47
496.5  74959.90  2635.91  3.52
497.9  76001.83  2714.18  3.57
499.3  77087.78  2800.83  3.63
500.7  78260.30  2903.49  3.71
502.2  79336.40  3011.77  3.80
503.6  80504.40  3145.26  3.91
505.0  81497.95  3289.97  4.04
506.5  82725.23  3467.20  4.19
507.9  83865.03  3666.72  4.37
509.3  85174.00  3900.15  4.58
510.7  86360.63  4166.04  4.82
512.2  87660.60  4476.22  5.11
513.6  89041.75  4831.17  5.43
515.0  90371.43  5233.45  5.79
516.4  91641.38  5679.45  6.20
517.8  93154.38  6186.75  6.64
519.3  94372.88  6721.15  7.12
520.7  95835.05  7304.66  7.62
522.1  97056.38  7896.54  8.14
523.5  98328.60  8506.80  8.65
524.9  99686.70  9124.63  9.15
526.3  100980.95  9725.20  9.63
527.8  102361.05  10320.04  10.08
529.2  103420.90  10868.49  10.51
530.6  104892.55  11429.26  10.90
532.0  106512.00  11952.00  11.22
533.4  107744.78  12385.57  11.50
534.8  108550.80  12728.75  11.73
536.3  110140.20  13130.97  11.92
537.7  112026.60  13546.80  12.09
539.1  113390.00  13873.25  12.23
540.5  114487.05  14145.55  12.36
541.9  116125.05  14482.13  12.47
543.3  117312.63  14757.57  12.58
544.7  118525.80  15031.71  12.68
546.1  120168.95  15362.99  12.78
547.5  121340.80  15624.53  12.88
549.0  122969.00  15930.10  12.95
550.4  124355.00  16182.38  13.01
551.8  125794.80  16406.97  13.04
553.2  127229.35  16584.42  13.04
554.6  128492.00  16685.56  12.99
556.0  129913.20  16754.19  12.90
557.4  131406.28  16776.65  12.77
558.8  132914.70  16753.20  12.60
560.2  134262.88  16661.26  12.41
561.6  135816.90  16549.93  12.19
563.0  137285.35  16383.90  11.93
564.4  138774.70  16175.66  11.66
565.8  140186.25  15922.32  11.36
567.2  141814.00  15647.91  11.03
568.6  143212.88  15319.25  10.70
570.0  144540.75  14962.58  10.35
571.4  146147.30  14622.84  10.01
572.8  147773.38  14296.15  9.67
574.2  149284.80  13975.47  9.36
575.6  150716.25  13669.29  9.07
577.0  152131.90  13397.50  8.81
578.4  153733.13  13177.67  8.57
579.8  155142.00  12962.38  8.36
581.2  156748.65  12793.13  8.16
582.5  158067.00  12621.51  7.98
583.9  159488.80  12476.53  7.82
585.3  161154.45  12370.20  7.68
586.7  162529.90  12263.21  7.55
588.1  163917.88  12180.43  7.43
589.5  165436.25  12128.67  7.33
590.9  166953.60  12097.67  7.25
592.3  168634.35  12097.00  7.17
593.7  169971.75  12088.33  7.11
595.0  171483.08  12099.47  7.06
596.4  172817.75  12103.93  7.00
597.8  174198.23  12107.45  6.95
599.2  175639.20  12107.54  6.89
600.6  177262.48  12102.91  6.83
602.0  178471.95  12047.98  6.75
603.3  180133.70  11997.56  6.66
604.7  181672.38  11916.79  6.56
606.1  183057.00  11797.03  6.44
607.5  184603.73  11666.50  6.32
608.9  186162.50  11523.68  6.19
610.2  187450.20  11352.15  6.06
611.6  188918.10  11191.23  5.92
613.0  190349.85  11026.04  5.79
614.4  191623.50  10866.77  5.67
615.8  192976.88  10720.82  5.56
617.1  194407.50  10599.40  5.45
618.5  195937.20  10503.77  5.36
619.9  197323.43  10429.02  5.29
621.3  198839.25  10375.91  5.22
622.6  200293.50  10349.67  5.17
624.0  201637.95  10333.84  5.12
625.4  202991.25  10338.04  5.09
626.8  204445.15  10366.42  5.07
628.1  205684.33  10393.27  5.05
629.5  207405.28  10454.82  5.04
630.9  208915.85  10504.34  5.03
632.2  210201.43  10532.58  5.01
633.6  211682.13  10552.26  4.98
635.0  213125.20  10536.23  4.94
636.3  214537.30  10488.74  4.89
637.7  215797.50  10391.90  4.82
639.1  217332.50  10281.67  4.73
640.4  218692.78  10130.30  4.63
641.8  219800.08  9954.84  4.53
643.2  221274.90  9785.00  4.42
644.5  222540.50  9608.19  4.32
645.9  224130.60  9453.43  4.22
647.2  225886.15  9335.85  4.13
648.6  227650.50  9237.86  4.06
650.0  229003.20  9150.17  4.00
651.3  229345.60  9056.09  3.95
652.7  230338.65  8985.11  3.90
654.0  232297.60  8946.27  3.85
655.4  233717.05  8877.91  3.80
656.8  233900.80  8762.20  3.75
658.1  234990.40  8671.40  3.69
659.5  237240.68  8632.25  3.64
660.8  238950.00  8580.00  3.59
662.2  239814.40  8494.93  3.54
663.5  241324.25  8452.86  3.50
664.9  242569.60  8419.05  3.47
666.2  243245.40  8385.26  3.45
667.6  244860.60  8411.21  3.44
668.9  245950.48  8443.66  3.43
670.3  246997.63  8491.85  3.44
671.6  248441.63  8580.28  3.45
673.0  249503.63  8679.32  3.48
674.3  250658.20  8795.80  3.51
675.7  251919.90  8943.53  3.55
677.0  252935.10  9093.18  3.60
678.4  254190.53  9273.57  3.65
679.7  255203.68  9466.55  3.71
681.1  256423.20  9687.77  3.78
682.4  257487.10  9932.37  3.86
683.8  258680.50  10220.72  3.95
685.1  259614.75  10548.36  4.06
686.4  260805.60  10956.23  4.20
687.8  261993.75  11470.41  4.38
689.1  262995.00  12140.02  4.62
690.5  264288.75  13060.91  4.94
691.8  265047.68  14296.24  5.39
693.1  266296.05  15995.22  6.01
694.5  267380.75  18165.33  6.79
695.8  268518.25  20849.83  7.76
697.1  269633.00  24067.33  8.93
698.5  270629.40  27799.93  10.27
699.8  271646.50  32004.14  11.78
701.1  272734.90  36616.89  13.43
702.5  273441.30  41470.53  15.17
703.8  274365.00  46542.86  16.96
705.1  275446.28  51746.22  18.79
706.5  276420.75  56975.27  20.61
707.8  277363.50  62179.83  22.42
709.1  278191.83  67300.31  24.19
710.5  279241.10  72409.55  25.93
711.8  280043.40  77366.13  27.63
713.1  280980.00  82265.76  29.28
714.4  281849.70  87031.59  30.88
715.8  282630.20  91657.25  32.43
717.1  283889.70  96311.47  33.93
718.4  284771.20  100704.00  35.36
719.7  285837.05  105003.20  36.74
721.0  286312.50  108951.43  38.05
722.4  287038.95  112818.72  39.30
723.7  287972.10  116595.73  40.49
725.0  288971.10  120243.38  41.61
726.3  289854.68  123678.89  42.67
727.6  290379.65  126789.61  43.66
729.0  291239.20  129875.58  44.59
730.3  291957.00  132729.26  45.46
731.6  292824.35  135482.62  46.27
732.9  293590.85  138034.05  47.02
734.2  294361.38  140434.77  47.71
735.5  295356.38  142787.79  48.34
736.8  296107.80  144886.00  48.93
738.1  296885.80  146866.64  49.47
739.5  297763.48  148779.86  49.97
740.8  298448.15  150451.32  50.41
742.1  299158.13  152059.51  50.83
743.4  299850.00  153559.53  51.21
744.7  300841.25  155073.20  51.55
746.0  301665.00  156433.64  51.86
747.3  302216.00  157523.28  52.12
748.6  302897.25  158624.90  52.37
749.9  303654.00  159662.29  52.58
751.2  304359.85  160623.26  52.77
752.5  305222.80  161604.51  52.95
753.8  305833.68  162375.23  53.09
755.1  306488.00  163126.48  53.22
756.4  307024.50  163761.24  53.34
757.7  307971.83  164550.63  53.43
759.0  309691.03  165712.03  53.51
760.3  310807.20  166533.71  53.58
761.6  312284.00  167526.80  53.65
762.9  312841.25  167972.17  53.69
764.2  313196.70  168306.90  53.74
765.5  313490.00  168579.38  53.78
766.8  313915.20  168893.87  53.80
768.1  314442.40  169248.49  53.82
769.3  315044.10  169618.27  53.84
770.6  315667.30  170018.52  53.86
771.9  316405.25  170445.33  53.87
773.2  316802.00  170692.12  53.88
774.5  317402.80  171044.34  53.89
775.8  318071.25  171418.46  53.89
777.1  318638.65  171749.03  53.90
778.4  318967.00  171942.89  53.91
779.6  319692.38  172359.70  53.91
780.9  320190.00  172625.71  53.91
782.2  320680.25  172897.48  53.92
783.5  321012.50  173083.14  53.92
784.8  321566.40  173368.61  53.91
786.0  321966.40  173582.63  53.91
787.3  322366.95  173804.95  53.92
788.6  322800.98  174040.32  53.92
789.9  323255.80  174297.07  53.92
791.2  323860.65  174639.23  53.92
792.4  324572.93  175003.03  53.92
793.7  325048.80  175260.93  53.92
795.0  325667.10  175587.19  53.92
796.2  326335.38  175923.02  53.91
797.5  327040.05  176297.17  53.91
798.8  327698.18  176651.70  53.91
800.0  328388.38  177012.55  53.90
801.3  328834.90  177264.75  53.91
802.6  329414.85  177569.87  53.90
803.8  330076.83  177898.31  53.90
805.1  330573.25  178141.83  53.89
806.4  331012.80  178376.94  53.89
807.7  331539.08  178666.91  53.89
808.9  332126.65  178951.14  53.88
810.2  332655.05  179233.07  53.88
811.4  333150.80  179495.24  53.88
812.7  333734.38  179802.38  53.88
814.0  334549.50  180221.32  53.87
815.2  335169.00  180538.93  53.87
816.5  335578.95  180763.87  53.87
817.7  336029.70  181014.72  53.87
819.0  336563.70  181269.26  53.86
820.2  336688.00  181355.43  53.86
821.5  337420.05  181708.49  53.85
822.7  337751.50  181889.08  53.85
824.0  338053.50  182061.26  53.86
825.2  338553.68  182330.04  53.86
826.5  338867.20  182477.00  53.85
827.7  339392.68  182755.71  53.85
829.0  339759.43  182964.69  53.85
830.2  340067.65  183115.70  53.85
831.5  340518.50  183362.73  53.85
832.7  340841.03  183524.00  53.84
834.0  341126.38  183697.64  53.85
835.2  341465.03  183892.53  53.85
836.4  341760.10  184047.34  53.85
837.7  342164.60  184269.68  53.85
838.9  342566.50  184516.99  53.86
840.1  342985.05  184722.43  53.86
841.4  343391.50  184952.10  53.86
842.6  343678.80  185147.16  53.87
843.8  343982.00  185354.59  53.88
845.1  344467.40  185635.50  53.89
846.3  344913.90  185840.65  53.88
847.5  345242.10  186064.00  53.89
848.8  345647.40  186288.74  53.90
850.0  345953.30  186464.30  53.90
851.2  346500.45  186742.41  53.89
852.5  346834.20  186972.15  53.91
853.7  347260.50  187211.57  53.91
854.9  347686.00  187440.71  53.91
856.1  348073.05  187695.92  53.92
857.4  348349.20  187791.28  53.91
858.6  348810.65  188035.62  53.91
859.8  349164.38  188230.89  53.91
861.0  349596.00  188483.66  53.91
862.2  350044.38  188721.05  53.91
863.5  350362.35  188906.59  53.92
864.7  350875.80  189167.94  53.91
865.9  351292.40  189358.02  53.90
867.1  351545.15  189513.27  53.91
868.3  351944.70  189741.18  53.91
869.5  352453.35  189982.37  53.90
870.8  352894.50  190251.86  53.91
872.0  353375.25  190484.62  53.90
873.2  353706.90  190708.33  53.92
874.4  354123.90  190923.94  53.91
875.6  354520.10  191110.51  53.91
876.8  355101.95  191324.84  53.88
878.0  355585.75  191574.23  53.88
879.2  356056.20  191803.10  53.87
880.4  356493.38  192074.68  53.88
881.6  356991.08  192315.50  53.87
882.8  357294.40  192510.32  53.88
884.0  357987.63  192806.64  53.86
885.2  358517.60  193040.23  53.84
886.5  359131.70  193320.67  53.83
887.7  359559.85  193570.90  53.84
888.8  360171.15  193876.79  53.83
890.0  360647.45  194145.00  53.83
891.2  361213.50  194414.11  53.82
892.4  361855.20  194710.75  53.81
893.6  362468.70  194966.52  53.79
894.8  363239.00  195406.90  53.80
896.0  364148.25  195834.43  53.78
897.2  365017.25  196251.40  53.76
898.4  365722.50  196601.12  53.76
899.6  366159.38  196887.64  53.77
900.8  366562.73  197094.55  53.77
902.0  366838.50  197185.24  53.75
903.2  367248.60  197319.12  53.73
904.3  367734.00  197477.46  53.70
905.5  368186.85  197788.52  53.72
906.7  368761.50  198073.72  53.71
907.9  369286.05  198310.23  53.70
909.1  369709.65  198473.01  53.68
910.2  369959.70  198559.25  53.67
911.4  370208.48  198675.75  53.67
912.6  370484.40  198763.19  53.65
913.8  370660.80  198896.88  53.66
915.0  371226.45  199063.20  53.62
916.2  371250.75  199142.36  53.64
917.3  371421.23  199136.25  53.61
918.5  371695.70  199226.47  53.60
919.7  371891.85  199317.04  53.60
920.8  372070.93  199334.80  53.57
922.0  372179.50  199353.00  53.56
923.2  372508.50  199446.00  53.54
924.4  372643.88  199523.57  53.54
925.5  373057.70  199626.86  53.51
926.7  373592.00  199880.94  53.50
927.9  374514.00  200277.88  53.48
929.0  375821.10  200936.83  53.47
930.2  377951.80  201948.83  53.43
931.4  380457.68  203117.98  53.39
932.5  382921.30  204394.66  53.38
933.7  384291.90  205028.51  53.35
934.9  384938.75  205303.75  53.33
936.0  384709.00  205031.20  53.30
937.2  382851.30  203960.46  53.27
938.3  381436.30  203063.37  53.24
939.5  380023.20  202218.17  53.21
940.7  380242.80  202236.26  53.19
941.8  381549.38  202874.84  53.17
943.0  383057.25  203525.57  53.13
944.2  383930.30  203837.40  53.09
945.3  383652.75  203598.57  53.07
946.5  382993.65  203037.30  53.01
947.6  383116.30  202977.45  52.98
948.8  383199.38  202765.36  52.91
949.9  383350.80  202645.20  52.86
951.1  383203.28  202396.57  52.82
952.2  382908.00  202134.86  52.79
953.4  382790.75  201723.33  52.70
954.5  382870.80  201554.23  52.64
955.7  382775.40  201246.00  52.58
956.8  382632.40  200924.55  52.51
958.0  382309.00  200594.62  52.47
959.1  382378.15  200379.31  52.40
960.3  381988.48  200143.96  52.40
961.4  382081.95  199970.63  52.34
962.6  382401.25  199974.33  52.29
963.7  381971.03  199834.73  52.32
964.9  382060.05  199600.74  52.24
966.0  381904.88  199543.31  52.25
967.2  382225.05  199521.30  52.20
968.3  382060.80  199429.33  52.20
969.5  381619.88  199323.66  52.23
970.6  381694.45  199357.74  52.23
971.8  382066.30  199388.53  52.19
972.9  382163.40  199318.49  52.16
974.0  382606.60  199512.88  52.15
975.2  382401.13  199476.91  52.16
976.3  382546.18  199476.48  52.14
977.5  382334.93  199496.32  52.18
978.6  382495.60  199478.43  52.15
979.7  382677.23  199539.85  52.14
980.9  382835.33  199566.52  52.13
982.0  383000.10  199613.49  52.12
983.2  382682.83  199650.03  52.17
984.3  382291.40  199496.91  52.18
985.4  382438.08  199635.92  52.20
986.6  382599.88  199678.36  52.19
987.7  384160.53  200264.13  52.13
988.9  383995.80  200254.28  52.15
990.0  384953.30  200567.98  52.10
993.1  331842.76  172323.51  51.93
996.9  332413.38  173015.39  52.05
1000.7  333389.41  173869.85  52.15
1004.5  333925.75  174436.37  52.24
1008.4  333728.38  174676.50  52.34
1012.2  333869.38  175019.55  52.42
1016.0  334062.60  175387.71  52.50
1019.8  334314.75  175756.35  52.57
1023.7  334379.91  175973.45  52.63
1027.5  334109.72  176028.26  52.69
1031.3  334325.50  176258.88  52.72
1035.1  334227.25  176316.78  52.75
1038.9  334204.93  176361.45  52.77
1042.7  334053.75  176360.56  52.79
1046.5  333922.17  176333.07  52.81
1050.3  333956.83  176370.15  52.81
1054.2  333714.50  176260.33  52.82
1058.0  333305.41  176011.17  52.81
1061.8  333177.43  175956.83  52.81
1065.6  332949.53  175780.81  52.80
1069.4  332899.73  175727.55  52.79
1073.2  332558.89  175479.88  52.77
1077.0  332196.60  175200.17  52.74
1080.8  331778.13  174858.78  52.70
1084.6  330842.28  174242.25  52.67
1088.4  330273.03  173841.39  52.64
1092.2  329501.25  173306.25  52.60
1096.0  328989.41  172862.97  52.54
1099.8  328565.47  172461.19  52.49
1103.6  327935.08  171946.29  52.43
1107.4  327131.96  171296.68  52.36
1111.2  326887.70  170972.31  52.30
1114.9  326313.17  170422.00  52.23
1118.7  325774.35  169829.55  52.13
1122.5  325167.27  169144.86  52.02
1126.3  324191.99  168202.66  51.88
1130.1  323746.58  167394.80  51.71
1133.9  322299.60  165859.90  51.46
1137.7  320993.00  164226.67  51.16
1141.4  319382.81  162235.40  50.80
1145.2  318742.00  160602.44  50.39
1149.0  317754.79  158879.17  50.00
1152.8  316277.65  157063.88  49.66
1156.6  314788.83  155527.35  49.41
1160.3  313194.33  154214.24  49.24
1164.1  311034.83  152822.32  49.13
1167.9  309445.83  151858.19  49.07
1171.7  308282.63  151196.63  49.04
1175.4  307211.00  150632.82  49.03
1179.2  306258.45  150117.44  49.02
1183.0  306010.00  149904.67  48.99
1186.7  305565.40  149581.00  48.95
1190.5  304653.73  149036.30  48.92
1194.3  303579.33  148446.54  48.90
1198.0  302476.90  147892.96  48.89
1201.8  301159.25  147245.92  48.89
1205.6  300070.67  146755.53  48.91
1209.3  299206.50  146445.43  48.94
1213.1  298313.03  146129.75  48.99
1216.8  297388.94  145847.10  49.04
1220.6  296357.60  145508.00  49.10
1224.3  295184.83  145104.95  49.16
1228.1  294084.60  144740.63  49.22
1231.9  292946.95  144320.93  49.27
1235.6  291636.90  143785.35  49.30
1239.4  290438.25  143327.36  49.35
1243.1  289300.92  142845.45  49.38
1246.9  288228.77  142357.59  49.39
1250.6  287363.73  141942.33  49.39
1254.3  286410.39  141480.26  49.40
1258.1  285513.32  141023.93  49.39
1261.8  284374.80  140434.49  49.38
1265.6  283095.42  139737.32  49.36
1269.3  281852.03  139007.44  49.32
1273.1  281810.20  138845.66  49.27
1276.8  282030.80  138793.20  49.21
1280.6  281866.73  138555.53  49.16
1284.3  280636.80  137760.00  49.09
1288.0  279372.91  136889.41  49.00
1291.8  278235.99  136017.00  48.89
1295.5  277009.33  135072.88  48.76
1299.2  275882.32  134134.52  48.62
1302.9  274550.58  133029.82  48.45
1306.7  273139.88  131827.38  48.26
1310.4  271787.59  130541.60  48.03
1314.1  270552.33  129263.41  47.78
1317.9  269446.04  127936.85  47.48
1321.6  268193.68  126451.09  47.15
1325.3  266711.55  124766.70  46.78
1329.0  265517.35  123159.65  46.38
1332.8  263648.00  121127.60  45.94
1336.5  262021.80  119195.59  45.49
1340.2  261685.67  117847.17  45.03
1343.9  261324.79  116482.80  44.57
1347.6  260811.45  115051.74  44.11
