/*** Spectra Vista SIG Data ***/
name= 17_20220926_TITO_37_avg.sig
comm= Averaged Ref/Tar of files: HR.092622.0048_moc.sig,HR.092622.0049_moc.sig,HR.092622.0050_moc.sig
data=
337.3  6417.60  548.17  8.54
338.8  6541.60  525.89  8.04
340.3  6900.33  516.74  7.49
341.8  7076.55  495.96  7.01
343.2  7550.13  509.26  6.75
344.7  7900.50  492.35  6.23
346.2  8225.00  482.53  5.87
347.7  8627.35  464.35  5.38
349.2  8920.80  453.60  5.08
350.6  9277.35  477.26  5.14
352.1  9834.25  471.67  4.80
353.6  10320.00  486.19  4.71
355.1  10843.58  487.85  4.50
356.6  11518.28  485.89  4.22
358.0  12031.75  489.71  4.07
359.5  12560.85  487.80  3.88
361.0  13223.90  506.03  3.83
362.5  13784.33  530.61  3.85
364.0  14483.20  543.12  3.75
365.4  15103.73  553.25  3.66
366.9  15764.93  570.64  3.62
368.4  16462.60  584.39  3.55
369.9  17225.00  614.80  3.57
371.3  18121.13  658.31  3.63
372.8  18857.85  678.81  3.60
374.3  19672.40  680.29  3.46
375.8  20496.10  690.25  3.37
377.2  21270.60  702.00  3.30
378.7  22176.18  709.36  3.20
380.2  22988.10  717.06  3.12
381.7  23948.50  745.53  3.11
383.1  24886.20  773.30  3.11
384.6  25866.90  778.11  3.01
386.1  26731.58  808.45  3.02
387.6  27601.88  820.17  2.97
389.0  28728.90  831.81  2.90
390.5  29758.30  860.15  2.89
392.0  30843.00  890.10  2.89
393.4  31955.25  904.20  2.83
394.9  32932.30  936.56  2.84
396.4  34104.40  958.03  2.81
397.9  35220.30  975.28  2.77
399.3  36155.23  1006.23  2.78
400.8  37382.40  1025.42  2.74
402.2  38614.95  1046.32  2.71
403.7  39813.60  1076.72  2.70
405.2  40982.90  1112.55  2.71
406.6  42219.60  1147.60  2.72
408.1  43276.58  1168.13  2.70
409.6  44486.00  1192.00  2.68
411.0  45760.55  1212.53  2.65
412.5  47119.10  1248.94  2.65
414.0  48504.23  1281.79  2.64
415.4  49806.90  1310.64  2.63
416.9  51109.05  1350.90  2.64
418.4  52453.30  1399.72  2.67
419.8  53838.05  1428.14  2.65
421.3  55266.75  1464.54  2.65
422.7  56784.00  1505.23  2.65
424.2  58306.73  1533.87  2.63
425.7  59739.63  1572.82  2.63
427.1  61215.80  1616.87  2.64
428.6  62692.20  1657.38  2.64
430.0  64264.20  1702.73  2.65
431.5  65920.08  1735.50  2.63
432.9  67589.25  1778.17  2.63
434.4  69284.78  1818.76  2.63
435.9  70920.70  1857.25  2.62
437.3  72606.38  1909.90  2.63
438.8  74253.15  1958.36  2.64
440.2  75956.48  2012.99  2.65
441.7  77852.78  2056.72  2.64
443.1  79694.55  2113.56  2.65
444.6  81470.53  2161.07  2.65
446.0  83274.08  2213.29  2.66
447.5  85200.00  2266.67  2.66
448.9  86963.33  2326.33  2.68
450.4  88875.00  2386.67  2.69
451.8  90701.25  2445.50  2.70
453.3  92531.78  2493.80  2.70
454.7  94377.60  2552.67  2.70
456.2  96170.20  2609.51  2.71
457.6  98085.60  2660.76  2.71
459.1  99915.90  2723.42  2.73
460.5  101776.33  2782.21  2.73
462.0  103825.80  2836.20  2.73
463.4  105805.70  2896.18  2.74
464.8  107822.93  2952.39  2.74
466.3  109762.05  3007.13  2.74
467.7  111792.00  3068.16  2.74
469.2  113677.05  3124.06  2.75
470.6  115715.25  3186.28  2.75
472.0  117776.45  3246.51  2.76
473.5  119764.53  3305.73  2.76
474.9  121936.30  3364.77  2.76
476.4  124043.60  3432.37  2.77
477.8  126168.00  3505.60  2.78
479.2  128270.43  3575.99  2.79
480.7  130419.45  3644.21  2.79
482.1  132643.75  3712.16  2.80
483.6  134868.60  3786.96  2.81
485.0  137133.45  3864.28  2.82
486.4  139252.00  3945.47  2.83
487.9  141532.50  4030.33  2.85
489.3  143716.80  4112.15  2.86
490.7  145948.50  4210.60  2.88
492.2  148202.63  4297.87  2.90
493.6  150471.10  4414.80  2.93
495.0  152798.10  4531.54  2.97
496.5  155017.80  4664.52  3.01
497.9  157339.38  4793.48  3.05
499.3  159637.75  4952.38  3.10
500.7  161960.90  5127.96  3.17
502.2  164354.18  5332.64  3.24
503.6  166662.00  5557.28  3.33
505.0  168958.63  5808.51  3.44
506.5  171442.75  6102.09  3.56
507.9  173913.88  6442.32  3.70
509.3  176250.60  6831.33  3.88
510.7  178952.48  7291.18  4.07
512.2  181613.70  7795.70  4.29
513.6  184454.43  8369.25  4.54
515.0  187214.65  9015.46  4.82
516.4  190046.40  9739.79  5.12
517.8  192875.50  10536.67  5.46
519.3  195812.80  11398.61  5.82
520.7  198534.60  12307.01  6.20
522.1  201179.55  13253.72  6.59
523.5  203762.70  14224.40  6.98
524.9  206649.38  15221.60  7.37
526.3  209278.35  16191.72  7.74
527.8  212111.25  17171.18  8.10
529.2  214790.40  18151.68  8.45
530.6  217564.20  19117.08  8.79
532.0  220520.63  20037.03  9.09
533.4  222981.05  20850.27  9.35
534.8  225469.20  21619.40  9.59
536.3  228537.33  22392.62  9.80
537.7  231611.75  23121.57  9.98
539.1  234521.63  23813.57  10.15
540.5  237405.75  24477.60  10.31
541.9  240332.33  25132.97  10.46
543.3  242869.30  25740.15  10.60
544.7  245806.00  26391.20  10.74
546.1  248616.90  27023.73  10.87
547.5  251532.00  27653.76  10.99
549.0  254696.80  28277.97  11.10
550.4  257595.98  28850.64  11.20
551.8  260493.20  29366.31  11.27
553.2  263404.80  29821.34  11.32
554.6  266284.05  30184.61  11.34
556.0  269225.25  30470.30  11.32
557.4  272331.50  30688.45  11.27
558.8  275184.18  30801.39  11.19
560.2  278380.00  30869.33  11.09
561.6  281331.05  30821.82  10.96
563.0  284115.00  30668.30  10.79
564.4  287285.60  30498.72  10.62
565.8  290308.20  30241.46  10.42
567.2  293481.63  29937.40  10.20
568.6  296507.25  29574.00  9.97
570.0  299383.50  29129.97  9.73
571.4  302807.08  28712.74  9.48
572.8  305934.40  28259.41  9.24
574.2  308819.18  27807.43  9.00
575.6  311875.75  27408.97  8.79
577.0  314903.88  27054.87  8.59
578.4  318325.00  26775.00  8.41
579.8  321389.93  26501.77  8.25
581.2  324471.75  26269.83  8.10
582.5  327375.00  26055.00  7.96
583.9  330398.50  25887.08  7.84
585.3  333309.50  25730.44  7.72
586.7  336289.80  25613.28  7.62
588.1  339271.30  25530.59  7.53
589.5  342652.50  25496.80  7.44
590.9  345605.45  25460.98  7.37
592.3  348557.85  25464.93  7.31
593.7  351496.25  25499.09  7.25
595.0  354461.40  25547.92  7.21
596.4  357752.25  25637.83  7.17
597.8  360410.90  25672.28  7.12
599.2  363569.70  25731.94  7.08
600.6  366771.08  25765.96  7.03
602.0  369739.80  25755.28  6.97
603.3  372606.00  25712.27  6.90
604.7  375620.68  25620.08  6.82
606.1  378671.93  25486.60  6.73
607.5  381980.43  25328.17  6.63
608.9  385034.65  25117.40  6.52
610.2  388255.73  24901.80  6.41
611.6  391187.50  24643.67  6.30
613.0  393972.25  24383.21  6.19
614.4  396786.33  24116.03  6.08
615.8  400031.60  23892.49  5.97
617.1  402770.75  23663.84  5.88
618.5  405994.28  23505.58  5.79
619.9  408720.90  23355.48  5.71
621.3  411660.60  23267.27  5.65
622.6  414618.75  23228.40  5.60
624.0  417327.38  23222.05  5.56
625.4  420448.50  23278.05  5.54
626.8  423423.00  23376.86  5.52
628.1  426256.60  23487.10  5.51
629.5  429069.55  23608.43  5.50
630.9  431999.55  23726.70  5.49
632.2  435104.28  23818.84  5.47
633.6  437622.90  23822.20  5.44
635.0  440611.95  23750.79  5.39
636.3  443616.10  23585.21  5.32
637.7  446355.05  23300.84  5.22
639.1  449368.70  22939.25  5.10
640.4  452095.75  22483.97  4.97
641.8  454928.40  21983.76  4.83
643.2  457545.65  21444.03  4.69
644.5  460390.00  20920.67  4.54
645.9  463155.70  20394.59  4.40
647.2  466221.53  19935.81  4.28
648.6  469208.40  19550.03  4.17
650.0  472042.80  19248.24  4.08
651.3  474369.30  19013.36  4.01
652.7  477457.50  18838.70  3.95
654.0  480376.75  18691.79  3.89
655.4  482680.28  18499.04  3.83
656.8  484336.13  18272.45  3.77
658.1  486907.05  18028.43  3.70
659.5  490190.40  17769.60  3.63
660.8  493439.10  17489.78  3.54
662.2  496213.00  17181.45  3.46
663.5  499045.28  16879.49  3.38
664.9  501128.00  16597.04  3.31
666.2  503236.50  16365.83  3.25
667.6  505775.25  16210.80  3.21
668.9  508593.60  16139.52  3.17
670.3  511198.63  16086.70  3.15
671.6  513718.40  16100.69  3.13
673.0  516008.00  16179.84  3.14
674.3  518406.35  16296.28  3.14
675.7  520924.50  16468.80  3.16
677.0  523294.43  16681.69  3.19
678.4  525558.80  16936.27  3.22
679.7  527981.40  17250.32  3.27
681.1  530543.88  17657.99  3.33
682.4  532780.88  18170.40  3.41
683.8  535196.25  18825.80  3.52
685.1  537459.45  19679.82  3.66
686.4  539680.70  20816.34  3.86
687.8  542228.55  22384.46  4.13
689.1  544638.50  24469.95  4.49
690.5  546594.60  27224.03  4.98
691.8  549315.53  30878.76  5.62
693.1  551797.50  35496.00  6.43
694.5  554116.00  41107.13  7.42
695.8  556563.20  47685.44  8.57
697.1  558835.60  55120.27  9.86
698.5  561148.38  63372.58  11.29
699.8  563573.60  72288.80  12.83
701.1  565472.78  81653.74  14.44
702.5  567561.88  91394.02  16.10
703.8  570027.03  101368.95  17.78
705.1  571910.10  111280.97  19.46
706.5  574275.90  121247.51  21.11
707.8  576104.75  131025.47  22.74
709.1  578428.10  140772.06  24.34
710.5  580579.35  150358.03  25.90
711.8  582521.00  159736.40  27.42
713.1  584499.00  168961.33  28.91
714.4  586645.88  178089.08  30.36
715.8  589007.55  187106.31  31.77
717.1  591284.45  195929.77  33.14
718.4  593516.63  204563.81  34.47
719.7  595747.58  212961.99  35.75
721.0  597511.20  220973.52  36.98
722.4  599401.80  228801.66  38.17
723.7  601402.75  236398.27  39.31
725.0  603205.08  243621.50  40.39
726.3  605540.00  250767.23  41.41
727.6  607242.75  257381.60  42.39
729.0  609142.80  263718.89  43.29
730.3  611154.00  269795.30  44.15
731.6  612750.30  275338.77  44.93
732.9  614741.40  280789.73  45.68
734.2  616464.75  285814.10  46.36
735.5  618237.95  290589.64  47.00
736.8  620278.93  295204.35  47.59
738.1  622141.43  299441.25  48.13
739.5  623965.50  303409.68  48.63
740.8  625944.28  307194.95  49.08
742.1  627527.55  310638.82  49.50
743.4  629336.40  314000.07  49.89
744.7  631316.00  317232.53  50.25
746.0  632889.08  320033.75  50.57
747.3  634569.60  322698.79  50.85
748.6  636202.90  325206.03  51.12
749.9  638048.93  327671.31  51.36
751.2  639481.38  329753.88  51.57
752.5  641112.58  331874.44  51.77
753.8  642489.75  333765.84  51.95
755.1  644106.05  335637.18  52.11
756.4  645295.45  337164.42  52.25
757.7  647384.38  339044.57  52.37
759.0  651048.35  341705.71  52.49
760.3  653808.65  343811.01  52.59
761.6  656695.48  345938.20  52.68
762.9  658193.25  347267.43  52.76
764.2  658977.00  348189.29  52.84
765.5  659942.73  349102.82  52.90
766.8  660601.35  349826.21  52.96
768.1  661770.90  350781.06  53.01
769.3  663139.45  351807.85  53.05
770.6  664544.00  352885.98  53.10
771.9  665801.68  353823.83  53.14
773.2  667233.45  354879.72  53.19
774.5  668322.75  355655.50  53.22
775.8  669539.05  356493.15  53.24
777.1  670785.08  357402.29  53.28
778.4  672138.00  358319.93  53.31
779.6  673548.60  359249.20  53.34
780.9  674280.45  359835.48  53.37
782.2  675342.68  360553.90  53.39
783.5  676370.00  361280.37  53.41
784.8  677286.75  361936.05  53.44
786.0  678231.85  362569.87  53.46
787.3  679103.43  363232.86  53.49
788.6  680074.63  363929.02  53.51
789.9  680849.00  364490.84  53.53
791.2  682301.10  365392.27  53.55
792.4  683538.63  366191.10  53.57
793.7  685260.45  367202.10  53.59
795.0  686324.40  367959.41  53.61
796.2  687817.45  368868.38  53.63
797.5  689084.38  369691.67  53.65
798.8  690627.88  370629.82  53.67
800.0  691880.00  371410.67  53.68
801.3  693228.38  372244.95  53.70
802.6  694368.00  372979.20  53.71
803.8  695524.73  373748.76  53.74
805.1  696641.25  374477.30  53.75
806.4  697668.30  375142.62  53.77
807.7  698842.03  375899.97  53.79
808.9  700127.23  376676.46  53.80
810.2  701087.10  377331.92  53.82
811.4  702186.80  378061.39  53.84
812.7  703558.35  378968.10  53.86
814.0  704931.15  379811.74  53.88
815.2  706286.40  380690.12  53.90
816.5  707560.00  381444.00  53.91
817.7  708458.25  382034.43  53.92
819.0  709247.00  382535.07  53.94
820.2  710142.75  383151.08  53.95
821.5  711180.00  383885.01  53.98
822.7  712243.70  384566.47  53.99
824.0  713222.90  385228.31  54.01
825.2  713953.50  385724.30  54.03
826.5  714810.10  386281.57  54.04
827.7  715743.30  386947.54  54.06
829.0  716751.60  387562.58  54.07
830.2  717740.60  388158.48  54.08
831.5  718785.68  388738.89  54.08
832.7  719609.85  389358.00  54.11
834.0  720202.05  389829.15  54.13
835.2  721225.75  390507.76  54.15
836.4  721987.60  391007.36  54.16
837.7  722688.75  391561.50  54.18
838.9  723934.95  392342.39  54.20
840.1  724876.35  392924.18  54.21
841.4  725907.20  393604.01  54.22
842.6  726702.90  394162.25  54.24
843.8  727405.90  394722.12  54.26
845.1  728321.55  395264.10  54.27
846.3  729222.90  395863.86  54.29
847.5  730037.75  396504.33  54.31
848.8  730835.40  397053.06  54.33
850.0  732029.40  397794.16  54.34
851.2  732921.45  398362.30  54.35
852.5  734002.50  399094.00  54.37
853.7  734743.58  399598.74  54.39
854.9  735820.80  400311.60  54.40
856.1  736792.45  400967.56  54.42
857.4  737694.15  401487.38  54.42
858.6  738616.20  402058.53  54.43
859.8  739772.40  402764.97  54.44
861.0  740742.45  403418.17  54.46
862.2  741629.70  404052.88  54.48
863.5  742556.73  404620.64  54.49
864.7  743475.00  405202.50  54.50
865.9  744465.38  405790.08  54.51
867.1  745243.75  406197.50  54.51
868.3  746371.40  406904.92  54.52
869.5  747350.80  407624.08  54.54
870.8  748544.40  408282.24  54.54
872.0  749514.75  408876.39  54.55
873.2  750456.70  409394.48  54.55
874.4  751283.45  409889.65  54.56
875.6  752359.88  410562.23  54.57
876.8  753515.40  411349.84  54.59
878.0  754666.85  411952.71  54.59
879.2  755778.35  412574.81  54.59
880.4  756794.00  413229.33  54.60
881.6  757900.60  413817.53  54.60
882.8  759273.25  414536.55  54.60
884.0  760080.43  415049.87  54.61
885.2  761298.25  415783.73  54.62
886.5  762627.43  416528.65  54.62
887.7  763651.90  417086.10  54.62
888.8  765174.65  417915.64  54.62
890.0  766237.50  418460.00  54.61
891.2  767247.00  419105.57  54.62
892.4  768735.83  419841.73  54.61
893.6  770542.78  420874.72  54.62
894.8  772065.75  421777.38  54.63
896.0  773708.58  422621.12  54.62
897.2  775437.30  423643.77  54.63
898.4  777522.90  424728.08  54.63
899.6  778771.60  425441.57  54.63
900.8  779544.35  425750.61  54.62
902.0  779976.05  426128.41  54.63
903.2  780337.10  426264.45  54.63
904.3  781413.75  426933.00  54.64
905.5  782520.75  427620.60  54.65
906.7  784095.85  428349.50  54.63
907.9  785205.03  428905.72  54.62
909.1  785888.95  429513.70  54.65
910.2  786476.25  429754.50  54.64
911.4  786646.58  429909.09  54.65
912.6  787397.50  430162.67  54.63
913.8  788590.25  430784.34  54.63
915.0  789101.60  430996.45  54.62
916.2  789282.00  431170.59  54.63
917.3  790045.65  431590.46  54.63
918.5  790507.95  431794.28  54.62
919.7  790614.75  431890.93  54.63
920.8  791212.18  431937.53  54.59
922.0  791252.28  432016.38  54.60
923.2  791865.83  432221.08  54.58
924.4  792807.25  432493.97  54.55
925.5  793256.20  432872.27  54.57
926.7  794243.25  433389.22  54.57
927.9  795534.40  434190.65  54.58
929.0  799024.50  435720.96  54.53
930.2  803335.20  438051.84  54.53
931.4  808744.85  440650.47  54.49
932.5  813357.05  442970.29  54.46
933.7  816061.05  444448.55  54.46
934.9  817792.50  445221.00  54.44
936.0  816748.20  444528.12  54.43
937.2  814102.60  442762.21  54.39
938.3  810095.00  440486.37  54.37
939.5  808212.60  439099.44  54.33
940.7  808028.38  438942.61  54.32
941.8  811256.55  440406.46  54.29
943.0  813550.65  441265.66  54.24
944.2  815448.00  442128.00  54.22
945.3  814851.60  441569.84  54.19
946.5  813076.25  440513.50  54.18
947.6  814492.00  440672.83  54.10
948.8  813555.83  439758.50  54.05
949.9  814227.40  439693.36  54.00
951.1  814411.05  439346.97  53.95
952.2  813813.15  438677.80  53.90
953.4  813522.15  437988.44  53.84
954.5  812285.25  436712.50  53.76
955.7  812416.50  436097.15  53.68
956.8  812603.20  435898.57  53.64
958.0  812216.25  435140.22  53.57
959.1  811490.40  434609.28  53.56
960.3  811687.50  434133.33  53.49
961.4  812356.00  434264.11  53.46
962.6  811879.20  433838.40  53.44
963.7  812464.80  433841.71  53.40
964.9  812756.45  433874.97  53.38
966.0  813351.35  434133.42  53.38
967.2  813968.40  434329.84  53.36
968.3  815784.75  435085.20  53.33
969.5  815796.00  435242.27  53.35
970.6  816563.25  435344.31  53.31
971.8  816045.13  435224.07  53.33
972.9  816581.50  435594.60  53.34
974.0  818306.43  436165.48  53.30
975.2  817104.38  435604.50  53.31
976.3  818524.90  436158.23  53.29
977.5  817680.38  435891.46  53.31
978.6  819277.20  435972.51  53.21
979.7  818417.60  435799.47  53.25
980.9  819507.45  436092.85  53.21
982.0  818822.05  436184.59  53.27
983.2  819677.60  436329.23  53.23
984.3  817592.65  435606.87  53.28
985.4  817806.50  435379.00  53.24
986.6  818170.35  436023.91  53.29
987.7  818618.25  435713.32  53.23
988.9  819775.40  436464.89  53.24
990.0  819726.10  436595.39  53.26
993.1  835050.00  444383.33  53.22
996.9  836601.10  446297.69  53.35
1000.7  837167.75  447712.98  53.48
1004.5  836509.20  448392.50  53.60
1008.4  837557.96  449931.14  53.72
1012.2  839122.17  451689.31  53.83
1016.0  839663.68  452798.74  53.93
1019.8  839349.28  453423.47  54.02
1023.7  839229.30  454093.91  54.11
1027.5  838263.87  454201.11  54.18
1031.3  837919.58  454547.05  54.25
1035.1  837548.40  454870.77  54.31
1038.9  837424.17  455255.73  54.36
1042.7  837108.20  455492.04  54.41
1046.5  836349.50  455407.17  54.45
1050.3  834844.98  454863.60  54.48
1054.2  832951.90  454077.37  54.51
1058.0  831880.80  453750.40  54.55
1061.8  830708.17  453234.76  54.56
1065.6  829130.38  452405.56  54.56
1069.4  827679.98  451684.09  54.57
1073.2  826683.00  451095.67  54.57
1077.0  825522.13  450347.50  54.55
1080.8  824378.50  449584.26  54.54
1084.6  822954.00  448619.52  54.51
1088.4  821356.27  447552.19  54.49
1092.2  819780.03  446436.15  54.46
1096.0  818391.60  445436.35  54.43
1099.8  817135.88  444385.28  54.38
1103.6  815548.78  443164.60  54.34
1107.4  814245.30  442043.01  54.29
1111.2  812858.70  440862.69  54.24
1114.9  811615.50  439752.33  54.18
1118.7  810820.17  438659.78  54.10
1122.5  810509.27  437691.63  54.00
1126.3  807915.15  435202.60  53.87
1130.1  807266.23  433194.87  53.66
1133.9  803917.88  429079.49  53.37
1137.7  801454.80  424765.78  53.00
1141.4  797936.65  419406.38  52.56
1145.2  797210.40  415276.52  52.09
1149.0  795385.20  410747.60  51.64
1152.8  792269.60  406128.12  51.26
1156.6  788875.79  402241.85  50.99
1160.3  785728.65  399198.13  50.81
1164.1  780972.13  395954.45  50.70
1167.9  777782.42  393880.01  50.64
1171.7  775323.93  392310.36  50.60
1175.4  773247.26  391076.95  50.58
1179.2  771645.75  390003.00  50.54
1183.0  771867.13  389851.47  50.51
1186.7  771458.33  389405.33  50.48
1190.5  769484.58  388219.89  50.45
1194.3  766525.32  386589.00  50.43
1198.0  763764.83  385202.73  50.43
1201.8  761427.33  384190.07  50.46
1205.6  759686.83  383659.63  50.50
1209.3  758172.00  383429.83  50.57
1213.1  756316.83  383104.25  50.65
1216.8  754043.60  382646.13  50.75
1220.6  751721.83  382180.81  50.84
1224.3  749329.17  381649.08  50.93
1228.1  747423.13  381407.31  51.03
1231.9  745358.25  380956.04  51.11
1235.6  743128.10  380352.56  51.18
1239.4  740964.55  379744.87  51.25
1243.1  738854.10  379092.60  51.31
1246.9  736958.20  378412.08  51.35
1250.6  735023.50  377643.52  51.38
1254.3  733176.00  376883.20  51.40
1258.1  731308.67  376067.26  51.42
1261.8  729022.00  374952.51  51.43
1265.6  726557.15  373624.65  51.42
1269.3  723731.87  372010.16  51.40
1273.1  723913.27  371895.81  51.37
1276.8  724488.73  371889.97  51.33
1280.6  724723.78  371541.66  51.27
1284.3  722692.00  369918.02  51.19
1288.0  720664.64  368135.54  51.08
1291.8  718426.80  366105.60  50.96
1295.5  716124.74  363931.91  50.82
1299.2  713657.10  361525.67  50.66
1302.9  710947.60  358757.14  50.46
1306.7  708017.63  355689.25  50.24
1310.4  705170.32  352339.05  49.97
1314.1  702881.25  349022.08  49.66
1317.9  700536.96  345351.91  49.30
1321.6  697899.48  341288.76  48.90
1325.3  695179.80  336865.35  48.46
1329.0  692543.13  332303.48  47.98
1332.8  688641.25  326942.78  47.48
1336.5  685006.25  321643.30  46.95
