/*** Spectra Vista SIG Data ***/
name= 59_20220722_ACRU_27_avg.sig
comm= Averaged Ref/Tar of files: HR.072222.0051_moc.sig,HR.072222.0052_moc.sig,HR.072222.0053_moc.sig
data=
337.3  3076.75  308.15  10.02
338.8  3174.60  292.26  9.21
340.3  3326.35  297.16  8.93
341.8  3520.83  300.48  8.53
343.2  3685.20  293.46  7.96
344.7  3838.50  291.64  7.60
346.2  4003.30  280.89  7.02
347.7  4168.45  271.90  6.52
349.2  4347.00  264.96  6.10
350.6  4590.63  284.01  6.19
352.1  4822.88  289.20  6.00
353.6  5066.20  293.46  5.79
355.1  5320.65  296.98  5.58
356.6  5571.75  297.78  5.34
358.0  5837.70  291.05  4.99
359.5  6118.20  301.35  4.93
361.0  6403.95  312.36  4.88
362.5  6733.25  320.07  4.75
364.0  7054.05  338.09  4.79
365.4  7390.30  337.74  4.57
366.9  7735.00  349.39  4.52
368.4  8046.13  355.87  4.42
369.9  8377.75  366.00  4.37
371.3  8784.30  387.02  4.41
372.8  9159.75  404.07  4.41
374.3  9567.50  410.04  4.29
375.8  9944.55  410.15  4.12
377.2  10329.60  420.15  4.07
378.7  10706.20  429.89  4.02
380.2  11082.80  443.21  4.00
381.7  11566.70  446.30  3.86
383.1  12046.65  454.81  3.78
384.6  12543.38  471.16  3.76
386.1  12999.03  475.64  3.66
387.6  13448.05  485.10  3.61
389.0  13909.20  499.25  3.59
390.5  14363.55  511.28  3.56
392.0  14944.25  522.45  3.50
393.4  15502.25  541.52  3.49
394.9  16025.40  549.84  3.43
396.4  16534.13  555.45  3.36
397.9  17040.63  574.49  3.37
399.3  17550.23  584.65  3.33
400.8  18095.55  600.10  3.32
402.2  18682.55  606.50  3.25
403.7  19260.00  627.33  3.26
405.2  19815.98  642.61  3.24
406.6  20346.40  655.79  3.22
408.1  20905.00  671.54  3.21
409.6  21489.05  681.91  3.17
411.0  22097.25  699.87  3.17
412.5  22720.08  719.16  3.17
414.0  23329.38  736.60  3.16
415.4  23969.25  759.04  3.17
416.9  24614.18  776.14  3.15
418.4  25267.28  793.95  3.14
419.8  25916.80  812.24  3.13
421.3  26594.90  838.96  3.15
422.7  27318.00  861.38  3.15
424.2  28046.25  887.14  3.16
425.7  28769.50  910.63  3.17
427.1  29481.98  937.44  3.18
428.6  30194.00  960.70  3.18
430.0  30896.30  989.99  3.20
431.5  31700.70  1021.44  3.22
432.9  32523.00  1049.50  3.23
434.4  33348.60  1072.06  3.21
435.9  34132.00  1099.47  3.22
437.3  34897.50  1130.64  3.24
438.8  35675.10  1161.50  3.26
440.2  36490.30  1192.47  3.27
441.7  37386.00  1229.99  3.29
443.1  38239.50  1255.60  3.28
444.6  39142.80  1288.54  3.29
446.0  40001.93  1319.50  3.30
447.5  40881.78  1357.49  3.32
448.9  41757.30  1394.43  3.34
450.4  42696.15  1430.91  3.35
451.8  43498.00  1460.46  3.36
453.3  44363.48  1491.30  3.36
454.7  45308.83  1530.06  3.38
456.2  46115.58  1557.28  3.38
457.6  47006.78  1595.53  3.39
459.1  47930.03  1627.93  3.40
460.5  48805.38  1658.75  3.40
462.0  49785.53  1694.36  3.40
463.4  50731.10  1731.16  3.41
464.8  51656.63  1766.49  3.42
466.3  52593.75  1800.81  3.42
467.7  53527.23  1833.24  3.42
469.2  54526.55  1864.87  3.42
470.6  55427.25  1899.56  3.43
472.0  56398.53  1933.50  3.43
473.5  57333.38  1971.58  3.44
474.9  58282.50  2006.94  3.44
476.4  59371.20  2049.46  3.45
477.8  60363.50  2085.24  3.45
479.2  61335.00  2120.59  3.46
480.7  62372.78  2159.39  3.46
482.1  63421.05  2199.98  3.47
483.6  64533.70  2246.22  3.48
485.0  65557.28  2287.33  3.49
486.4  66668.10  2337.98  3.51
487.9  67669.88  2383.74  3.52
489.3  68765.75  2440.70  3.55
490.7  69796.50  2492.59  3.57
492.2  70942.20  2556.68  3.60
493.6  71990.10  2620.82  3.64
495.0  73022.63  2684.31  3.68
496.5  74123.43  2761.14  3.73
497.9  75165.35  2841.36  3.78
499.3  76251.30  2932.48  3.85
500.7  77410.60  3039.39  3.93
502.2  78489.60  3155.82  4.02
503.6  79643.00  3290.42  4.13
505.0  80662.90  3438.42  4.26
506.5  81868.28  3617.76  4.42
507.9  83005.18  3818.64  4.60
509.3  84300.80  4056.89  4.81
510.7  85483.13  4324.82  5.06
512.2  86792.10  4640.27  5.35
513.6  88166.40  5006.92  5.68
515.0  89489.48  5412.54  6.05
516.4  90762.53  5868.99  6.47
517.8  92264.50  6388.00  6.92
519.3  93458.00  6931.87  7.42
520.7  94907.75  7534.81  7.94
522.1  96120.05  8151.02  8.48
523.5  97397.30  8800.95  9.04
524.9  98738.10  9453.05  9.57
526.3  100019.50  10095.29  10.09
527.8  101395.80  10732.45  10.58
529.2  102467.30  11337.34  11.06
530.6  103967.75  11963.50  11.51
532.0  105588.00  12555.20  11.89
533.4  106753.80  13049.58  12.22
534.8  107506.03  13456.50  12.52
536.3  109069.50  13921.43  12.76
537.7  111018.60  14399.52  12.97
539.1  112391.68  14782.49  13.15
540.5  113450.75  15110.47  13.32
541.9  115077.08  15497.47  13.47
543.3  116224.58  15824.02  13.62
544.7  117397.20  16149.35  13.76
546.1  119018.90  16526.57  13.89
547.5  120220.80  16831.79  14.00
549.0  121825.00  17177.39  14.10
550.4  123207.50  17462.44  14.17
551.8  124616.00  17719.49  14.22
553.2  126035.20  17930.01  14.23
554.6  127275.20  18062.92  14.19
556.0  128702.25  18162.97  14.11
557.4  130187.93  18218.41  13.99
558.8  131672.70  18226.05  13.84
560.2  132986.75  18157.83  13.65
561.6  134513.78  18069.60  13.43
563.0  135975.98  17921.83  13.18
564.4  137455.95  17734.05  12.90
565.8  138858.13  17495.02  12.60
567.2  140470.25  17239.52  12.27
568.6  141842.63  16925.02  11.93
570.0  143157.90  16573.50  11.58
571.4  144743.95  16234.66  11.22
572.8  146360.50  15906.00  10.87
574.2  147862.40  15577.60  10.54
575.6  149276.25  15266.14  10.23
577.0  150685.50  14989.40  9.95
578.4  152277.13  14758.03  9.69
579.8  153650.25  14534.34  9.46
581.2  155243.90  14358.07  9.25
582.5  156534.30  14178.39  9.06
583.9  157943.00  14028.29  8.88
585.3  159616.13  13924.99  8.72
586.7  160978.68  13815.01  8.58
588.1  162341.63  13730.35  8.46
589.5  163856.00  13677.07  8.35
590.9  165354.00  13645.67  8.25
592.3  167027.95  13645.79  8.17
593.7  168362.03  13635.16  8.10
595.0  169879.95  13652.40  8.04
596.4  171199.00  13664.10  7.98
597.8  172563.85  13669.23  7.92
599.2  173989.20  13672.43  7.86
600.6  175596.85  13670.18  7.78
602.0  176793.83  13610.14  7.70
603.3  178467.05  13556.97  7.60
604.7  180004.03  13468.18  7.48
606.1  181387.20  13336.32  7.35
607.5  182890.95  13197.19  7.22
608.9  184448.40  13032.51  7.07
610.2  185735.03  12840.39  6.91
611.6  187199.10  12657.84  6.76
613.0  188630.30  12478.47  6.62
614.4  189921.15  12288.79  6.47
615.8  191280.38  12117.58  6.33
617.1  192687.60  11975.32  6.21
618.5  194190.80  11861.71  6.11
619.9  195592.13  11766.87  6.02
621.3  197090.55  11706.53  5.94
622.6  198555.00  11670.75  5.88
624.0  199892.10  11650.48  5.83
625.4  201267.00  11651.45  5.79
626.8  202725.25  11681.06  5.76
628.1  203948.25  11710.74  5.74
629.5  205670.15  11782.48  5.73
630.9  207154.48  11842.83  5.72
632.2  208436.03  11869.57  5.69
633.6  209935.38  11891.60  5.66
635.0  211353.60  11870.29  5.62
636.3  212772.70  11808.49  5.55
637.7  214042.63  11691.55  5.46
639.1  215582.50  11548.33  5.36
640.4  216925.28  11365.53  5.24
641.8  218035.40  11146.57  5.11
643.2  219508.45  10927.61  4.98
644.5  220770.25  10704.23  4.85
645.9  222377.85  10503.85  4.72
647.2  224112.18  10329.20  4.61
648.6  225848.25  10190.57  4.51
650.0  227167.20  10061.07  4.43
651.3  227565.25  9924.31  4.36
652.7  228679.05  9830.28  4.30
654.0  230717.50  9774.16  4.24
655.4  232100.03  9674.39  4.17
656.8  232107.50  9521.03  4.10
658.1  233151.70  9397.37  4.03
659.5  235502.40  9314.66  3.96
660.8  237330.00  9224.57  3.89
662.2  238179.20  9086.72  3.82
663.5  239663.00  8993.32  3.75
664.9  240890.00  8922.93  3.70
666.2  241536.00  8852.51  3.67
667.6  243119.25  8841.13  3.64
668.9  244261.10  8854.68  3.63
670.3  245297.13  8868.60  3.62
671.6  246760.13  8928.81  3.62
673.0  247844.25  9009.30  3.64
674.3  248978.60  9104.36  3.66
675.7  250220.13  9225.25  3.69
677.0  251239.18  9357.90  3.72
678.4  252516.63  9518.58  3.77
679.7  253551.80  9702.33  3.83
681.1  254767.58  9914.41  3.89
682.4  255873.80  10172.74  3.98
683.8  257067.20  10465.72  4.07
685.1  257977.50  10815.12  4.19
686.4  259162.80  11277.60  4.35
687.8  260347.25  11873.45  4.56
689.1  261393.00  12670.21  4.85
690.5  262701.90  13760.36  5.24
691.8  263429.48  15205.09  5.77
693.1  264665.25  17150.58  6.48
694.5  265765.50  19604.43  7.38
695.8  266903.00  22610.90  8.47
697.1  268040.50  26163.80  9.76
698.5  269040.40  30236.40  11.24
699.8  270081.93  34771.36  12.87
701.1  271147.65  39670.88  14.63
702.5  271907.90  44768.84  16.46
703.8  272812.50  50043.43  18.34
705.1  273876.53  55401.71  20.23
706.5  274899.25  60727.45  22.09
707.8  275821.35  65990.40  23.93
709.1  276673.73  71117.67  25.70
710.5  277745.33  76194.16  27.43
711.8  278549.30  81076.00  29.11
713.1  279508.20  85870.72  30.72
714.4  280355.60  90488.73  32.28
715.8  281136.10  94952.55  33.77
717.1  282392.25  99417.91  35.21
718.4  283292.80  103616.00  36.58
719.7  284353.70  107718.18  37.88
721.0  284850.00  111460.71  39.13
722.4  285595.75  115120.97  40.31
723.7  286499.85  118678.67  41.42
725.0  287516.70  122108.13  42.47
726.3  288416.70  125324.03  43.45
727.6  288964.50  128234.33  44.38
729.0  289817.85  131121.83  45.24
730.3  290552.48  133781.39  46.04
731.6  291412.20  136334.54  46.78
732.9  292171.08  138696.83  47.47
734.2  292958.88  140922.31  48.10
735.5  293944.88  143105.49  48.68
736.8  294685.80  145046.26  49.22
738.1  295475.70  146883.48  49.71
739.5  296385.50  148661.51  50.16
740.8  297077.55  150202.84  50.56
742.1  297795.50  151683.40  50.94
743.4  298500.00  153065.71  51.28
744.7  299481.80  154477.64  51.58
746.0  300321.45  155744.61  51.86
747.3  300837.65  156775.52  52.11
748.6  301558.25  157813.17  52.33
749.9  302276.00  158772.34  52.53
751.2  303000.05  159679.87  52.70
752.5  303889.15  160605.83  52.85
753.8  304477.78  161338.19  52.99
755.1  305162.00  162058.74  53.11
756.4  305725.75  162676.23  53.21
757.7  306642.00  163447.54  53.30
759.0  308353.55  164596.59  53.38
760.3  309487.20  165394.74  53.44
761.6  310954.00  166358.43  53.50
762.9  311503.75  166796.70  53.55
764.2  311905.50  167114.58  53.58
765.5  312192.80  167399.54  53.62
766.8  312664.00  167713.13  53.64
768.1  313182.00  168058.55  53.66
769.3  313772.20  168415.89  53.67
770.6  314409.55  168804.69  53.69
771.9  315109.20  169227.64  53.70
773.2  315524.00  169471.73  53.71
774.5  316144.40  169830.61  53.72
775.8  316830.70  170212.25  53.72
777.1  317414.35  170528.06  53.72
778.4  317760.58  170728.89  53.73
779.6  318503.38  171145.79  53.73
780.9  318960.00  171402.86  53.74
782.2  319440.00  171665.58  53.74
783.5  319792.50  171852.10  53.74
784.8  320333.40  172142.65  53.74
786.0  320720.40  172365.11  53.74
787.3  321170.90  172578.92  53.73
788.6  321591.63  172813.39  53.74
789.9  322064.40  173060.59  53.73
791.2  322687.95  173402.00  53.74
792.4  323352.85  173765.06  53.74
793.7  323846.40  174031.81  53.74
795.0  324483.23  174360.47  53.73
796.2  325137.50  174707.22  53.73
797.5  325859.40  175079.48  53.73
798.8  326535.75  175422.51  53.72
800.0  327175.43  175779.90  53.73
801.3  327679.70  176033.23  53.72
802.6  328277.93  176336.19  53.72
803.8  328887.23  176671.18  53.72
805.1  329406.88  176935.68  53.71
806.4  329869.80  177182.42  53.71
807.7  330423.30  177464.29  53.71
808.9  330997.10  177759.64  53.70
810.2  331547.65  178020.20  53.69
811.4  332068.10  178280.02  53.69
812.7  332637.50  178609.17  53.69
814.0  333479.60  179047.18  53.69
815.2  334083.50  179385.04  53.69
816.5  334437.53  179601.11  53.70
817.7  334915.60  179841.86  53.70
819.0  335434.00  180101.49  53.69
820.2  335676.00  180198.02  53.68
821.5  336348.45  180571.40  53.69
822.7  336710.18  180760.22  53.68
824.0  337043.70  180940.42  53.68
825.2  337482.45  181203.36  53.69
826.5  337779.88  181368.51  53.69
827.7  338288.10  181645.19  53.70
829.0  338736.20  181848.20  53.68
830.2  339078.65  182017.44  53.68
831.5  339515.50  182271.85  53.69
832.7  339822.53  182416.26  53.68
834.0  340091.88  182593.19  53.69
835.2  340467.05  182792.00  53.69
836.4  340746.45  182942.74  53.69
837.7  341080.60  183146.45  53.70
838.9  341575.15  183393.46  53.69
840.1  341976.60  183604.06  53.69
841.4  342424.20  183844.44  53.69
842.6  342696.20  184036.30  53.70
843.8  343044.40  184231.70  53.70
845.1  343517.80  184493.71  53.71
846.3  343892.20  184694.74  53.71
847.5  344328.60  184894.72  53.70
848.8  344658.60  185116.31  53.71
850.0  345013.55  185310.35  53.71
851.2  345548.70  185611.19  53.71
852.5  345934.00  185812.30  53.71
853.7  346347.00  186033.34  53.71
854.9  346826.70  186266.02  53.71
856.1  347269.65  186479.34  53.70
857.4  347467.48  186601.43  53.70
858.6  347849.55  186845.69  53.71
859.8  348193.13  187052.18  53.72
861.0  348683.40  187265.52  53.71
862.2  349191.48  187482.31  53.69
863.5  349572.28  187671.20  53.69
864.7  350004.60  187916.46  53.69
865.9  350411.60  188117.91  53.68
867.1  350655.35  188266.14  53.69
868.3  351121.35  188473.73  53.68
869.5  351621.20  188722.97  53.67
870.8  352129.50  188978.31  53.67
872.0  352602.00  189222.38  53.66
873.2  353081.70  189414.76  53.65
874.4  353413.13  189628.75  53.66
875.6  353881.90  189782.45  53.63
876.8  354295.45  190040.59  53.64
878.0  354769.25  190280.27  53.63
879.2  355229.70  190527.93  53.64
880.4  355740.75  190771.72  53.63
881.6  356229.90  190973.57  53.61
882.8  356609.60  191139.09  53.60
884.0  357295.03  191418.15  53.57
885.2  357816.00  191683.80  53.57
886.5  358420.90  191978.62  53.56
887.7  358929.68  192183.66  53.54
888.8  359532.23  192491.15  53.54
890.0  360000.30  192769.70  53.55
891.2  360557.60  193023.78  53.53
892.4  361190.03  193308.00  53.52
893.6  361794.25  193562.56  53.50
894.8  362750.25  194014.20  53.48
896.0  363552.75  194409.01  53.47
897.2  364312.00  194804.44  53.47
898.4  365108.70  195145.53  53.45
899.6  365640.00  195419.54  53.45
900.8  366035.60  195612.57  53.44
902.0  366303.75  195714.43  53.43
903.2  366597.45  195861.79  53.43
904.3  367073.40  196019.94  53.40
905.5  367516.20  196287.55  53.41
906.7  368194.00  196575.51  53.39
907.9  368825.45  196799.03  53.36
909.1  369125.78  196989.42  53.37
910.2  369367.58  197059.20  53.35
911.4  369608.85  197147.56  53.34
912.6  369998.20  197225.87  53.30
913.8  370167.90  197319.61  53.31
915.0  370726.65  197511.44  53.28
916.2  370870.50  197618.94  53.29
917.3  370907.33  197584.76  53.27
918.5  371175.30  197662.79  53.25
919.7  371497.20  197758.49  53.23
920.8  371671.85  197784.10  53.21
922.0  371775.25  197766.80  53.20
923.2  371962.50  197880.80  53.20
924.4  372228.75  197947.41  53.18
925.5  372636.80  198039.46  53.15
926.7  373307.25  198299.90  53.12
927.9  374080.20  198688.66  53.11
929.0  375526.80  199372.83  53.09
930.2  377501.50  200384.93  53.08
931.4  379844.78  201509.85  53.05
932.5  382451.65  202769.52  53.02
933.7  383973.25  203377.60  52.97
934.9  384776.88  203657.25  52.93
936.0  384380.75  203374.32  52.91
937.2  382520.40  202334.32  52.90
938.3  380934.85  201407.79  52.87
939.5  379684.80  200590.63  52.83
940.7  379727.10  200654.78  52.84
941.8  381373.95  201257.58  52.77
943.0  382878.00  201838.91  52.72
944.2  383565.00  202143.10  52.70
945.3  383282.25  201858.99  52.67
946.5  382618.35  201364.53  52.63
947.6  382925.60  201328.35  52.58
948.8  382811.33  201105.99  52.53
949.9  383153.40  201066.00  52.48
951.1  382802.23  200696.88  52.43
952.2  382704.00  200397.94  52.36
953.4  382583.50  200081.12  52.30
954.5  382660.20  199881.46  52.23
955.7  382347.00  199622.16  52.21
956.8  382414.50  199330.77  52.12
958.0  382087.50  198966.07  52.07
959.1  381926.70  198655.20  52.01
960.3  381758.50  198426.81  51.98
961.4  381847.40  198295.27  51.93
962.6  381921.75  198270.97  51.91
963.7  381725.70  198035.69  51.88
964.9  381809.03  197965.49  51.85
966.0  381647.70  197809.21  51.83
967.2  381696.75  197815.65  51.83
968.3  381789.45  197749.54  51.80
969.5  381340.30  197550.36  51.80
970.6  381405.73  197619.89  51.81
971.8  381766.88  197643.31  51.77
972.9  381538.95  197659.24  51.81
974.0  381954.80  197793.37  51.78
975.2  381718.88  197586.10  51.76
976.3  381829.13  197673.61  51.77
977.5  381956.75  197623.45  51.74
978.6  382095.50  197672.26  51.73
979.7  381827.78  197824.77  51.81
980.9  381482.55  197891.66  51.87
982.0  381080.30  197903.95  51.93
983.2  381150.05  197781.50  51.89
984.3  381203.80  197746.40  51.87
985.4  381859.50  197938.77  51.84
986.6  381985.75  197888.62  51.81
987.7  382856.08  198500.02  51.85
988.9  381927.60  198389.62  51.94
990.0  382770.20  198710.61  51.91
993.1  331764.07  170187.60  51.30
996.9  332205.40  170935.64  51.45
1000.7  333137.18  171797.93  51.57
1004.5  333637.83  172412.72  51.68
1008.4  333416.63  172650.12  51.78
1012.2  333489.71  172999.18  51.88
1016.0  333537.00  173366.66  51.98
1019.8  333627.53  173769.75  52.08
1023.7  333583.13  174000.48  52.16
1027.5  333320.28  174095.68  52.23
1031.3  333570.35  174366.10  52.27
1035.1  333453.11  174441.53  52.31
1038.9  333450.15  174509.66  52.33
1042.7  333340.58  174512.81  52.35
1046.5  333246.67  174476.59  52.36
1050.3  333326.66  174515.66  52.36
1054.2  333065.25  174414.17  52.37
1058.0  332636.79  174170.30  52.36
1061.8  332517.61  174114.48  52.36
1065.6  332318.83  173948.77  52.34
1069.4  332309.07  173904.92  52.33
1073.2  331936.07  173687.67  52.33
1077.0  331536.05  173411.53  52.31
1080.8  331053.13  173063.54  52.28
1084.6  330177.52  172433.57  52.22
1088.4  329585.52  172013.73  52.19
1092.2  328857.75  171467.68  52.14
1096.0  328353.79  171034.54  52.09
1099.8  327969.42  170632.49  52.03
1103.6  327374.75  170133.21  51.97
1107.4  326549.03  169484.45  51.90
1111.2  326333.70  169159.94  51.84
1114.9  325792.25  168616.42  51.76
1118.7  325284.30  168024.92  51.65
1122.5  324683.67  167325.60  51.53
1126.3  323685.48  166363.24  51.40
1130.1  323297.92  165554.93  51.21
1133.9  321859.30  164039.50  50.97
1137.7  320581.80  162435.01  50.67
1141.4  318978.94  160479.31  50.31
1145.2  318366.13  158855.52  49.90
1149.0  317358.13  157129.59  49.51
1152.8  315884.85  155313.82  49.17
1156.6  314423.08  153750.85  48.90
1160.3  312878.00  152427.48  48.72
1164.1  310719.80  151025.60  48.61
1167.9  309134.38  150051.04  48.54
1171.7  307975.50  149384.25  48.51
1175.4  306882.93  148818.40  48.49
1179.2  305977.35  148303.68  48.47
1183.0  305726.00  148089.09  48.44
1186.7  305282.60  147763.00  48.40
1190.5  304328.00  147204.88  48.37
1194.3  303302.93  146610.46  48.34
1198.0  302225.83  146063.70  48.33
1201.8  300888.95  145408.53  48.33
1205.6  299780.33  144921.00  48.34
1209.3  298942.30  144627.49  48.38
1213.1  298139.63  144312.15  48.40
1216.8  297262.99  144023.82  48.45
1220.6  296296.00  143698.13  48.50
1224.3  295184.83  143306.06  48.55
1228.1  294084.60  142958.60  48.61
1231.9  292965.98  142554.33  48.66
1235.6  291674.55  142045.38  48.70
1239.4  290475.50  141603.21  48.75
1243.1  289374.48  141132.39  48.77
1246.9  288301.53  140642.37  48.78
1250.6  287435.47  140248.92  48.79
1254.3  286463.47  139791.97  48.80
1258.1  285566.17  139345.32  48.80
1261.8  284427.20  138765.18  48.79
1265.6  283146.97  138075.45  48.76
1269.3  281868.95  137341.54  48.73
1273.1  281810.20  137168.22  48.67
1276.8  282047.20  137129.77  48.62
1280.6  281883.10  136916.52  48.57
1284.3  280636.80  136143.43  48.51
1288.0  279324.18  135281.48  48.43
1291.8  278171.03  134402.11  48.32
1295.5  276977.07  133461.85  48.19
1299.2  275866.41  132527.78  48.04
1302.9  274550.58  131440.01  47.87
1306.7  273155.40  130253.55  47.68
1310.4  271803.00  128983.16  47.45
1314.1  270582.77  127728.70  47.21
1317.9  269491.67  126422.53  46.91
1321.6  268239.26  124962.31  46.59
1325.3  266787.68  123289.88  46.21
1329.0  265578.48  121690.27  45.82
1332.8  263709.60  119666.80  45.38
1336.5  262143.93  117751.80  44.92
1340.2  261822.17  116404.17  44.46
1343.9  261446.46  115031.49  44.00
1347.6  260950.50  113595.02  43.53
