/*** Spectra Vista SIG Data ***/
name= 28_20221021_CECA_17_avg.sig
comm= Averaged Ref/Tar of files: HR.102122.0002_moc.sig,HR.102122.0003_moc.sig,HR.102122.0004_moc.sig
data=
337.3  3126.38  297.75  9.52
338.8  3270.80  282.19  8.63
340.3  3466.90  274.85  7.93
341.8  3658.00  268.25  7.33
343.2  3862.80  266.40  6.90
344.7  4009.10  272.96  6.81
346.2  4166.70  272.33  6.54
347.7  4365.08  272.65  6.25
349.2  4536.00  272.16  6.00
350.6  4810.98  264.42  5.50
352.1  5072.95  271.51  5.35
353.6  5343.80  272.97  5.11
355.1  5657.40  278.38  4.92
356.6  5932.28  284.05  4.79
358.0  6220.50  293.48  4.72
359.5  6489.00  300.76  4.63
361.0  6792.98  303.24  4.46
362.5  7143.10  316.17  4.43
364.0  7512.85  324.98  4.33
365.4  7868.00  329.71  4.19
366.9  8232.25  335.18  4.07
368.4  8537.08  352.76  4.13
369.9  8918.25  367.54  4.12
371.3  9318.30  388.04  4.16
372.8  9717.30  410.64  4.23
374.3  10158.75  408.50  4.02
375.8  10564.40  420.42  3.98
377.2  11002.10  419.64  3.81
378.7  11378.70  423.23  3.72
380.2  11782.20  437.57  3.71
381.7  12269.35  446.81  3.64
383.1  12747.35  463.54  3.64
384.6  13217.75  471.16  3.56
386.1  13674.65  479.24  3.50
387.6  14121.80  485.10  3.44
389.0  14579.20  500.27  3.43
390.5  15053.85  509.76  3.39
392.0  15631.95  525.47  3.36
393.4  16185.40  539.51  3.33
394.9  16730.10  556.80  3.33
396.4  17258.63  562.35  3.26
397.9  17783.75  570.58  3.21
399.3  18309.98  584.16  3.19
400.8  18868.23  604.85  3.21
402.2  19492.70  612.11  3.14
403.7  20102.63  629.16  3.13
405.2  20715.63  643.96  3.11
406.6  21297.60  652.69  3.06
408.1  21899.40  662.93  3.03
409.6  22498.75  681.91  3.03
411.0  23143.40  700.28  3.03
412.5  23802.98  721.93  3.03
414.0  24429.63  741.65  3.04
415.4  25141.88  763.20  3.04
416.9  25809.23  778.71  3.02
418.4  26499.83  801.78  3.03
419.8  27190.80  827.49  3.04
421.3  27896.13  855.60  3.07
422.7  28692.60  886.24  3.09
424.2  29463.75  922.50  3.13
425.7  30236.50  956.27  3.16
427.1  30985.35  989.59  3.19
428.6  31775.00  1025.07  3.23
430.0  32489.68  1062.25  3.27
431.5  33357.38  1100.47  3.30
432.9  34207.75  1134.89  3.32
434.4  35096.25  1172.74  3.34
435.9  35910.00  1209.60  3.37
437.3  36753.75  1250.33  3.40
438.8  37575.60  1288.72  3.43
440.2  38444.18  1324.14  3.44
441.7  39396.00  1370.37  3.48
443.1  40293.25  1406.27  3.49
444.6  41265.00  1449.73  3.51
446.0  42181.73  1492.99  3.54
447.5  43117.80  1530.32  3.55
448.9  44040.60  1573.80  3.57
450.4  45027.15  1617.89  3.59
451.8  45877.00  1655.33  3.61
453.3  46782.35  1694.52  3.62
454.7  47798.90  1740.86  3.64
456.2  48654.78  1775.68  3.65
457.6  49621.95  1816.02  3.66
459.1  50595.03  1851.29  3.66
460.5  51520.50  1884.98  3.66
462.0  52558.15  1931.37  3.67
463.4  53567.00  1972.80  3.68
464.8  54570.38  2014.65  3.69
466.3  55567.05  2053.26  3.70
467.7  56567.43  2090.61  3.70
469.2  57637.13  2130.02  3.70
470.6  58602.55  2171.19  3.70
472.0  59621.70  2208.84  3.70
473.5  60610.38  2250.58  3.71
474.9  61631.25  2297.10  3.73
476.4  62798.40  2342.40  3.73
477.8  63901.50  2385.73  3.73
479.2  64916.50  2426.33  3.74
480.7  66020.48  2476.19  3.75
482.1  67134.70  2520.08  3.75
483.6  68290.70  2572.10  3.77
485.0  69364.20  2622.87  3.78
486.4  70538.40  2677.20  3.80
487.9  71618.63  2730.00  3.81
489.3  72770.95  2793.82  3.84
490.7  73860.60  2858.61  3.87
492.2  75087.60  2930.20  3.90
493.6  76180.00  3004.23  3.94
495.0  77307.75  3086.85  3.99
496.5  78481.90  3173.71  4.04
497.9  79567.85  3269.59  4.11
499.3  80727.18  3373.29  4.18
500.7  81966.75  3504.28  4.28
502.2  83117.80  3632.48  4.37
503.6  84329.60  3792.11  4.50
505.0  85409.50  3963.31  4.64
506.5  86714.48  4172.46  4.81
507.9  87941.90  4404.01  5.01
509.3  89347.60  4668.91  5.23
510.7  90631.13  4968.60  5.48
512.2  92032.05  5307.50  5.77
513.6  93490.25  5699.82  6.10
515.0  94909.20  6131.92  6.46
516.4  96262.43  6607.44  6.86
517.8  97872.13  7147.25  7.30
519.3  99186.53  7703.72  7.77
520.7  100752.55  8321.35  8.26
522.1  102059.43  8957.04  8.78
523.5  103457.70  9628.07  9.31
524.9  104959.80  10323.00  9.84
526.3  106390.90  11013.15  10.35
527.8  107870.40  11723.58  10.87
529.2  108933.90  12398.79  11.38
530.6  110455.80  13136.01  11.89
532.0  112126.00  13878.67  12.38
533.4  113446.28  14546.97  12.82
534.8  114316.90  15139.98  13.24
536.3  115958.10  15811.96  13.64
537.7  117936.00  16517.76  14.01
539.1  119392.28  17139.97  14.36
540.5  120584.35  17711.89  14.69
541.9  122306.93  18351.73  15.00
543.3  123574.70  18913.55  15.31
544.7  124875.60  19474.24  15.59
546.1  126652.08  20095.06  15.87
547.5  127881.60  20606.51  16.11
549.0  129525.00  21158.13  16.34
550.4  131070.00  21653.75  16.52
551.8  132667.63  22119.34  16.67
553.2  134205.70  22515.66  16.78
554.6  135553.60  22817.60  16.83
556.0  137085.75  23079.12  16.84
557.4  138675.08  23291.82  16.80
558.8  140304.60  23460.00  16.72
560.2  141743.25  23548.48  16.61
561.6  143406.30  23618.88  16.47
563.0  144974.00  23621.82  16.29
564.4  146571.15  23589.80  16.09
565.8  148080.63  23506.75  15.87
567.2  149833.50  23404.90  15.62
568.6  151336.50  23215.95  15.34
570.0  152761.03  22950.92  15.02
571.4  154501.10  22690.81  14.69
572.8  156228.38  22417.62  14.35
574.2  157852.80  22135.68  14.02
575.6  159367.50  21859.50  13.72
577.0  160889.40  21608.61  13.43
578.4  162617.00  21406.23  13.16
579.8  164115.45  21202.74  12.92
581.2  165846.60  21052.61  12.69
582.5  167251.50  20888.40  12.49
583.9  168763.60  20753.84  12.30
585.3  170563.28  20679.54  12.12
586.7  172041.68  20583.59  11.96
588.1  173533.00  20507.42  11.82
589.5  175162.75  20473.83  11.69
590.9  176799.20  20455.04  11.57
592.3  178599.05  20483.27  11.47
593.7  180048.38  20489.56  11.38
595.0  181678.95  20526.84  11.30
596.4  183138.90  20547.33  11.22
597.8  184619.00  20567.85  11.14
599.2  186172.80  20577.92  11.05
600.6  187922.48  20588.01  10.96
602.0  189211.95  20520.56  10.85
603.3  191014.35  20467.73  10.72
604.7  192667.08  20368.46  10.57
606.1  194152.20  20203.20  10.41
607.5  195799.43  20018.58  10.22
608.9  197500.85  19812.37  10.03
610.2  198889.43  19552.05  9.83
611.6  200492.70  19300.55  9.63
613.0  202068.80  19043.17  9.42
614.4  203452.65  18779.20  9.23
615.8  204910.88  18532.80  9.04
617.1  206432.10  18320.12  8.87
618.5  208058.40  18144.80  8.72
619.9  209561.93  17997.56  8.59
621.3  211155.53  17899.05  8.48
622.6  212722.25  17844.53  8.39
624.0  214137.00  17812.82  8.32
625.4  215546.93  17827.70  8.27
626.8  217073.68  17884.84  8.24
628.1  218339.83  17947.01  8.22
629.5  220179.10  18058.52  8.20
630.9  221782.28  18148.31  8.18
632.2  223187.30  18194.94  8.15
633.6  224782.75  18207.30  8.10
635.0  226283.20  18140.27  8.02
636.3  227789.10  17989.69  7.90
637.7  229124.13  17727.13  7.74
639.1  230737.50  17395.00  7.54
640.4  232178.80  16975.07  7.31
641.8  233364.90  16482.18  7.06
643.2  234919.83  15991.78  6.81
644.5  236319.25  15476.00  6.55
645.9  237968.10  14988.78  6.30
647.2  239276.80  14537.69  6.08
648.6  240954.75  14183.10  5.89
650.0  242373.60  13875.84  5.72
651.3  243131.90  13597.61  5.59
652.7  245021.50  13399.73  5.47
654.0  247022.30  13223.99  5.35
655.4  248406.93  13006.04  5.24
656.8  248519.60  12687.79  5.11
658.1  249881.60  12406.31  4.96
659.5  252275.63  12133.31  4.81
660.8  253890.00  11811.00  4.65
662.2  254889.60  11447.89  4.49
663.5  256452.70  11139.97  4.34
664.9  257597.60  10843.73  4.21
666.2  258341.40  10584.96  4.10
667.6  260086.25  10412.38  4.00
668.9  261132.33  10274.40  3.93
670.3  262704.88  10185.10  3.88
671.6  263929.13  10136.20  3.84
673.0  265101.75  10127.35  3.82
674.3  266327.10  10157.16  3.81
675.7  267615.23  10216.31  3.82
677.0  268682.98  10301.83  3.83
678.4  270004.48  10436.91  3.87
679.7  271105.73  10613.11  3.91
681.1  272405.50  10863.84  3.99
682.4  273553.80  11206.17  4.10
683.8  274813.50  11680.59  4.25
685.1  275788.13  12322.15  4.47
686.4  277122.60  13248.96  4.78
687.8  278436.50  14539.63  5.22
689.1  279504.50  16295.90  5.83
690.5  280872.45  18657.78  6.64
691.8  281746.60  21695.87  7.70
693.1  283079.70  25519.00  9.01
694.5  284329.50  30030.00  10.56
695.8  285626.25  35132.07  12.30
697.1  286854.75  40692.17  14.19
698.5  287949.50  46592.51  16.18
699.8  289038.23  52702.75  18.23
701.1  290194.65  58906.63  20.30
702.5  291007.75  65001.13  22.34
703.8  291960.00  70980.00  24.31
705.1  293117.18  76795.16  26.20
706.5  294164.13  82331.05  27.99
707.8  295131.75  87588.16  29.68
709.1  295962.53  92517.78  31.26
710.5  297101.10  97277.47  32.74
711.8  297950.30  101696.92  34.13
713.1  298976.10  105939.87  35.43
714.4  299890.40  109903.32  36.65
715.8  300693.20  113619.99  37.79
717.1  301993.20  117310.68  38.85
718.4  302960.00  120658.35  39.83
719.7  304064.28  123873.21  40.74
721.0  304605.00  126684.00  41.59
722.4  305372.10  129406.93  42.38
723.7  306318.60  132040.44  43.11
725.0  307355.63  134538.06  43.77
726.3  308320.10  136855.66  44.39
727.6  308845.08  138836.87  44.95
729.0  309762.60  140842.03  45.47
730.3  310538.18  142653.69  45.94
731.6  311436.95  144400.44  46.37
732.9  312210.85  145974.59  46.76
734.2  313014.63  147443.27  47.10
735.5  314011.70  148928.93  47.43
736.8  314783.40  150201.12  47.72
738.1  315575.60  151398.53  47.98
739.5  316474.93  152579.71  48.21
740.8  317171.53  153595.31  48.43
742.1  317937.58  154596.00  48.62
743.4  318700.00  155546.67  48.81
744.7  319697.33  156548.22  48.97
746.0  320576.10  157433.64  49.11
747.3  321104.50  158105.25  49.24
748.6  321849.25  158839.73  49.35
749.9  322634.00  159560.27  49.46
751.2  323397.05  160261.15  49.56
752.5  324364.60  161007.29  49.64
753.8  324972.73  161564.18  49.72
755.1  325598.00  162101.33  49.79
756.4  326142.10  162558.48  49.84
757.7  327032.65  163191.26  49.90
759.0  328756.60  164199.97  49.95
760.3  329894.40  164904.96  49.99
761.6  331436.00  165774.75  50.02
762.9  331967.50  166135.33  50.05
764.2  332322.60  166396.23  50.07
765.5  332569.65  166596.51  50.09
766.8  332955.20  166862.93  50.12
768.1  333458.00  167172.88  50.13
769.3  334012.00  167522.13  50.15
770.6  334645.35  167886.33  50.17
771.9  335395.20  168279.88  50.17
773.2  335744.80  168510.45  50.19
774.5  336307.40  168827.71  50.20
775.8  336968.00  169187.94  50.21
777.1  337527.85  169489.76  50.22
778.4  337828.43  169672.40  50.22
779.6  338567.75  170070.60  50.23
780.9  339030.00  170320.00  50.24
782.2  339435.25  170573.70  50.25
783.5  339739.50  170734.93  50.25
784.8  340215.53  171000.66  50.26
786.0  340562.95  171204.55  50.27
787.3  340937.20  171408.65  50.28
788.6  341323.13  171621.62  50.28
789.9  341770.80  171844.96  50.28
791.2  342395.83  172182.76  50.29
792.4  343038.93  172533.99  50.30
793.7  343485.60  172771.52  50.30
795.0  344101.73  173089.29  50.30
796.2  344714.20  173420.36  50.31
797.5  345374.85  173763.90  50.31
798.8  346015.18  174096.04  50.31
800.0  346653.98  174436.48  50.32
801.3  347101.50  174680.68  50.33
802.6  347715.68  174983.76  50.32
803.8  348329.75  175307.39  50.33
805.1  348783.75  175548.22  50.33
806.4  349224.60  175762.92  50.33
807.7  349737.75  176041.08  50.34
808.9  350238.40  176329.25  50.35
810.2  350729.40  176582.84  50.35
811.4  351235.90  176841.00  50.35
812.7  351853.13  177146.67  50.35
814.0  352655.50  177559.51  50.35
815.2  353246.75  177888.40  50.36
816.5  353672.65  178107.39  50.36
817.7  354155.25  178353.13  50.36
819.0  354638.90  178602.67  50.36
820.2  354816.00  178681.07  50.36
821.5  355503.30  179040.55  50.36
822.7  355816.23  179210.52  50.37
824.0  356138.10  179383.32  50.37
825.2  356578.20  179611.83  50.37
826.5  356926.25  179764.76  50.36
827.7  357498.10  180048.93  50.36
829.0  357885.13  180230.53  50.36
830.2  358265.25  180387.01  50.35
831.5  358672.80  180640.30  50.36
832.7  358970.33  180783.75  50.36
834.0  359281.85  180954.74  50.37
835.2  359691.20  181127.21  50.36
836.4  360005.80  181283.30  50.36
837.7  360430.00  181490.51  50.35
838.9  360906.48  181740.16  50.36
840.1  361305.23  181946.79  50.36
841.4  361770.20  182178.63  50.36
842.6  362117.00  182378.27  50.36
843.8  362558.20  182589.79  50.36
845.1  363043.95  182853.39  50.37
846.3  363484.80  183056.59  50.36
847.5  363938.40  183260.28  50.35
848.8  364372.80  183496.56  50.36
850.0  364748.30  183689.80  50.36
851.2  365345.10  183971.16  50.36
852.5  365674.10  184172.35  50.37
853.7  366183.00  184413.90  50.36
854.9  366722.80  184639.33  50.35
856.1  367153.80  184906.97  50.36
857.4  367340.20  185035.64  50.37
858.6  367895.35  185290.93  50.37
859.8  368381.25  185490.25  50.35
861.0  368901.00  185693.04  50.34
862.2  369305.70  185960.63  50.35
863.5  369755.10  186132.09  50.34
864.7  370260.00  186407.76  50.35
865.9  370743.40  186612.16  50.33
867.1  371046.60  186788.79  50.34
868.3  371480.55  186985.28  50.34
869.5  371971.05  187248.88  50.34
870.8  372478.50  187476.00  50.33
872.0  373093.13  187755.41  50.32
873.2  373557.00  187935.12  50.31
874.4  374025.60  188160.57  50.31
875.6  374384.08  188332.82  50.30
876.8  374941.85  188570.45  50.29
878.0  375345.05  188785.69  50.30
879.2  375892.20  189059.12  50.30
880.4  376396.13  189282.40  50.29
881.6  376866.20  189504.38  50.28
882.8  377324.80  189666.77  50.27
884.0  377899.88  189945.55  50.26
885.2  378425.50  190168.68  50.25
886.5  379034.10  190435.17  50.24
887.7  379635.43  190672.95  50.23
888.8  380251.65  190983.81  50.23
890.0  380709.10  191248.23  50.23
891.2  381265.30  191522.80  50.23
892.4  381905.48  191760.45  50.21
893.6  382509.50  192006.28  50.20
894.8  383375.50  192437.17  50.20
896.0  384196.75  192796.43  50.18
897.2  385066.50  193211.63  50.18
898.4  385671.00  193565.24  50.19
899.6  386207.25  193816.90  50.18
900.8  386698.90  193939.83  50.15
902.0  386945.10  194021.56  50.14
903.2  387325.73  194100.58  50.11
904.3  387662.10  194275.12  50.11
905.5  388082.80  194533.21  50.13
906.7  388624.00  194841.67  50.14
907.9  389207.00  195048.75  50.11
909.1  389561.40  195123.24  50.09
910.2  389855.10  195211.77  50.07
911.4  389996.10  195269.88  50.07
912.6  390297.05  195322.75  50.04
913.8  390376.80  195434.85  50.06
915.0  390843.60  195605.06  50.05
916.2  391023.75  195617.50  50.03
917.3  390949.43  195556.08  50.02
918.5  391210.70  195583.67  49.99
919.7  391361.25  195623.62  49.99
920.8  391359.55  195617.70  49.98
922.0  391448.75  195657.00  49.98
923.2  391755.00  195704.60  49.96
924.4  391739.63  195717.60  49.96
925.5  391998.20  195783.97  49.95
926.7  392527.88  195964.95  49.92
927.9  393312.00  196308.96  49.91
929.0  394803.45  196984.80  49.89
930.2  397164.60  198011.92  49.86
931.4  399304.35  199172.07  49.88
932.5  402020.40  200404.87  49.85
933.7  403570.23  201025.66  49.81
934.9  404201.88  201156.67  49.77
936.0  403747.50  200867.12  49.75
937.2  401712.60  199731.24  49.72
938.3  399822.80  198707.92  49.70
939.5  398127.60  197806.08  49.68
940.7  398292.30  197730.84  49.64
941.8  399793.58  198323.81  49.61
943.0  401340.75  198919.70  49.56
944.2  402195.30  199161.56  49.52
945.3  401622.00  198785.60  49.50
946.5  400632.75  198233.46  49.48
947.6  400851.40  198124.59  49.43
948.8  400467.60  197853.76  49.41
949.9  400524.60  197689.52  49.36
951.1  400448.43  197263.13  49.26
952.2  400044.00  196928.00  49.23
953.4  399578.00  196500.63  49.18
954.5  399508.20  196251.12  49.12
955.7  399268.80  195950.16  49.08
956.8  399192.80  195616.09  49.00
958.0  398700.00  195126.73  48.94
959.1  398404.63  194755.53  48.88
960.3  397856.75  194405.53  48.86
961.4  397796.80  194144.85  48.81
962.6  397985.00  194005.70  48.75
963.7  397671.83  193774.04  48.73
964.9  397623.60  193590.48  48.69
966.0  397078.20  193395.60  48.70
967.2  397017.45  193287.36  48.68
968.3  396442.35  193020.30  48.69
969.5  395878.20  192757.64  48.69
970.6  396130.70  192637.32  48.63
971.8  396438.70  192670.01  48.60
972.9  396213.53  192538.75  48.59
974.0  396294.40  192585.17  48.60
975.2  395705.00  192349.02  48.61
976.3  395453.08  192169.40  48.59
977.5  395571.05  192062.48  48.55
978.6  395698.90  191941.31  48.51
979.7  395418.98  191919.07  48.54
980.9  395461.23  191793.43  48.50
982.0  394998.85  191852.01  48.57
983.2  394945.03  191699.06  48.54
984.3  394255.00  191635.12  48.61
985.4  394588.15  191624.04  48.56
986.6  394268.25  191525.12  48.58
987.7  395248.35  192102.00  48.60
988.9  395715.60  191928.96  48.50
990.0  395868.80  192403.88  48.60
993.1  384723.56  184756.79  48.02
996.9  383436.58  184582.76  48.14
1000.7  383457.73  184959.10  48.23
1004.5  383562.58  185385.43  48.33
1008.4  383192.71  185587.74  48.43
1012.2  383083.67  185880.73  48.52
1016.0  382724.40  186006.09  48.60
1019.8  382056.68  185966.55  48.68
1023.7  380820.51  185610.63  48.74
1027.5  379107.42  184999.09  48.80
1031.3  378055.55  184629.27  48.84
1035.1  376973.33  184269.76  48.88
1038.9  376538.43  184157.76  48.91
1042.7  376292.67  184149.82  48.94
1046.5  376157.00  184163.36  48.96
1050.3  376114.98  184211.22  48.98
1054.2  375792.08  184104.33  48.99
1058.0  375397.87  183934.71  49.00
1061.8  375345.71  183930.32  49.00
1065.6  374635.80  183537.99  48.99
1069.4  373744.33  183077.13  48.98
1073.2  372419.69  182390.28  48.97
1077.0  371829.60  182002.97  48.95
1080.8  372106.25  182009.52  48.91
1084.6  372269.33  181977.72  48.88
1088.4  372539.84  182035.98  48.86
1092.2  372030.75  181659.22  48.83
1096.0  371373.48  181159.00  48.78
1099.8  370657.95  180627.48  48.73
1103.6  369679.92  179971.06  48.68
1107.4  368547.39  179199.87  48.62
1111.2  368243.80  178843.07  48.57
1114.9  367712.33  178329.75  48.50
1118.7  367483.05  177892.04  48.41
1122.5  367106.13  177312.32  48.30
1126.3  366205.53  176379.15  48.16
1130.1  365814.89  175493.27  47.97
1133.9  364179.90  173748.30  47.71
1137.7  362627.00  171837.54  47.39
1141.4  360577.21  169523.04  47.01
1145.2  359687.32  167597.29  46.60
1149.0  358388.33  165640.21  46.22
1152.8  356588.75  163604.71  45.88
1156.6  354753.12  161849.60  45.62
1160.3  353003.67  160391.43  45.44
1164.1  350680.57  158911.81  45.32
1167.9  349072.92  157902.53  45.23
1171.7  347736.38  157123.13  45.18
1175.4  346274.37  156310.37  45.14
1179.2  344886.28  155525.27  45.09
1183.0  344610.33  155216.14  45.04
1186.7  344662.50  155088.87  45.00
1190.5  344346.67  154806.43  44.96
1194.3  343403.97  154264.11  44.92
1198.0  341918.50  153530.73  44.90
1201.8  340195.08  152761.33  44.90
1205.6  339064.67  152361.19  44.94
1209.3  338462.22  152270.41  44.99
1213.1  337913.25  152223.53  45.05
1216.8  337210.13  152168.59  45.13
1220.6  336069.07  151899.73  45.20
1224.3  334809.25  151554.57  45.27
1228.1  333311.40  151123.23  45.34
1231.9  331757.95  150618.21  45.40
1235.6  330077.55  150005.67  45.45
1239.4  328545.00  149500.22  45.50
1243.1  327242.93  149009.29  45.53
1246.9  325976.48  148524.56  45.56
1250.6  324969.93  148111.40  45.58
1254.3  323810.58  147629.38  45.59
1258.1  322596.40  147091.62  45.60
1261.8  321212.00  146458.00  45.60
1265.6  320125.50  145930.69  45.59
1269.3  319391.68  145521.15  45.56
1273.1  319660.59  145524.59  45.52
1276.8  319258.80  145170.46  45.47
1280.6  318004.33  144421.80  45.42
1284.3  316028.00  143300.86  45.34
1288.0  314877.19  142506.70  45.26
1291.8  314503.63  141989.29  45.15
1295.5  313793.33  141286.51  45.03
1299.2  312614.66  140281.96  44.87
1302.9  310933.61  138987.75  44.70
1306.7  309123.03  137561.90  44.50
1310.4  307411.66  136044.58  44.25
1314.1  305824.57  134519.68  43.99
1317.9  304394.79  132949.08  43.68
1321.6  302861.07  131210.43  43.32
1325.3  301180.95  129301.58  42.93
1329.0  299904.85  127519.77  42.52
1332.8  297974.60  125362.60  42.07
1336.5  296310.73  123304.51  41.61
1340.2  296174.67  121881.50  41.15
