/*** Spectra Vista SIG Data ***/
name= 16_20221020_CECA_41_avg.sig
comm= Averaged Ref/Tar of files: HR.102022.0045_moc.sig,HR.102022.0046_moc.sig,HR.102022.0047_moc.sig
data=
337.3  3076.75  209.84  6.82
338.8  3174.60  207.97  6.55
340.3  3326.35  200.79  6.04
341.8  3475.10  206.42  5.94
343.2  3685.20  219.04  5.94
344.7  3881.15  210.41  5.42
346.2  4044.15  193.74  4.79
347.7  4247.10  202.99  4.78
349.2  4384.80  205.92  4.70
350.6  4627.35  208.46  4.50
352.1  4894.33  209.59  4.28
353.6  5135.60  221.42  4.31
355.1  5421.68  218.08  4.02
356.6  5735.63  224.12  3.91
358.0  5997.20  224.21  3.74
359.5  6272.70  230.13  3.67
361.0  6553.58  239.40  3.65
362.5  6908.90  250.93  3.63
364.0  7226.10  261.62  3.62
365.4  7587.00  265.48  3.50
366.9  7956.00  269.93  3.39
368.4  8291.60  272.75  3.29
369.9  8620.98  286.72  3.33
371.3  9024.60  305.65  3.39
372.8  9425.25  326.19  3.46
374.3  9890.00  326.60  3.30
375.8  10294.90  330.07  3.21
377.2  10679.30  335.61  3.14
378.7  11082.80  340.73  3.07
380.2  11432.50  350.47  3.07
381.7  11918.03  366.00  3.07
383.1  12370.05  371.14  3.00
384.6  12867.08  385.36  2.99
386.1  13350.35  388.64  2.91
387.6  13771.45  397.83  2.89
389.0  14204.00  409.40  2.88
390.5  14655.60  417.72  2.85
392.0  15182.30  430.76  2.84
393.4  15738.73  442.42  2.81
394.9  16260.30  452.90  2.79
396.4  16792.88  461.32  2.75
397.9  17296.88  478.33  2.77
399.3  17854.13  490.58  2.75
400.8  18369.73  503.72  2.74
402.2  18977.15  519.99  2.74
403.7  19548.90  531.03  2.72
405.2  20147.43  546.55  2.71
406.6  20717.60  557.24  2.69
408.1  21266.60  573.39  2.70
409.6  21840.25  590.35  2.70
411.0  22481.55  609.19  2.71
412.5  23136.58  627.92  2.71
414.0  23777.63  641.91  2.70
415.4  24426.38  658.71  2.70
416.9  25057.50  677.38  2.70
418.4  25734.15  697.20  2.71
419.8  26444.60  719.33  2.72
421.3  27147.48  743.22  2.74
422.7  27892.20  763.61  2.74
424.2  28636.88  783.00  2.73
425.7  29372.60  805.69  2.74
427.1  30099.15  825.01  2.74
428.6  30891.50  850.58  2.75
430.0  31624.70  871.77  2.76
431.5  32461.88  896.92  2.76
432.9  33314.10  920.58  2.76
434.4  34165.13  944.09  2.76
435.9  34986.00  960.00  2.74
437.3  35818.75  985.02  2.75
438.8  36638.93  1009.20  2.75
440.2  37500.93  1037.45  2.77
441.7  38431.20  1062.30  2.76
443.1  39299.50  1086.75  2.77
444.6  40243.20  1111.13  2.76
446.0  41169.68  1137.35  2.76
447.5  42109.65  1164.97  2.77
448.9  43034.40  1191.47  2.77
450.4  44017.05  1220.75  2.77
451.8  44889.00  1244.28  2.77
453.3  45775.58  1269.64  2.77
454.7  46771.25  1298.43  2.78
456.2  47596.78  1319.98  2.77
457.6  48546.68  1348.49  2.78
459.1  49515.70  1373.36  2.77
460.5  50450.50  1398.39  2.77
462.0  51489.68  1426.69  2.77
463.4  52512.10  1454.81  2.77
464.8  53488.13  1477.88  2.76
466.3  54431.03  1502.41  2.76
467.7  55385.13  1530.02  2.76
469.2  56412.60  1560.04  2.77
470.6  57380.20  1583.50  2.76
472.0  58425.33  1612.59  2.76
473.5  59423.88  1636.08  2.75
474.9  60448.50  1663.86  2.75
476.4  61574.40  1693.44  2.75
477.8  62611.00  1723.43  2.75
479.2  63582.50  1747.73  2.75
480.7  64645.35  1781.11  2.76
482.1  65761.95  1808.31  2.75
483.6  66932.40  1843.27  2.75
485.0  67989.08  1875.41  2.76
486.4  69170.70  1908.13  2.76
487.9  70214.63  1940.53  2.76
489.3  71327.90  1973.71  2.77
490.7  72373.38  2010.17  2.78
492.2  73573.50  2048.48  2.78
493.6  74641.75  2088.67  2.80
495.0  75742.88  2129.96  2.81
496.5  76897.00  2172.74  2.83
497.9  77968.28  2213.83  2.84
499.3  79112.93  2265.82  2.86
500.7  80355.25  2324.74  2.89
502.2  81511.80  2385.50  2.93
503.6  82752.80  2451.69  2.96
505.0  83812.65  2519.52  3.01
506.5  85089.23  2602.37  3.06
507.9  86207.38  2692.79  3.12
509.3  87512.40  2802.13  3.20
510.7  88700.63  2921.94  3.29
512.2  90063.45  3062.91  3.40
513.6  91538.65  3224.79  3.52
515.0  92960.38  3412.38  3.67
516.4  94306.28  3625.29  3.84
517.8  95908.75  3876.98  4.04
519.3  97230.10  4143.68  4.26
520.7  98771.50  4445.95  4.50
522.1  100047.03  4767.74  4.77
523.5  101344.90  5108.58  5.04
524.9  102769.65  5462.29  5.32
526.3  104137.95  5813.80  5.58
527.8  105583.50  6173.07  5.85
529.2  106669.10  6514.85  6.11
530.6  108230.50  6881.50  6.36
532.0  109886.00  7232.80  6.58
533.4  111152.10  7536.84  6.78
534.8  112028.98  7783.10  6.95
536.3  113571.60  8057.71  7.09
537.7  115466.40  8338.32  7.22
539.1  116877.98  8571.63  7.33
540.5  118041.80  8779.74  7.44
541.9  119739.98  9016.96  7.53
543.3  121028.20  9219.87  7.62
544.7  122333.40  9423.78  7.70
546.1  124115.20  9661.07  7.78
547.5  125328.00  9851.95  7.86
549.0  126973.00  10069.29  7.93
550.4  128413.75  10259.09  7.99
551.8  129941.65  10434.18  8.03
553.2  131398.40  10576.96  8.05
554.6  132693.60  10670.99  8.04
556.0  134177.40  10738.57  8.00
557.4  135753.10  10775.17  7.94
558.8  137385.90  10774.65  7.84
560.2  138817.50  10730.71  7.73
561.6  140456.03  10664.68  7.59
563.0  142009.58  10565.58  7.44
564.4  143596.05  10442.29  7.27
565.8  145084.38  10284.39  7.09
567.2  146802.00  10119.74  6.89
568.6  148258.88  9913.03  6.69
570.0  149655.10  9692.49  6.48
571.4  151340.80  9481.53  6.27
572.8  153080.00  9281.22  6.06
574.2  154672.00  9085.65  5.87
575.6  156195.00  8905.71  5.70
577.0  157691.50  8749.64  5.55
578.4  159363.75  8618.57  5.41
579.8  160879.50  8495.65  5.28
581.2  162559.30  8397.28  5.17
582.5  163963.80  8298.98  5.06
583.9  165436.00  8219.54  4.97
585.3  167188.50  8163.51  4.88
586.7  168650.63  8103.93  4.81
588.1  170101.63  8051.93  4.73
589.5  171720.50  8022.23  4.67
590.9  173314.80  7998.83  4.62
592.3  175085.05  7995.90  4.57
593.7  176524.73  7991.04  4.53
595.0  178087.95  7996.94  4.49
596.4  179525.85  7999.89  4.46
597.8  180984.15  8008.13  4.42
599.2  182490.00  8009.51  4.39
600.6  184191.48  8018.60  4.35
602.0  185452.95  7999.00  4.31
603.3  187220.35  7997.34  4.27
604.7  188838.08  7977.60  4.22
606.1  190288.20  7933.29  4.17
607.5  191900.43  7882.08  4.11
608.9  193552.80  7827.86  4.04
610.2  194906.25  7754.94  3.98
611.6  196481.70  7692.93  3.92
613.0  198022.80  7625.47  3.85
614.4  199364.10  7555.75  3.79
615.8  200801.25  7490.78  3.73
617.1  202301.40  7437.64  3.68
618.5  203884.80  7400.28  3.63
619.9  205382.93  7370.68  3.59
621.3  206979.75  7358.61  3.56
622.6  208543.75  7352.82  3.53
624.0  210011.85  7359.79  3.50
625.4  211471.43  7371.13  3.49
626.8  213012.80  7399.51  3.47
628.1  214251.13  7423.94  3.47
629.5  215981.75  7472.45  3.46
630.9  217437.55  7504.02  3.45
632.2  218671.95  7523.00  3.44
633.6  220141.88  7525.54  3.42
635.0  221553.20  7516.56  3.39
636.3  223014.30  7476.23  3.35
637.7  224346.00  7414.32  3.30
639.1  225977.50  7349.67  3.25
640.4  227424.23  7269.98  3.20
641.8  228605.63  7170.74  3.14
643.2  230143.20  7079.88  3.08
644.5  231483.00  6989.58  3.02
645.9  232986.60  6917.52  2.97
647.2  233916.73  6842.66  2.93
648.6  235325.25  6811.71  2.89
650.0  236606.40  6794.33  2.87
651.3  237653.90  6780.55  2.85
652.7  239927.45  6798.65  2.83
654.0  242030.10  6813.73  2.82
655.4  243350.88  6818.62  2.80
656.8  243502.90  6792.70  2.79
658.1  244887.60  6791.41  2.77
659.5  247083.38  6797.01  2.75
660.8  248355.00  6778.29  2.73
662.2  249334.40  6757.97  2.71
663.5  250804.45  6752.16  2.69
664.9  251785.30  6733.55  2.67
666.2  252547.20  6726.39  2.66
667.6  254237.10  6750.66  2.66
668.9  255118.15  6775.95  2.66
670.3  256976.88  6829.27  2.66
671.6  257955.38  6868.02  2.66
673.0  259128.00  6931.66  2.67
674.3  260404.30  7000.86  2.69
675.7  261743.28  7079.14  2.70
677.0  262802.30  7169.24  2.73
678.4  264101.78  7279.58  2.76
679.7  265114.93  7403.34  2.79
681.1  266356.95  7534.93  2.83
682.4  267432.10  7680.28  2.87
683.8  268625.50  7844.87  2.92
685.1  269637.38  8036.22  2.98
686.4  270951.00  8268.55  3.05
687.8  272139.75  8552.48  3.14
689.1  273207.75  8933.48  3.27
690.5  274525.05  9468.74  3.45
691.8  275341.23  10211.36  3.71
693.1  276669.75  11287.90  4.08
694.5  277845.75  12734.37  4.58
695.8  279051.50  14599.43  5.23
697.1  280211.75  16909.97  6.03
698.5  281253.00  19663.39  6.99
699.8  282281.08  22832.21  8.09
701.1  283437.50  26369.08  9.30
702.5  284242.75  30167.61  10.61
703.8  285165.00  34198.71  11.99
705.1  286322.40  38405.70  13.41
706.5  287339.75  42694.48  14.86
707.8  288292.65  47038.87  16.32
709.1  289108.75  51389.17  17.78
710.5  290202.68  55818.45  19.23
711.8  291015.00  60212.12  20.69
713.1  291996.20  64638.57  22.14
714.4  292888.20  69036.55  23.57
715.8  293713.30  73391.64  24.99
717.1  294997.65  77829.08  26.38
718.4  295948.80  82126.08  27.75
719.7  297029.60  86400.75  29.09
721.0  297517.50  90436.28  30.40
722.4  298268.85  94434.67  31.66
723.7  299206.50  98379.52  32.88
725.0  300197.25  102210.99  34.05
726.3  301107.40  105875.83  35.16
727.6  301655.20  109241.75  36.21
729.0  302541.23  112573.10  37.21
730.3  303308.33  115695.14  38.14
731.6  304167.85  118667.34  39.01
732.9  304925.78  121429.44  39.82
734.2  305698.25  124038.44  40.58
735.5  306718.95  126576.60  41.27
736.8  307507.50  128867.51  41.91
738.1  308357.80  131022.99  42.49
739.5  309294.95  133077.62  43.03
740.8  309975.88  134879.63  43.51
742.1  310628.95  136556.97  43.96
743.4  311200.00  138096.67  44.38
744.7  312069.30  139629.66  44.74
746.0  312920.40  141048.85  45.07
747.3  313523.58  142245.72  45.37
748.6  314227.25  143410.33  45.64
749.9  314834.00  144441.14  45.88
751.2  315369.00  145369.59  46.10
752.5  316075.05  146303.52  46.29
753.8  316550.50  147061.51  46.46
755.1  317200.00  147826.10  46.60
756.4  317778.15  148503.77  46.73
757.7  318740.80  149315.88  46.85
759.0  320495.73  150447.08  46.94
760.3  321604.80  151242.83  47.03
761.6  323083.60  152188.99  47.11
762.9  323594.75  152627.86  47.17
764.2  323956.70  152962.11  47.22
765.5  324164.88  153225.57  47.27
766.8  324523.20  153533.90  47.31
768.1  324991.40  153867.96  47.35
769.3  325523.45  154211.69  47.37
770.6  326120.60  154601.30  47.41
771.9  326773.65  154982.89  47.43
773.2  327082.80  155196.53  47.45
774.5  327641.60  155505.55  47.46
775.8  328226.45  155837.81  47.48
777.1  328753.70  156122.40  47.49
778.4  329000.93  156286.54  47.50
779.6  329679.98  156656.98  47.52
780.9  330090.00  156882.28  47.53
782.2  330481.25  157104.67  47.54
783.5  330711.50  157242.31  47.55
784.8  331152.98  157475.24  47.55
786.0  331467.15  157648.67  47.56
787.3  331809.45  157821.64  47.56
788.6  332157.53  158007.18  47.57
789.9  332529.40  158208.11  47.58
791.2  333079.38  158492.58  47.58
792.4  333641.05  158776.20  47.59
793.7  334066.80  158981.45  47.59
795.0  334630.73  159253.25  47.59
796.2  335199.65  159531.53  47.59
797.5  335825.48  159834.87  47.59
798.8  336398.75  160119.43  47.60
800.0  336986.05  160410.43  47.60
801.3  337318.40  160586.55  47.61
802.6  337886.78  160839.78  47.60
803.8  338441.20  161124.95  47.61
805.1  338813.13  161316.65  47.61
806.4  339166.20  161514.97  47.62
807.7  339695.78  161747.44  47.62
808.9  340189.30  161988.23  47.62
810.2  340644.15  162203.97  47.62
811.4  341050.50  162421.04  47.62
812.7  341615.63  162706.61  47.63
814.0  342368.00  163080.19  47.63
815.2  342976.25  163366.56  47.63
816.5  343357.55  163568.02  47.64
817.7  343742.70  163775.15  47.64
819.0  344210.90  163992.72  47.64
820.2  344344.00  164080.61  47.65
821.5  345010.55  164399.60  47.65
822.7  345312.43  164596.62  47.67
824.0  345672.90  164746.03  47.66
825.2  346098.83  164969.54  47.67
826.5  346383.93  165130.23  47.67
827.7  346932.60  165401.76  47.68
829.0  347263.08  165595.39  47.69
830.2  347633.50  165756.40  47.68
831.5  348141.30  165998.41  47.68
832.7  348428.85  166174.58  47.69
834.0  348781.68  166361.39  47.70
835.2  349081.15  166544.27  47.71
836.4  349442.50  166710.11  47.71
837.7  349806.80  166925.68  47.72
838.9  350332.08  167150.00  47.71
840.1  350660.48  167353.61  47.73
841.4  351073.00  167597.05  47.74
842.6  351424.00  167813.77  47.75
843.8  351834.40  168014.57  47.75
845.1  352360.95  168286.08  47.76
846.3  352787.00  168494.07  47.76
847.5  353220.00  168718.52  47.77
848.8  353619.60  168922.35  47.77
850.0  354035.15  169139.49  47.77
851.2  354558.60  169441.71  47.79
852.5  355000.30  169634.42  47.78
853.7  355547.25  169911.00  47.79
854.9  356014.60  170140.14  47.79
856.1  356441.80  170364.16  47.80
857.4  356691.68  170493.96  47.80
858.6  357185.95  170768.51  47.81
859.8  357628.13  170975.68  47.81
861.0  358090.20  171223.82  47.82
862.2  358644.45  171431.55  47.80
863.5  358981.35  171624.81  47.81
864.7  359515.20  171876.70  47.81
865.9  359953.60  172071.97  47.80
867.1  360220.70  172248.33  47.82
868.3  360702.15  172455.82  47.81
869.5  361228.75  172698.14  47.81
870.8  361768.50  172942.46  47.80
872.0  362344.95  173197.69  47.80
873.2  362772.30  173414.11  47.80
874.4  363206.03  173611.12  47.80
875.6  363614.45  173794.02  47.80
876.8  364134.75  174036.56  47.79
878.0  364648.90  174273.76  47.79
879.2  365147.70  174506.42  47.79
880.4  365692.13  174718.91  47.78
881.6  366209.75  174938.15  47.77
882.8  366624.80  175129.45  47.77
884.0  367164.58  175397.65  47.77
885.2  367726.10  175622.17  47.76
886.5  368283.25  175892.54  47.76
887.7  368742.40  176068.32  47.75
888.8  369389.93  176327.65  47.73
890.0  369892.45  176595.35  47.74
891.2  370396.10  176860.98  47.75
892.4  370977.60  177106.69  47.74
893.6  371525.60  177355.58  47.74
894.8  372427.50  177737.43  47.72
896.0  373279.25  178065.84  47.70
897.2  374084.75  178406.18  47.69
898.4  374827.20  178734.66  47.68
899.6  375300.38  178965.74  47.69
900.8  375523.85  179142.18  47.70
902.0  375822.30  179168.75  47.67
903.2  376039.13  179250.23  47.67
904.3  376321.80  179368.63  47.66
905.5  376905.30  179604.33  47.65
906.7  377387.50  179885.61  47.67
907.9  377922.30  180066.09  47.65
909.1  378117.45  180153.80  47.64
910.2  378249.45  180188.71  47.64
911.4  378483.30  180230.14  47.62
912.6  378628.25  180264.44  47.61
913.8  378793.65  180286.39  47.59
915.0  379098.30  180434.94  47.60
916.2  379109.25  180489.59  47.61
917.3  379129.73  180479.23  47.60
918.5  379241.50  180499.50  47.59
919.7  379521.75  180554.25  47.57
920.8  379387.30  180483.25  47.57
922.0  379456.00  180444.37  47.55
923.2  379606.50  180479.00  47.54
924.4  379701.00  180546.43  47.55
925.5  379932.40  180578.13  47.53
926.7  380568.38  180786.42  47.50
927.9  381310.20  181124.58  47.50
929.0  382442.85  181692.41  47.51
930.2  384556.20  182641.68  47.49
931.4  386893.13  183668.62  47.47
932.5  389496.40  184809.51  47.45
933.7  390824.23  185366.29  47.43
934.9  391413.75  185585.83  47.41
936.0  390945.75  185264.30  47.39
937.2  388807.50  184122.21  47.36
938.3  386952.25  183225.06  47.35
939.5  385268.40  182352.48  47.33
940.7  385571.70  182322.05  47.29
941.8  386812.13  182913.14  47.29
943.0  388255.50  183524.68  47.27
944.2  388679.20  183745.90  47.27
945.3  388098.75  183348.10  47.24
946.5  387497.25  182846.16  47.19
947.6  387502.40  182734.19  47.16
948.8  387467.93  182527.63  47.11
949.9  387496.20  182371.28  47.06
951.1  386812.73  181977.39  47.05
952.2  386580.00  181661.03  46.99
953.4  386106.75  181357.57  46.97
954.5  386029.80  181087.92  46.91
955.7  385774.20  180894.96  46.89
956.8  385683.00  180587.22  46.82
958.0  384967.00  180132.24  46.79
959.1  384635.40  179904.97  46.77
960.3  384058.25  179529.44  46.75
961.4  383958.35  179254.28  46.69
962.6  384079.50  179227.97  46.66
963.7  383933.63  178947.07  46.61
964.9  383566.20  178787.18  46.61
966.0  383447.93  178552.93  46.57
967.2  383017.50  178484.90  46.60
968.3  382874.85  178253.69  46.56
969.5  382458.60  178161.17  46.58
970.6  382560.63  178140.58  46.57
971.8  382964.58  178143.62  46.52
972.9  382787.85  177980.15  46.50
974.0  382932.50  178077.97  46.50
975.2  382742.25  177976.28  46.50
976.3  382904.70  177924.01  46.47
977.5  383091.28  177799.88  46.41
978.6  382895.70  177766.34  46.43
979.7  383101.95  177785.84  46.41
980.9  382835.33  177621.50  46.40
982.0  382040.20  177563.22  46.48
983.2  382171.90  177344.50  46.40
984.3  381747.60  177030.20  46.37
985.4  381280.93  177054.97  46.44
986.6  381371.63  176856.30  46.37
987.7  381551.63  177218.85  46.45
988.9  381238.20  176932.87  46.41
990.0  382042.50  176990.50  46.33
993.1  386454.78  178866.16  46.28
996.9  385100.38  178511.87  46.35
1000.7  384971.13  178779.39  46.44
1004.5  385002.17  179051.26  46.51
1008.4  384595.58  179174.60  46.59
1012.2  384412.50  179351.82  46.66
1016.0  383994.60  179386.03  46.72
1019.8  383269.43  179284.88  46.78
1023.7  381996.70  178851.59  46.82
1027.5  380327.45  178212.01  46.86
1031.3  379291.25  177793.69  46.88
1035.1  378218.69  177369.80  46.90
1038.9  377752.65  177219.38  46.91
1042.7  377459.67  177175.61  46.94
1046.5  377315.00  177169.40  46.96
1050.3  377343.80  177198.37  46.96
1054.2  376997.83  177095.08  46.98
1058.0  376613.53  176922.92  46.98
1061.8  376575.37  176942.27  46.99
1065.6  376017.33  176638.91  46.98
1069.4  375221.00  176212.74  46.96
1073.2  373932.27  175530.73  46.94
1077.0  373210.75  175135.83  46.93
1080.8  373375.00  175122.02  46.90
1084.6  373447.78  175114.22  46.89
1088.4  373735.51  175212.14  46.88
1092.2  373288.50  174902.46  46.85
1096.0  372644.72  174468.52  46.82
1099.8  371963.58  173989.83  46.78
1103.6  371052.73  173411.16  46.73
1107.4  369879.79  172692.52  46.69
1111.2  369573.40  172400.85  46.65
1114.9  369083.17  171976.92  46.60
1118.7  368844.30  171606.95  46.53
1122.5  368530.07  171159.86  46.44
1126.3  367618.42  170384.84  46.35
1130.1  367213.65  169687.11  46.21
1133.9  365552.60  168179.80  46.01
1137.7  364014.80  166569.04  45.76
1141.4  361965.50  164593.70  45.47
1145.2  361015.41  162990.14  45.15
1149.0  359751.88  161340.63  44.85
1152.8  357939.00  159560.97  44.58
1156.6  356069.82  157979.62  44.37
1160.3  354269.00  156633.67  44.21
1164.1  351940.70  155217.96  44.10
1167.9  350318.75  154250.60  44.03
1171.7  349035.75  153488.25  43.97
1175.4  347586.63  152691.60  43.93
1179.2  346198.08  151904.44  43.88
1183.0  345864.67  151578.24  43.83
1186.7  345864.40  151422.57  43.78
1190.5  345510.00  151153.56  43.75
1194.3  344601.70  150641.29  43.71
1198.0  343105.40  149930.90  43.70
1201.8  341433.95  149186.29  43.69
1205.6  340360.00  148784.67  43.71
1209.3  339849.27  148710.00  43.76
1213.1  339387.15  148684.31  43.81
1216.8  338784.51  148641.99  43.88
1220.6  337670.67  148338.67  43.93
1224.3  336415.92  147968.26  43.98
1228.1  334902.20  147498.20  44.04
1231.9  333279.95  146935.51  44.09
1235.6  331564.73  146302.52  44.12
1239.4  329997.75  145761.91  44.17
1243.1  328603.91  145231.11  44.20
1246.9  327322.66  144727.70  44.22
1250.6  326261.13  144301.85  44.23
1254.3  325084.38  143807.98  44.24
1258.1  323847.18  143266.28  44.24
1261.8  322399.73  142630.30  44.24
1265.6  321242.42  142093.89  44.23
1269.3  320508.73  141720.28  44.22
1273.1  320856.39  141790.09  44.19
1276.8  320603.60  141536.69  44.15
1280.6  319460.97  140870.24  44.10
1284.3  317454.80  139805.32  44.04
1288.0  316209.01  139063.47  43.98
1291.8  315738.00  138617.98  43.90
1295.5  315035.60  138020.67  43.81
1299.2  313903.23  137179.83  43.70
1302.9  312275.93  136044.46  43.57
1306.7  310504.02  134777.77  43.41
1310.4  308767.59  133427.36  43.21
1314.1  307178.85  132100.23  43.00
1317.9  305793.96  130743.87  42.76
1321.6  304258.70  129244.19  42.48
1325.3  302581.65  127600.73  42.17
1329.0  301295.63  126067.85  41.84
1332.8  299360.60  124187.80  41.48
1336.5  297684.73  122414.68  41.12
1340.2  297600.33  121279.17  40.75
1343.9  297642.29  120180.60  40.38
1347.6  297968.70  119190.13  40.00
1351.4  299708.00  118809.71  39.64
1355.1  302042.03  118684.71  39.29
1358.8  303984.00  118331.43  38.93
