/*** Spectra Vista SIG Data ***/
name= 36_20221021_ACSA_40_avg.sig
comm= Averaged Ref/Tar of files: HR.102122.0024_moc.sig,HR.102122.0025_moc.sig,HR.102122.0026_moc.sig
data=
337.3  3126.38  277.90  8.89
338.8  3222.70  266.15  8.26
340.3  3420.05  268.61  7.85
341.8  3612.28  253.01  7.00
343.2  3774.00  254.56  6.75
344.7  3923.80  264.43  6.74
346.2  4125.85  255.99  6.20
347.7  4286.43  256.92  5.99
349.2  4460.40  254.52  5.71
350.6  4737.53  254.63  5.37
352.1  5001.50  264.37  5.29
353.6  5274.40  272.97  5.18
355.1  5590.05  276.14  4.94
356.6  5866.73  279.68  4.77
358.0  6124.80  276.47  4.51
359.5  6427.20  280.16  4.36
361.0  6733.13  301.25  4.47
362.5  7084.55  316.17  4.46
364.0  7426.83  319.25  4.30
365.4  7755.60  327.83  4.23
366.9  8121.75  329.66  4.06
368.4  8482.53  343.67  4.05
369.9  8837.18  365.74  4.14
371.3  9264.90  386.26  4.17
372.8  9717.30  401.79  4.13
374.3  10105.00  404.92  4.01
375.8  10510.50  411.44  3.91
377.2  10894.50  428.61  3.93
378.7  11298.00  433.99  3.84
380.2  11701.50  446.54  3.82
381.7  12188.28  455.82  3.74
383.1  12666.50  463.54  3.66
384.6  13190.78  474.76  3.60
386.1  13620.60  481.05  3.53
387.6  14067.90  494.08  3.51
389.0  14525.60  516.35  3.55
390.5  14974.20  527.46  3.52
392.0  15526.15  544.87  3.51
393.4  16080.30  558.78  3.47
394.9  16625.70  562.02  3.38
396.4  17155.13  579.60  3.38
397.9  17681.25  592.79  3.35
399.3  18208.68  612.87  3.37
400.8  18768.53  624.79  3.33
402.2  19369.95  644.85  3.33
403.7  19982.25  662.87  3.32
405.2  20597.25  683.42  3.32
406.6  21181.60  700.64  3.31
408.1  21741.20  718.68  3.31
409.6  22345.10  743.37  3.33
411.0  22993.95  758.64  3.30
412.5  23636.38  784.41  3.32
414.0  24287.00  806.85  3.32
415.4  24963.00  836.08  3.35
416.9  25616.48  859.67  3.36
418.4  26313.08  885.20  3.36
419.8  27008.80  910.00  3.37
421.3  27735.70  936.41  3.38
422.7  28501.20  963.96  3.38
424.2  29261.25  993.38  3.39
425.7  30024.60  1024.73  3.41
427.1  30779.63  1050.78  3.41
428.6  31573.50  1085.00  3.44
430.0  32307.58  1102.72  3.41
431.5  33178.28  1136.29  3.42
432.9  34017.30  1168.09  3.43
434.4  34910.03  1202.35  3.44
435.9  35728.00  1234.80  3.46
437.3  36575.00  1267.75  3.47
438.8  37399.13  1295.96  3.47
440.2  38255.53  1328.64  3.47
441.7  39208.40  1363.23  3.48
443.1  40107.75  1397.43  3.48
444.6  41081.60  1430.52  3.48
446.0  42013.05  1466.18  3.49
447.5  42962.70  1503.61  3.50
448.9  43885.80  1541.12  3.51
450.4  44884.70  1577.31  3.51
451.8  45747.00  1614.60  3.53
453.3  46664.68  1652.68  3.54
454.7  47680.33  1688.16  3.54
456.2  48535.75  1722.78  3.55
457.6  49502.48  1761.15  3.56
459.1  50461.78  1802.43  3.57
460.5  51386.75  1843.97  3.59
462.0  52449.95  1885.39  3.59
463.4  53498.50  1923.48  3.60
464.8  54473.25  1960.08  3.60
466.3  55440.83  1998.10  3.60
467.7  56398.53  2039.00  3.62
469.2  57454.15  2084.04  3.63
470.6  58448.00  2128.11  3.64
472.0  59495.03  2167.55  3.64
473.5  60511.50  2203.50  3.64
474.9  61531.50  2242.00  3.64
476.4  62668.80  2291.52  3.66
477.8  63713.00  2331.60  3.66
479.2  64728.00  2371.23  3.66
480.7  65817.83  2414.43  3.67
482.1  66932.40  2458.43  3.67
483.6  68117.30  2508.52  3.68
485.0  69190.50  2561.11  3.70
486.4  70363.80  2612.21  3.71
487.9  71428.50  2669.55  3.74
489.3  72564.80  2731.98  3.76
490.7  73625.00  2794.81  3.80
492.2  74837.70  2872.38  3.84
493.6  75930.95  2949.53  3.88
495.0  77029.88  3032.25  3.94
496.5  78217.75  3128.71  4.00
497.9  79303.70  3231.44  4.07
499.3  80463.03  3349.81  4.16
500.7  81703.05  3488.65  4.27
502.2  82855.00  3639.29  4.39
503.6  84096.00  3812.55  4.53
505.0  85175.10  4009.22  4.71
506.5  86463.30  4239.44  4.90
507.9  87645.40  4492.96  5.13
509.3  88977.60  4787.31  5.38
510.7  90207.00  5114.85  5.67
512.2  91583.33  5482.17  5.99
513.6  93059.75  5897.85  6.34
515.0  94482.45  6350.04  6.72
516.4  95865.53  6838.02  7.13
517.8  97476.63  7377.02  7.57
519.3  98820.58  7927.98  8.02
520.7  100387.25  8521.79  8.49
522.1  101668.13  9115.43  8.97
523.5  103012.90  9725.37  9.44
524.9  104471.55  10348.11  9.91
526.3  105888.65  10951.92  10.34
527.8  107380.35  11563.20  10.77
529.2  108412.40  12131.58  11.19
530.6  109935.60  12742.01  11.59
532.0  111636.00  13355.07  11.96
533.4  112971.15  13898.99  12.30
534.8  113814.35  14362.35  12.62
536.3  115416.30  14893.48  12.90
537.7  117394.20  15461.04  13.17
539.1  118862.30  15946.91  13.42
540.5  120030.05  16387.20  13.65
541.9  121788.83  16897.91  13.87
543.3  123065.40  17327.78  14.08
544.7  124385.40  17774.88  14.29
546.1  126189.80  18278.28  14.48
547.5  127411.20  18688.32  14.67
549.0  129030.00  19143.67  14.84
550.4  130528.13  19560.63  14.99
551.8  132120.33  19966.63  15.11
553.2  133619.10  20328.48  15.21
554.6  134971.20  20622.51  15.28
556.0  136485.45  20907.69  15.32
557.4  138107.20  21170.38  15.33
558.8  139745.70  21413.46  15.32
560.2  141203.75  21598.68  15.30
561.6  142853.78  21781.30  15.25
563.0  144450.25  21921.38  15.18
564.4  146054.20  22042.47  15.09
565.8  147570.63  22134.00  15.00
567.2  149328.25  22231.72  14.89
568.6  150825.38  22260.40  14.76
570.0  152245.20  22222.18  14.60
571.4  153959.65  22182.51  14.41
572.8  155727.75  22126.88  14.21
574.2  157348.80  22049.81  14.01
575.6  158906.25  21965.25  13.82
577.0  160437.40  21891.11  13.64
578.4  162150.63  21861.23  13.48
579.8  163667.93  21820.86  13.33
581.2  165372.03  21823.51  13.20
582.5  166806.90  21802.56  13.07
583.9  168315.20  21805.61  12.96
585.3  170110.13  21859.32  12.85
586.7  171608.78  21889.51  12.76
588.1  173096.50  21933.32  12.67
589.5  174746.25  22018.97  12.60
590.9  176352.80  22124.08  12.55
592.3  178159.80  22267.05  12.50
593.7  179604.75  22385.74  12.46
595.0  181242.90  22536.09  12.43
596.4  182698.60  22671.13  12.41
597.8  184174.45  22800.19  12.38
599.2  185697.60  22921.36  12.34
600.6  187442.78  23043.37  12.29
602.0  188742.08  23071.31  12.22
603.3  190540.10  23119.91  12.13
604.7  192202.13  23108.02  12.02
606.1  193683.00  23026.68  11.89
607.5  195325.98  22916.84  11.73
608.9  197009.10  22773.18  11.56
610.2  198393.30  22570.38  11.38
611.6  200005.65  22371.83  11.19
613.0  201577.50  22162.45  10.99
614.4  202957.95  21925.88  10.80
615.8  204428.25  21711.30  10.62
617.1  205947.00  21526.68  10.45
618.5  207570.00  21384.03  10.30
619.9  209084.33  21267.13  10.17
621.3  210688.20  21206.51  10.07
622.6  212280.00  21185.30  9.98
624.0  213735.30  21191.22  9.91
625.4  215186.40  21237.54  9.87
626.8  216739.25  21324.64  9.84
628.1  218031.55  21422.41  9.83
629.5  219799.03  21577.24  9.82
630.9  221295.80  21714.68  9.81
632.2  222559.23  21808.35  9.80
633.6  224080.63  21882.33  9.77
635.0  225543.60  21878.40  9.70
636.3  227045.20  21794.54  9.60
637.7  228411.75  21602.92  9.46
639.1  230037.50  21338.33  9.28
640.4  231489.48  20981.40  9.06
641.8  232669.73  20534.40  8.83
643.2  234252.90  20064.23  8.57
644.5  235607.50  19550.62  8.30
645.9  237193.20  19042.86  8.03
647.2  238284.90  18533.27  7.78
648.6  239820.75  18119.70  7.56
650.0  241185.60  17753.76  7.36
651.3  242081.95  17392.65  7.18
652.7  244237.80  17147.66  7.02
654.0  246335.30  16895.62  6.86
655.4  247723.68  16574.13  6.69
656.8  247793.20  16120.03  6.51
658.1  249132.50  15702.35  6.30
659.5  251530.65  15287.79  6.08
660.8  253057.50  14787.00  5.84
662.2  254038.40  14247.89  5.61
663.5  255633.15  13764.01  5.38
664.9  256647.30  13295.36  5.18
666.2  257453.40  12881.92  5.00
667.6  259193.25  12595.77  4.86
668.9  260163.75  12343.70  4.74
670.3  261899.38  12191.39  4.65
671.6  263022.00  12086.15  4.60
673.0  264216.75  12052.23  4.56
674.3  265465.20  12065.13  4.54
675.7  266776.38  12130.95  4.55
677.0  267846.03  12225.34  4.56
678.4  269167.53  12385.39  4.60
679.7  270224.73  12605.64  4.66
681.1  271500.43  12930.06  4.76
682.4  272603.50  13363.13  4.90
683.8  273796.90  13971.62  5.10
685.1  274814.63  14804.58  5.39
686.4  276123.60  15979.56  5.79
687.8  277346.25  17578.98  6.34
689.1  278436.50  19685.32  7.07
690.5  279777.30  22411.09  8.01
691.8  280577.90  25751.86  9.18
693.1  281924.55  29814.95  10.58
694.5  283123.75  34434.40  12.16
695.8  284352.25  39504.62  13.89
697.1  285558.00  44873.62  15.71
698.5  286655.60  50424.27  17.59
699.8  287723.08  56040.51  19.48
701.1  288879.50  61633.67  21.34
702.5  289677.30  66991.54  23.13
703.8  290632.50  72151.50  24.83
705.1  291816.53  77085.19  26.42
706.5  292844.00  81719.47  27.91
707.8  293813.10  86068.36  29.29
709.1  294645.35  90112.63  30.58
710.5  295761.60  94007.60  31.78
711.8  296612.30  97589.26  32.90
713.1  297615.80  101036.84  33.95
714.4  298530.10  104274.80  34.93
715.8  299355.20  107328.41  35.85
717.1  300652.20  110404.53  36.72
718.4  301616.00  113212.59  37.54
719.7  302715.78  115927.55  38.30
721.0  303232.50  118305.00  39.01
722.4  303996.55  120634.98  39.68
723.7  304936.95  122923.06  40.31
725.0  305946.68  125120.82  40.90
726.3  306927.78  127176.34  41.44
727.6  307452.75  128956.69  41.94
729.0  308364.18  130782.54  42.41
730.3  309156.68  132458.22  42.85
731.6  310024.80  134066.28  43.24
732.9  310767.80  135544.29  43.62
734.2  311565.38  136941.66  43.95
735.5  312600.20  138370.91  44.26
736.8  313385.10  139624.60  44.55
738.1  314237.20  140814.02  44.81
739.5  315169.48  141991.06  45.05
740.8  315849.88  142986.21  45.27
742.1  316574.95  143939.45  45.47
743.4  317225.00  144838.33  45.66
744.7  318136.48  145800.17  45.83
746.0  318979.05  146693.69  45.99
747.3  319547.48  147413.68  46.13
748.6  320227.00  148163.78  46.27
749.9  320892.00  148832.67  46.38
751.2  321514.25  149459.45  46.49
752.5  322298.75  150151.56  46.59
753.8  322834.58  150697.86  46.68
755.1  323518.00  151261.07  46.76
756.4  324064.10  151766.73  46.83
757.7  325050.95  152441.40  46.90
759.0  326815.95  153468.70  46.96
760.3  327967.20  154188.32  47.01
761.6  329467.60  155070.91  47.07
762.9  329988.00  155460.30  47.11
764.2  330332.00  155772.52  47.16
765.5  330542.78  156013.52  47.20
766.8  330915.20  156320.21  47.24
768.1  331403.00  156665.89  47.27
769.3  331993.55  157037.25  47.30
770.6  332605.00  157446.08  47.34
771.9  333282.08  157866.40  47.37
773.2  333614.80  158133.09  47.40
774.5  334133.80  158491.67  47.43
775.8  334775.40  158871.18  47.46
777.1  335283.30  159211.47  47.49
778.4  335592.13  159424.65  47.51
779.6  336308.65  159845.20  47.53
780.9  336720.00  160132.00  47.56
782.2  337136.25  160417.77  47.58
783.5  337360.50  160623.17  47.61
784.8  337842.00  160925.00  47.63
786.0  338133.25  161165.95  47.66
787.3  338482.15  161391.21  47.68
788.6  338872.60  161639.18  47.70
789.9  339259.20  161908.04  47.72
791.2  339854.98  162264.76  47.75
792.4  340466.88  162641.49  47.77
793.7  340913.80  162909.61  47.79
795.0  341463.38  163241.71  47.81
796.2  342044.65  163593.22  47.83
797.5  342666.30  163962.19  47.85
798.8  343267.63  164310.54  47.87
800.0  343871.33  164656.77  47.88
801.3  344285.70  164916.83  47.90
802.6  344818.35  165247.77  47.92
803.8  345392.93  165584.89  47.94
805.1  345811.38  165851.00  47.96
806.4  346214.70  166110.92  47.98
807.7  346736.70  166406.94  47.99
808.9  347239.25  166700.81  48.01
810.2  347684.05  166988.01  48.03
811.4  348148.20  167249.08  48.04
812.7  348725.00  167588.96  48.06
814.0  349528.10  168015.45  48.07
815.2  350115.50  168369.40  48.09
816.5  350544.30  168595.52  48.10
817.7  350984.35  168866.14  48.11
819.0  351467.05  169133.47  48.12
820.2  351560.00  169256.27  48.14
821.5  352199.20  169631.30  48.16
822.7  352556.43  169844.64  48.18
824.0  352833.30  170016.66  48.19
825.2  353271.38  170293.73  48.20
826.5  353569.73  170476.80  48.22
827.7  354136.35  170773.70  48.22
829.0  354571.83  170998.76  48.23
830.2  354902.65  171202.49  48.24
831.5  355362.90  171472.88  48.25
832.7  355660.20  171661.39  48.27
834.0  355971.45  171858.04  48.28
835.2  356329.60  172061.40  48.29
836.4  356644.75  172252.92  48.30
837.7  357069.60  172489.69  48.31
838.9  357546.90  172759.26  48.32
840.1  357943.73  172982.79  48.33
841.4  358299.30  173222.57  48.35
842.6  358706.80  173442.39  48.35
843.8  359042.20  173651.33  48.37
845.1  359601.65  173942.98  48.37
846.3  360059.10  174193.84  48.38
847.5  360467.10  174450.08  48.40
848.8  360850.20  174683.88  48.41
850.0  361239.90  174910.45  48.42
851.2  361791.90  175202.37  48.43
852.5  362201.90  175440.41  48.44
853.7  362790.00  175722.60  48.44
854.9  363285.60  175975.83  48.44
856.1  363672.40  176252.57  48.46
857.4  363948.95  176394.74  48.47
858.6  364394.20  176673.06  48.48
859.8  364912.50  176887.75  48.47
861.0  365391.00  177119.28  48.47
862.2  365894.10  177393.72  48.48
863.5  366307.50  177608.86  48.49
864.7  366775.20  177908.72  48.51
865.9  367220.20  178141.80  48.51
867.1  367487.40  178325.81  48.53
868.3  367962.60  178537.21  48.52
869.5  368491.15  178796.25  48.52
870.8  369036.00  179086.50  48.53
872.0  369690.83  179368.23  48.52
873.2  370040.25  179599.12  48.54
874.4  370550.70  179831.34  48.53
875.6  370873.98  180030.90  48.54
876.8  371393.25  180285.01  48.54
878.0  371997.40  180533.59  48.53
879.2  372503.55  180816.16  48.54
880.4  372967.50  181098.30  48.56
881.6  373398.63  181328.80  48.56
882.8  373815.20  181529.07  48.56
884.0  374436.88  181801.73  48.55
885.2  374917.50  182047.66  48.56
886.5  375568.95  182343.89  48.55
887.7  376034.43  182588.71  48.56
888.8  376691.93  182896.85  48.55
890.0  377103.55  183143.45  48.57
891.2  377798.40  183370.90  48.54
892.4  378389.55  183657.99  48.54
893.6  378944.55  183951.42  48.54
894.8  379856.50  184395.60  48.54
896.0  380723.00  184810.12  48.54
897.2  381338.75  185171.78  48.56
898.4  382090.50  185531.28  48.56
899.6  382675.50  185776.98  48.55
900.8  383114.45  185913.47  48.53
902.0  383201.85  186014.57  48.54
903.2  383527.35  186149.32  48.54
904.3  383808.60  186303.88  48.54
905.5  384394.23  186574.83  48.54
906.7  384878.50  186836.13  48.54
907.9  385407.05  187049.66  48.53
909.1  385707.83  187166.97  48.53
910.2  385710.23  187206.24  48.54
911.4  386038.58  187306.86  48.52
912.6  386164.35  187357.17  48.52
913.8  386310.38  187425.23  48.52
915.0  386720.25  187608.26  48.51
916.2  386841.00  187666.05  48.51
917.3  386838.23  187616.33  48.50
918.5  386917.40  187690.93  48.51
919.7  387151.65  187730.62  48.49
920.8  387102.75  187689.41  48.49
922.0  387136.75  187715.73  48.49
923.2  387250.50  187805.80  48.50
924.4  387450.00  187876.35  48.49
925.5  387789.20  187936.53  48.46
926.7  388256.63  188181.78  48.47
927.9  388974.00  188481.28  48.46
929.0  390241.80  189136.80  48.47
930.2  392511.50  190146.68  48.44
931.4  395167.28  191255.45  48.40
932.5  397637.00  192535.63  48.42
933.7  398949.80  193133.77  48.41
934.9  399345.63  193375.88  48.42
936.0  398823.75  193043.83  48.40
937.2  396749.10  191922.00  48.37
938.3  394975.45  190941.02  48.34
939.5  393220.80  190079.28  48.34
940.7  393479.10  190052.64  48.30
941.8  394881.68  190722.06  48.30
943.0  396321.75  191319.50  48.27
944.2  396898.45  191599.85  48.27
945.3  396435.00  191239.75  48.24
946.5  395566.20  190702.44  48.21
947.6  395702.50  190623.72  48.17
948.8  395422.95  190403.20  48.15
949.9  395589.60  190293.60  48.10
951.1  395034.25  189964.02  48.09
952.2  394740.00  189706.40  48.06
953.4  394189.50  189343.60  48.03
954.5  394243.20  189076.68  47.96
955.7  394128.00  188867.28  47.92
956.8  393745.30  188556.13  47.89
958.0  393384.00  188201.17  47.84
959.1  392987.23  187923.59  47.82
960.3  392337.35  187582.94  47.81
961.4  392167.60  187342.90  47.77
962.6  392231.00  187260.73  47.74
963.7  391784.03  186986.72  47.73
964.9  391850.03  186879.75  47.69
966.0  391420.35  186709.05  47.70
967.2  391470.30  186613.17  47.67
968.3  391015.35  186345.09  47.66
969.5  390566.28  186141.04  47.66
970.6  390644.93  186112.14  47.64
971.8  390749.63  186142.54  47.64
972.9  390593.48  186023.66  47.63
974.0  390754.10  186110.63  47.63
975.2  390588.13  185981.35  47.62
976.3  390433.73  185883.26  47.61
977.5  389898.43  185860.41  47.67
978.6  390097.50  185699.75  47.60
979.7  389472.83  185803.03  47.71
980.9  389599.20  185600.73  47.64
982.0  389239.45  185548.67  47.67
983.2  388813.93  185329.53  47.67
984.3  388273.20  185145.77  47.68
985.4  388223.83  185066.86  47.67
986.6  387512.88  184769.74  47.68
987.7  388073.88  185144.94  47.71
988.9  388132.20  184897.08  47.64
990.0  388591.80  184981.34  47.60
993.1  387713.84  183487.73  47.33
996.9  386417.55  183321.71  47.44
1000.7  386358.41  183672.91  47.54
1004.5  386441.75  184042.73  47.62
1008.4  385946.50  184176.62  47.72
1012.2  385693.88  184386.17  47.81
1016.0  385133.40  184484.90  47.90
1019.8  384360.90  184452.22  47.99
1023.7  383134.95  184127.29  48.06
1027.5  381511.60  183562.04  48.11
1031.3  380561.28  183268.26  48.16
1035.1  379598.68  182928.23  48.19
1038.9  379196.58  182831.03  48.22
1042.7  378950.83  182806.33  48.24
1046.5  378859.00  182825.12  48.26
1050.3  378824.69  182886.37  48.28
1054.2  378481.83  182787.19  48.29
1058.0  378072.33  182621.60  48.30
1061.8  378014.97  182625.92  48.31
1065.6  377398.87  182318.54  48.31
1069.4  376727.20  181976.43  48.30
1073.2  375415.18  181376.24  48.31
1077.0  374681.98  180998.33  48.31
1080.8  374764.58  180955.59  48.29
1084.6  374777.32  180857.30  48.26
1088.4  374990.96  180892.03  48.24
1092.2  374487.75  180563.04  48.22
1096.0  373858.17  180146.42  48.19
1099.8  373184.07  179694.43  48.15
1103.6  372285.47  179118.55  48.11
1107.4  371184.43  178426.16  48.07
1111.2  370930.70  178150.57  48.03
1114.9  370426.58  177731.37  47.98
1118.7  370205.55  177382.11  47.91
1122.5  369900.27  176918.71  47.83
1126.3  369004.65  176095.64  47.72
1130.1  368612.41  175390.22  47.58
1133.9  366977.10  173893.42  47.39
1137.7  365402.60  172283.82  47.15
1141.4  363328.55  170287.50  46.87
1145.2  362393.62  168718.16  46.56
1149.0  361090.63  167023.42  46.26
1152.8  359264.70  165186.04  45.98
1156.6  357435.28  163554.50  45.76
1160.3  355656.00  162137.63  45.59
1164.1  353297.77  160658.15  45.47
1167.9  351636.46  159616.12  45.39
1171.7  350287.88  158831.25  45.34
1175.4  348828.60  158012.83  45.30
1179.2  347439.60  157236.41  45.26
1183.0  347071.67  156914.88  45.21
1186.7  347019.17  156731.80  45.17
1190.5  346650.07  156411.46  45.12
1194.3  345730.33  155853.40  45.08
1198.0  344246.65  155112.18  45.06
1201.8  342515.15  154348.09  45.06
1205.6  341409.67  153944.73  45.09
1209.3  340862.03  153864.35  45.14
1213.1  340405.88  153841.58  45.19
1216.8  339834.09  153788.28  45.25
1220.6  338758.93  153504.92  45.31
1224.3  337540.58  153147.85  45.37
1228.1  336046.80  152706.64  45.44
1231.9  334459.50  152145.34  45.49
1235.6  332713.05  151494.64  45.53
1239.4  331152.50  150934.04  45.58
1243.1  329799.37  150421.36  45.61
1246.9  328486.93  149907.71  45.64
1250.6  327426.80  149478.60  45.65
1254.3  326234.33  148973.94  45.66
1258.1  324992.27  148443.91  45.68
1261.8  323500.13  147789.63  45.68
1265.6  322273.42  147208.52  45.68
1269.3  321456.53  146769.57  45.66
1273.1  321786.46  146835.86  45.63
1276.8  321587.60  146625.63  45.59
1280.6  320492.07  146016.13  45.56
1284.3  318488.00  144947.36  45.51
1288.0  317183.51  144152.27  45.45
1291.8  316663.78  143654.71  45.37
1295.5  315906.80  143000.74  45.27
1299.2  314762.28  142136.92  45.16
1302.9  313181.21  141003.45  45.02
1306.7  311435.02  139739.16  44.87
1310.4  309738.32  138409.64  44.69
1314.1  308137.50  137062.56  44.48
1317.9  306736.88  135701.06  44.24
1321.6  305185.39  134197.40  43.97
1325.3  303510.38  132544.74  43.67
1329.0  302197.35  130993.93  43.35
1332.8  300253.80  129093.31  42.99
1336.5  298600.73  127279.90  42.63
1340.2  298555.83  126141.41  42.25
