/*** Spectra Vista SIG Data ***/
name= 41_20220825_LIST_57_avg.sig
comm= Averaged Ref/Tar of files: HR.082522.0041_moc.sig,HR.082522.0042_moc.sig,HR.082522.0043_moc.sig
data=
337.3  3324.88  264.67  7.96
338.8  3463.20  250.12  7.22
340.3  3654.30  256.11  7.01
341.8  3886.63  243.87  6.27
343.2  4040.40  248.64  6.15
344.7  4222.35  250.21  5.93
346.2  4411.80  234.21  5.31
347.7  4601.03  241.19  5.24
349.2  4800.60  226.80  4.72
350.6  5031.33  239.94  4.77
352.1  5358.75  223.88  4.18
353.6  5621.40  235.96  4.20
355.1  5926.80  237.97  4.02
356.6  6227.25  240.35  3.86
358.0  6507.60  246.69  3.79
359.5  6798.00  251.32  3.70
361.0  7152.08  239.40  3.35
362.5  7494.40  249.81  3.33
364.0  7885.63  256.16  3.25
365.4  8205.20  269.76  3.29
366.9  8591.38  276.25  3.22
368.4  8973.48  283.66  3.16
369.9  9350.65  291.87  3.12
371.3  9772.20  299.04  3.06
372.8  10195.20  307.98  3.02
374.3  10642.50  311.75  2.93
375.8  11076.45  323.40  2.92
377.2  11486.30  333.56  2.90
378.7  11943.60  344.32  2.88
380.2  12347.10  347.91  2.82
381.7  12890.93  356.73  2.77
383.1  13394.15  355.74  2.66
384.6  13919.10  363.26  2.61
386.1  14404.33  378.35  2.63
387.6  14849.45  384.49  2.59
389.0  15383.20  400.21  2.60
390.5  15876.90  400.02  2.52
392.0  16451.90  416.15  2.53
393.4  17026.20  423.90  2.49
394.9  17591.40  438.48  2.49
396.4  18190.13  458.85  2.52
397.9  18757.50  468.08  2.50
399.3  19322.98  476.11  2.46
400.8  19890.15  485.21  2.44
402.2  20548.35  497.55  2.42
403.7  21161.93  513.60  2.43
405.2  21828.35  530.32  2.43
406.6  22434.40  547.52  2.44
408.1  23052.00  560.48  2.43
409.6  23662.10  576.55  2.44
411.0  24360.35  592.11  2.43
412.5  25031.65  608.09  2.43
414.0  25692.88  632.98  2.46
415.4  26433.75  651.90  2.47
416.9  27119.93  678.48  2.50
418.4  27844.43  694.71  2.49
419.8  28610.40  711.01  2.49
421.3  29357.78  729.64  2.49
422.7  30136.80  751.68  2.49
424.2  30915.00  778.50  2.52
425.7  31719.80  806.31  2.54
427.1  32520.38  831.34  2.56
428.6  33340.50  851.47  2.55
430.0  34113.40  874.08  2.56
431.5  34999.13  895.50  2.56
432.9  35892.50  923.93  2.57
434.4  36829.58  949.27  2.58
435.9  37702.00  978.13  2.59
437.3  38582.50  999.17  2.59
438.8  39462.53  1020.84  2.59
440.2  40344.15  1047.46  2.60
441.7  41325.60  1075.57  2.60
443.1  42254.25  1102.40  2.61
444.6  43256.20  1128.35  2.61
446.0  44244.75  1159.10  2.62
447.5  45237.50  1189.10  2.63
448.9  46220.70  1219.48  2.64
450.4  47254.55  1251.83  2.65
451.8  48139.00  1275.73  2.65
453.3  49096.63  1304.01  2.66
454.7  50157.23  1333.31  2.66
456.2  51048.50  1361.29  2.67
457.6  52064.55  1387.68  2.67
459.1  53073.48  1416.00  2.67
460.5  54048.38  1444.50  2.67
462.0  55141.43  1475.13  2.68
463.4  56224.80  1507.00  2.68
464.8  57248.25  1533.65  2.68
466.3  58245.83  1559.58  2.68
467.7  59269.83  1585.78  2.68
469.2  60353.60  1617.69  2.68
470.6  61384.45  1642.91  2.68
472.0  62450.78  1670.23  2.67
473.5  63491.88  1698.77  2.68
474.9  64566.75  1729.00  2.68
476.4  65736.00  1762.56  2.68
477.8  66845.00  1792.20  2.68
479.2  67874.50  1823.13  2.69
480.7  69016.80  1856.66  2.69
482.1  70198.10  1890.06  2.69
483.6  71440.80  1922.81  2.69
485.0  72592.13  1958.95  2.70
486.4  73826.70  1998.20  2.71
487.9  74938.50  2035.80  2.72
489.3  76128.25  2073.28  2.72
490.7  77232.63  2112.55  2.74
492.2  78498.00  2159.92  2.75
493.6  79637.40  2203.36  2.77
495.0  80803.13  2250.30  2.78
496.5  82018.58  2301.04  2.81
497.9  83163.23  2353.87  2.83
499.3  84351.90  2416.48  2.86
500.7  85658.55  2480.73  2.90
502.2  86870.00  2554.03  2.94
503.6  88154.80  2629.95  2.98
505.0  89262.45  2715.13  3.04
506.5  90615.08  2815.13  3.11
507.9  91826.05  2927.44  3.19
509.3  93225.20  3050.77  3.27
510.7  94506.75  3184.35  3.37
512.2  95940.30  3342.76  3.48
513.6  97479.55  3520.53  3.61
515.0  98949.10  3719.36  3.76
516.4  100359.00  3942.54  3.93
517.8  102039.00  4196.07  4.11
519.3  103394.95  4460.84  4.31
520.7  105009.70  4754.52  4.53
522.1  106335.78  5053.36  4.75
523.5  107725.00  5376.52  4.99
524.9  109144.80  5699.04  5.22
526.3  110566.75  6015.52  5.44
527.8  112132.35  6345.90  5.66
529.2  113403.90  6659.31  5.87
530.6  115007.55  6970.68  6.06
532.0  116788.00  7266.93  6.22
533.4  118129.65  7520.55  6.37
534.8  119064.68  7719.87  6.48
536.3  120795.60  7951.56  6.58
537.7  122837.40  8181.60  6.66
539.1  124346.93  8366.21  6.73
540.5  125609.20  8528.19  6.79
541.9  127440.83  8722.92  6.84
543.3  128771.88  8877.25  6.89
544.7  130165.20  9036.40  6.94
546.1  132018.98  9228.96  6.99
547.5  133280.00  9376.64  7.04
549.0  135102.00  9553.87  7.07
550.4  136616.25  9701.33  7.10
551.8  138203.78  9835.96  7.12
553.2  139788.88  9940.08  7.11
554.6  141169.60  10003.41  7.09
556.0  142747.20  10042.26  7.03
557.4  144405.45  10051.04  6.96
558.8  146110.95  10036.74  6.87
560.2  147615.50  9982.13  6.76
561.6  149348.55  9921.82  6.64
563.0  151007.60  9832.53  6.51
564.4  152647.95  9731.32  6.38
565.8  154211.25  9606.42  6.23
567.2  156025.50  9474.33  6.07
568.6  157567.88  9309.00  5.91
570.0  159071.65  9131.20  5.74
571.4  160854.85  8963.76  5.57
572.8  162680.88  8805.07  5.41
574.2  164360.00  8653.87  5.27
575.6  165960.00  8509.50  5.13
577.0  167533.80  8381.59  5.00
578.4  169328.25  8281.00  4.89
579.8  170897.18  8183.97  4.79
581.2  172675.85  8113.30  4.70
582.5  174154.50  8041.80  4.62
583.9  175713.80  7987.81  4.55
585.3  177575.18  7956.36  4.48
586.7  179100.35  7922.07  4.42
588.1  180638.25  7892.57  4.37
589.5  182329.00  7882.47  4.32
590.9  184016.00  7883.09  4.28
592.3  185890.60  7901.48  4.25
593.7  187387.20  7917.65  4.23
595.0  189066.15  7948.08  4.20
596.4  190546.30  7970.29  4.18
597.8  192071.75  7994.93  4.16
599.2  193657.20  8018.56  4.14
600.6  195464.43  8039.42  4.11
602.0  196810.50  8037.10  4.08
603.3  198656.55  8046.89  4.05
604.7  200366.10  8042.72  4.01
606.1  201907.80  8009.52  3.97
607.5  203583.50  7974.38  3.92
608.9  205340.75  7929.82  3.86
610.2  206742.38  7871.85  3.81
611.6  208400.10  7817.63  3.75
613.0  210001.85  7762.54  3.70
614.4  211426.05  7709.56  3.65
615.8  212910.75  7661.55  3.60
617.1  214502.40  7620.48  3.55
618.5  216168.80  7597.33  3.51
619.9  217725.90  7579.91  3.48
621.3  219416.63  7581.72  3.46
622.6  221079.25  7588.40  3.43
624.0  222603.60  7603.46  3.42
625.4  224152.50  7628.50  3.40
626.8  225800.58  7660.99  3.39
628.1  227150.00  7690.65  3.39
629.5  229036.50  7740.31  3.38
630.9  230639.48  7781.36  3.37
632.2  232031.28  7808.50  3.37
633.6  233670.63  7843.25  3.36
635.0  235244.40  7859.25  3.34
636.3  236819.70  7856.51  3.32
637.7  238228.63  7834.97  3.29
639.1  239942.50  7812.00  3.26
640.4  241475.85  7777.00  3.22
641.8  242740.85  7726.54  3.18
643.2  244364.93  7683.46  3.14
644.5  245754.50  7640.67  3.11
645.9  247525.20  7608.78  3.07
647.2  249291.18  7584.22  3.04
648.6  251181.00  7581.60  3.02
650.0  252698.40  7571.52  3.00
651.3  253243.38  7544.42  2.98
652.7  254472.00  7538.89  2.96
654.0  256640.30  7560.05  2.95
655.4  258154.63  7567.37  2.93
656.8  258439.50  7530.35  2.91
658.1  259619.90  7509.16  2.89
659.5  262028.03  7509.95  2.87
660.8  263835.00  7497.00  2.84
662.2  264745.60  7457.71  2.82
663.5  266486.65  7466.03  2.80
664.9  267829.90  7463.91  2.79
666.2  268642.20  7471.04  2.78
667.6  270489.70  7507.15  2.78
668.9  271628.98  7556.39  2.78
670.3  272796.00  7601.53  2.79
671.6  274438.50  7684.75  2.80
673.0  275677.50  7785.05  2.82
674.3  276979.30  7897.07  2.85
675.7  278343.68  8017.64  2.88
677.0  279519.28  8140.44  2.91
678.4  280950.90  8299.02  2.95
679.7  282096.20  8451.73  3.00
681.1  283465.08  8629.85  3.04
682.4  284648.00  8828.21  3.10
683.8  285929.80  9028.59  3.16
685.1  286961.25  9236.45  3.22
686.4  288333.60  9489.76  3.29
687.8  289628.25  9781.10  3.38
689.1  290740.75  10116.33  3.48
690.5  292181.55  10567.08  3.62
691.8  293029.05  11135.61  3.80
693.1  294427.35  11916.92  4.05
694.5  295613.50  12906.83  4.37
695.8  296887.50  14183.87  4.78
697.1  298116.00  15758.17  5.29
698.5  299231.40  17669.68  5.91
699.8  300375.73  19938.88  6.64
701.1  301577.50  22557.09  7.48
702.5  302418.05  25460.45  8.42
703.8  303412.50  28662.00  9.45
705.1  304666.05  32127.55  10.55
706.5  305754.38  35802.98  11.71
707.8  306820.80  39657.84  12.93
709.1  307772.45  43655.79  14.18
710.5  308978.00  47835.03  15.48
711.8  309880.80  52101.72  16.81
713.1  310928.90  56508.20  18.17
714.4  311887.80  61006.85  19.56
715.8  312779.80  65573.89  20.96
717.1  314173.95  70333.96  22.39
718.4  315190.40  75048.96  23.81
719.7  316358.10  79837.19  25.24
721.0  316957.50  84471.00  26.65
722.4  317774.60  89150.67  28.05
723.7  318776.10  93831.40  29.43
725.0  319899.83  98478.03  30.78
726.3  320896.68  102992.49  32.10
727.6  321490.13  107265.33  33.37
729.0  322463.05  111510.26  34.58
730.3  323294.03  115554.80  35.74
731.6  324262.05  119478.69  36.85
732.9  325128.48  123193.02  37.89
734.2  326011.13  126751.72  38.88
735.5  327115.13  130203.03  39.80
736.8  327960.60  133377.28  40.67
738.1  328864.00  136382.96  41.47
739.5  329916.23  139260.89  42.21
740.8  330657.25  141840.78  42.90
742.1  331439.95  144269.78  43.53
743.4  332150.00  146536.67  44.12
744.7  333165.95  148760.75  44.65
746.0  334113.00  150798.70  45.13
747.3  334734.85  152534.00  45.57
748.6  335548.25  154221.90  45.96
749.9  336310.00  155767.73  46.32
751.2  337047.35  157171.96  46.63
752.5  337910.30  158559.65  46.92
753.8  338531.73  159728.50  47.18
755.1  339274.00  160863.73  47.41
756.4  339934.83  161848.49  47.61
757.7  341034.93  162972.23  47.79
759.0  342944.33  164409.77  47.94
760.3  344229.60  165499.84  48.08
761.6  345879.80  166721.71  48.20
762.9  346466.00  167383.67  48.31
764.2  346929.30  167909.80  48.40
765.5  347244.23  168362.15  48.49
766.8  347752.00  168843.09  48.55
768.1  348308.80  169342.96  48.62
769.3  348970.65  169852.11  48.67
770.6  349682.45  170379.47  48.72
771.9  350497.00  170920.82  48.77
773.2  350938.80  171270.93  48.80
774.5  351608.40  171729.65  48.84
775.8  352373.90  172203.73  48.87
777.1  352977.35  172622.41  48.90
778.4  353364.83  172913.07  48.93
779.6  354173.38  173419.61  48.96
780.9  354720.00  173764.00  48.99
782.2  355225.75  174102.87  49.01
783.5  355599.50  174358.33  49.03
784.8  356182.88  174732.54  49.06
786.0  356667.50  175017.31  49.07
787.3  357115.35  175307.36  49.09
788.6  357617.53  175623.08  49.11
789.9  358128.40  175940.80  49.13
791.2  358813.63  176356.71  49.15
792.4  359559.40  176776.78  49.16
793.7  360118.80  177095.71  49.18
795.0  360811.28  177500.07  49.19
796.2  361518.68  177915.24  49.21
797.5  362320.65  178356.86  49.23
798.8  363064.08  178764.53  49.24
800.0  363777.98  179174.12  49.25
801.3  364357.30  179479.57  49.26
802.6  364989.60  179873.76  49.28
803.8  365690.48  180264.05  49.29
805.1  366241.75  180574.92  49.30
806.4  366712.50  180888.64  49.33
807.7  367320.83  181227.51  49.34
808.9  367960.65  181579.71  49.35
810.2  368566.45  181919.45  49.36
811.4  369120.50  182235.79  49.37
812.7  369809.38  182628.33  49.38
814.0  370720.35  183122.99  49.40
815.2  371408.00  183516.30  49.41
816.5  371850.90  183789.15  49.43
817.7  372366.50  184095.03  49.44
819.0  372974.80  184430.77  49.45
820.2  373164.00  184577.07  49.46
821.5  373943.75  184999.83  49.47
822.7  374333.70  185253.23  49.49
824.0  374681.70  185484.96  49.50
825.2  375208.20  185803.20  49.52
826.5  375599.88  186011.37  49.52
827.7  376227.85  186343.40  49.53
829.0  376692.98  186590.76  49.53
830.2  377056.25  186808.91  49.54
831.5  377529.20  187119.68  49.56
832.7  377965.35  187336.10  49.56
834.0  378316.65  187575.54  49.58
835.2  378757.78  187801.39  49.58
836.4  379105.10  187998.29  49.59
837.7  379508.40  188276.35  49.61
838.9  380017.50  188569.46  49.62
840.1  380409.75  188849.07  49.64
841.4  380888.60  189150.77  49.66
842.6  381364.40  189391.33  49.66
843.8  381720.40  189629.60  49.68
845.1  382273.35  189967.48  49.69
846.3  382716.80  190236.53  49.71
847.5  383121.90  190503.32  49.72
848.8  383592.60  190780.72  49.74
850.0  383981.85  191024.03  49.75
851.2  384570.45  191373.66  49.76
852.5  385028.40  191631.15  49.77
853.7  385627.50  191956.80  49.78
854.9  386090.10  192245.24  49.79
856.1  386569.30  192521.42  49.80
857.4  386805.98  192704.39  49.82
858.6  387323.30  193016.34  49.83
859.8  387806.25  193278.75  49.84
861.0  388346.40  193574.16  49.85
862.2  388922.40  193854.69  49.84
863.5  389291.50  194071.15  49.85
864.7  389789.40  194393.76  49.87
865.9  390267.80  194666.59  49.88
867.1  390696.35  194895.86  49.88
868.3  391166.10  195178.86  49.90
869.5  391791.35  195469.51  49.89
870.8  392368.50  195789.00  49.90
872.0  392965.65  196116.82  49.91
873.2  393407.10  196385.74  49.92
874.4  393927.30  196668.81  49.93
875.6  394327.83  196916.61  49.94
876.8  394943.05  197205.38  49.93
878.0  395430.95  197495.02  49.94
879.2  396141.45  197820.02  49.94
880.4  396717.00  198102.05  49.94
881.6  397248.78  198390.40  49.94
882.8  397697.60  198649.07  49.95
884.0  398331.58  199007.07  49.96
885.2  399035.00  199312.87  49.95
886.5  399647.30  199675.57  49.96
887.7  400161.13  199963.53  49.97
888.8  401062.35  200330.37  49.95
890.0  401695.25  200653.48  49.95
891.2  402347.80  200992.75  49.95
892.4  403001.03  201326.30  49.96
893.6  403706.50  201666.97  49.95
894.8  404685.00  202147.00  49.95
896.0  405634.75  202615.57  49.95
897.2  406627.00  203098.57  49.95
898.4  407460.90  203536.08  49.95
899.6  408124.88  203830.45  49.94
900.8  408521.88  204074.69  49.95
902.0  408869.85  204217.46  49.95
903.2  409247.78  204388.75  49.94
904.3  409682.10  204624.52  49.95
905.5  410437.80  204950.64  49.93
906.7  411097.00  205268.53  49.93
907.9  411776.40  205565.78  49.92
909.1  412098.98  205773.12  49.93
910.2  412355.85  205917.39  49.94
911.4  412542.00  206031.15  49.94
912.6  412905.35  206148.80  49.93
913.8  413296.65  206311.51  49.92
915.0  413834.40  206534.02  49.91
916.2  414092.25  206670.10  49.91
917.3  414203.40  206656.32  49.89
918.5  414628.70  206806.96  49.88
919.7  414777.15  206936.92  49.89
920.8  415038.00  206986.90  49.87
922.0  415164.75  207047.87  49.87
923.2  415506.00  207134.20  49.85
924.4  415816.88  207230.40  49.84
925.5  416270.10  207344.69  49.81
926.7  417016.38  207639.70  49.79
927.9  417894.00  208031.20  49.78
929.0  419377.50  208737.18  49.77
930.2  421781.00  209859.81  49.76
931.4  424433.25  211041.90  49.72
932.5  427381.50  212344.42  49.68
933.7  428902.90  212985.66  49.66
934.9  429616.25  213243.33  49.64
936.0  429186.88  212924.83  49.61
937.2  427191.90  211776.00  49.57
938.3  425396.75  210809.58  49.56
939.5  424015.20  209920.80  49.51
940.7  424421.10  209901.36  49.46
941.8  425931.90  210603.56  49.45
943.0  427690.50  211252.10  49.39
944.2  428679.55  211508.70  49.34
945.3  428112.75  211135.60  49.32
946.5  427466.70  210568.32  49.26
947.6  427740.10  210431.09  49.20
948.8  427825.13  210167.88  49.12
949.9  427963.20  210007.28  49.07
951.1  427719.83  209535.26  48.99
952.2  427380.00  209168.00  48.94
953.4  427349.50  208797.47  48.86
954.5  427518.00  208437.84  48.76
955.7  427543.20  208059.60  48.66
956.8  427519.80  207644.17  48.57
958.0  427052.00  207146.80  48.51
959.1  426845.98  206794.20  48.45
960.3  426603.63  206425.56  48.39
961.4  426411.90  206247.63  48.37
962.6  426755.00  206280.90  48.34
963.7  426865.50  206073.00  48.28
964.9  426993.53  205940.91  48.23
966.0  426910.50  205808.58  48.21
967.2  426866.40  205720.02  48.19
968.3  426562.20  205683.30  48.22
969.5  426631.45  205506.26  48.17
970.6  427024.28  205610.70  48.15
971.8  427279.48  205764.86  48.16
972.9  427436.03  205777.09  48.14
974.0  427580.80  205881.89  48.15
975.2  427429.63  205766.60  48.14
976.3  427720.33  205697.74  48.09
977.5  427337.75  205878.47  48.18
978.6  428107.00  206024.83  48.12
979.7  428547.53  206246.46  48.13
980.9  428378.75  206162.91  48.13
982.0  428115.40  206122.53  48.15
983.2  427644.23  206004.96  48.17
984.3  427426.80  205991.44  48.19
985.4  428145.50  205972.70  48.11
986.6  428045.13  206182.23  48.17
987.7  429164.05  206711.84  48.17
988.9  428806.80  206636.16  48.19
990.0  430070.70  206957.88  48.12
993.1  370480.37  177528.40  47.92
996.9  371582.00  178709.95  48.09
1000.7  372926.98  179950.47  48.25
1004.5  373658.25  180852.80  48.40
1008.4  373528.46  181401.38  48.56
1012.2  373686.92  182016.27  48.71
1016.0  373964.40  182658.51  48.84
1019.8  374375.93  183356.25  48.98
1023.7  374673.96  183952.04  49.10
1027.5  374765.53  184383.95  49.20
1031.3  375343.88  184977.42  49.28
1035.1  375425.05  185313.17  49.36
1038.9  375521.12  185606.38  49.43
1042.7  375417.42  185793.81  49.49
1046.5  375320.67  185932.52  49.54
1050.3  375453.30  186137.73  49.58
1054.2  375204.67  186189.00  49.62
1058.0  374698.86  186044.76  49.65
1061.8  374535.93  186098.29  49.69
1065.6  374395.53  186065.08  49.70
1069.4  374600.80  186186.57  49.70
1073.2  374466.12  186097.57  49.70
1077.0  374081.48  185893.36  49.69
1080.8  373465.63  185509.38  49.67
1084.6  372148.47  184761.97  49.65
1088.4  371314.28  184277.86  49.63
1092.2  370392.75  183685.82  49.59
1096.0  369842.23  183243.33  49.55
1099.8  369409.08  182825.16  49.49
1103.6  368811.40  182304.45  49.43
1107.4  367992.23  181634.67  49.36
1111.2  367828.30  181284.63  49.29
1114.9  367191.42  180648.42  49.20
1118.7  366557.40  179933.92  49.09
1122.5  365816.53  179054.82  48.95
1126.3  364712.66  177856.79  48.77
1130.1  364178.61  176707.29  48.52
1133.9  362574.10  174684.40  48.18
1137.7  361187.80  172461.69  47.75
1141.4  359416.09  169779.06  47.24
1145.2  358735.10  167400.41  46.66
1149.0  357669.38  164931.88  46.11
1152.8  356073.20  162440.33  45.62
1156.6  354387.37  160358.73  45.25
1160.3  352663.00  158663.76  44.99
1164.1  350171.67  156986.99  44.83
1167.9  348306.25  155852.38  44.75
1171.7  347004.00  155104.88  44.70
1175.4  345899.43  154502.66  44.67
1179.2  344933.13  153945.75  44.63
1183.0  344705.00  153677.81  44.58
1186.7  344073.33  153240.57  44.54
1190.5  342834.33  152576.15  44.50
1194.3  341561.30  151944.32  44.49
1198.0  340389.23  151443.87  44.49
1201.8  338978.73  150882.10  44.51
1205.6  337724.67  150485.19  44.56
1209.3  336700.88  150282.62  44.63
1213.1  335680.73  150074.60  44.71
1216.8  334586.18  149931.48  44.81
1220.6  333481.87  149752.53  44.91
1224.3  332258.67  149497.47  44.99
1228.1  331041.60  149263.60  45.09
1231.9  329836.43  149011.96  45.18
1235.6  328383.30  148604.55  45.25
1239.4  327055.00  148257.66  45.33
1243.1  325789.98  147879.51  45.39
1246.9  324593.91  147482.44  45.44
1250.6  323607.00  147158.37  45.47
1254.3  322554.47  146772.59  45.50
1258.1  321592.25  146384.43  45.52
1261.8  320321.20  145839.18  45.53
1265.6  318836.75  145140.25  45.52
1269.3  317276.05  144348.49  45.50
1273.1  317152.73  144155.59  45.45
1276.8  317520.40  144139.60  45.40
1280.6  317627.90  143972.89  45.33
1284.3  316421.60  143164.97  45.25
1288.0  314925.92  142142.43  45.14
1291.8  313431.68  141033.35  45.00
1295.5  311889.60  139822.99  44.83
1299.2  310578.39  138645.67  44.64
1302.9  309154.26  137306.51  44.41
1306.7  307648.95  135824.03  44.15
1310.4  306209.81  134202.18  43.83
1314.1  304850.70  132528.47  43.47
1317.9  303649.58  130748.21  43.06
1321.6  302283.78  128755.89  42.59
1325.3  300648.08  126508.88  42.08
1329.0  299293.52  124284.07  41.53
1332.8  297143.00  121616.00  40.93
1336.5  295318.40  119045.11  40.31
1340.2  294946.17  117084.50  39.70
1343.9  294570.21  115131.43  39.08
1347.6  294044.40  113164.63  38.49
1351.4  294422.50  111604.43  37.91
1355.1  294978.57  110177.47  37.35
1358.8  295152.00  108550.86  36.78
1362.5  294659.98  106537.79  36.16
