/*** Spectra Vista SIG Data ***/
name= 33_20220721_BENI_49_avg.sig
comm= Averaged Ref/Tar of files: HR.072122.0021_moc.sig,HR.072122.0022_moc.sig,HR.072122.0023_moc.sig
data=
337.3  3324.88  284.52  8.56
338.8  3463.20  282.19  8.15
340.3  3560.60  295.16  8.29
341.8  3795.18  288.07  7.59
343.2  3996.00  279.72  7.00
344.7  4222.35  268.70  6.36
346.2  4411.80  262.80  5.96
347.7  4601.03  252.99  5.50
349.2  4725.00  249.48  5.28
350.6  4994.60  236.26  4.73
352.1  5287.30  240.55  4.55
353.6  5552.00  242.90  4.38
355.1  5825.78  236.85  4.07
356.6  6128.93  244.72  3.99
358.0  6380.00  252.01  3.95
359.5  6674.40  248.23  3.72
361.0  6972.53  244.39  3.50
362.5  7318.75  242.98  3.32
364.0  7656.23  254.25  3.32
365.4  8036.60  253.84  3.16
366.9  8398.00  265.20  3.16
368.4  8700.73  278.21  3.20
369.9  9053.38  282.86  3.12
371.3  9451.80  294.59  3.12
372.8  9823.50  304.44  3.10
374.3  10239.38  300.10  2.93
375.8  10645.25  301.84  2.84
377.2  11055.90  308.45  2.79
378.7  11459.40  315.63  2.75
380.2  11836.00  315.63  2.67
381.7  12323.40  328.80  2.67
383.1  12801.25  335.08  2.62
384.6  13244.73  336.29  2.54
386.1  13701.68  348.62  2.54
387.6  14175.70  354.84  2.50
389.0  14632.80  360.01  2.46
390.5  15080.40  376.13  2.49
392.0  15605.50  390.58  2.50
393.4  16132.85  399.38  2.48
394.9  16677.90  413.25  2.48
396.4  17181.00  423.49  2.46
397.9  17732.50  437.33  2.47
399.3  18259.33  457.54  2.51
400.8  18793.45  471.91  2.51
402.2  19394.50  482.82  2.49
403.7  19982.25  495.14  2.48
405.2  20549.90  514.54  2.50
406.6  21135.20  537.47  2.54
408.1  21718.60  552.95  2.55
409.6  22323.15  577.29  2.59
411.0  22951.25  594.95  2.59
412.5  23553.08  617.11  2.62
414.0  24185.13  636.38  2.63
415.4  24883.50  661.18  2.66
416.9  25500.83  685.55  2.69
418.4  26201.03  704.67  2.69
419.8  26881.40  731.03  2.72
421.3  27575.28  759.35  2.75
422.7  28344.60  786.48  2.77
424.2  29092.50  816.75  2.81
425.7  29812.70  843.25  2.83
427.1  30526.43  864.57  2.83
428.6  31294.50  895.38  2.86
430.0  32019.25  916.06  2.86
431.5  32849.93  947.74  2.89
432.9  33695.00  979.11  2.91
434.4  34537.58  1011.35  2.93
435.9  35336.00  1036.93  2.93
437.3  36148.75  1063.79  2.94
438.8  36937.58  1090.98  2.95
440.2  37770.43  1117.98  2.96
441.7  38699.20  1155.97  2.99
443.1  39577.75  1189.41  3.01
444.6  40505.20  1223.10  3.02
446.0  41390.25  1258.14  3.04
447.5  42303.53  1292.50  3.06
448.9  43202.10  1325.26  3.07
450.4  44159.50  1359.75  3.08
451.8  44993.00  1400.53  3.11
453.3  45880.18  1436.94  3.13
454.7  46850.30  1478.24  3.16
456.2  47689.35  1510.74  3.17
457.6  48626.33  1543.00  3.17
459.1  49569.00  1579.46  3.19
460.5  50450.50  1612.58  3.20
462.0  51449.10  1650.05  3.21
463.4  52443.60  1691.04  3.22
464.8  53404.88  1724.66  3.23
466.3  54374.93  1759.67  3.24
467.7  55328.83  1790.34  3.24
469.2  56356.30  1831.16  3.25
470.6  57281.85  1868.18  3.26
472.0  58270.50  1903.41  3.27
473.5  59226.13  1937.01  3.27
474.9  60206.25  1974.58  3.28
476.4  61315.20  2016.48  3.29
477.8  62350.00  2063.83  3.31
479.2  63350.50  2101.05  3.32
480.7  64413.75  2147.13  3.33
482.1  65501.85  2189.18  3.34
483.6  66643.40  2239.27  3.36
485.0  67699.58  2289.46  3.38
486.4  68850.60  2343.04  3.40
487.9  69878.25  2398.99  3.43
489.3  71003.95  2463.49  3.47
490.7  72064.15  2524.85  3.50
492.2  73250.10  2598.47  3.55
493.6  74319.45  2665.32  3.59
495.0  75391.88  2738.29  3.63
496.5  76515.45  2825.43  3.69
497.9  77586.73  2919.84  3.76
499.3  78702.03  3020.12  3.84
500.7  79901.10  3144.87  3.94
502.2  81000.80  3269.43  4.04
503.6  82183.40  3415.43  4.16
505.0  83212.00  3578.02  4.30
506.5  84468.68  3770.58  4.46
507.9  85644.03  3990.40  4.66
509.3  86994.40  4245.63  4.88
510.7  88203.38  4531.31  5.14
512.2  89556.83  4846.23  5.41
513.6  90964.65  5212.88  5.73
515.0  92291.80  5616.50  6.09
516.4  93597.53  6056.03  6.47
517.8  95160.13  6546.94  6.88
519.3  96413.75  7058.14  7.32
520.7  97900.40  7617.44  7.78
522.1  99138.65  8180.03  8.25
523.5  100455.30  8758.39  8.72
524.9  101848.95  9334.41  9.16
526.3  103176.50  9884.76  9.58
527.8  104603.40  10428.66  9.97
529.2  105715.50  10928.16  10.34
530.6  107161.20  11447.77  10.68
532.0  108766.00  11942.47  10.98
533.4  110079.68  12361.85  11.23
534.8  111037.10  12706.58  11.44
536.3  112642.80  13083.18  11.61
537.7  114521.40  13471.08  11.76
539.1  115842.68  13772.78  11.89
540.5  116993.45  14040.26  12.00
541.9  118633.13  14367.46  12.11
543.3  119905.43  14643.53  12.21
544.7  121125.00  14916.52  12.31
546.1  122829.85  15240.42  12.41
547.5  124006.40  15498.56  12.50
549.0  125697.00  15791.60  12.56
550.4  127128.13  16053.67  12.63
551.8  128583.93  16270.95  12.65
553.2  130057.60  16449.24  12.65
554.6  131341.60  16558.53  12.61
556.0  132800.85  16639.35  12.53
557.4  134328.25  16676.60  12.41
558.8  135885.15  16679.37  12.27
560.2  137261.25  16622.83  12.11
561.6  138850.58  16550.38  11.92
563.0  140344.05  16427.24  11.70
564.4  141855.30  16270.91  11.47
565.8  143310.00  16068.90  11.21
567.2  144953.00  15853.03  10.94
568.6  146377.50  15584.60  10.65
570.0  147734.48  15286.35  10.35
571.4  149396.00  15003.32  10.04
572.8  151066.38  14727.65  9.75
574.2  152588.80  14455.84  9.47
575.6  154057.50  14201.63  9.22
577.0  155499.30  13971.70  8.99
578.4  157157.00  13788.40  8.77
579.8  158584.50  13611.65  8.58
581.2  160232.73  13477.54  8.41
582.5  161565.30  13346.19  8.26
583.9  163017.00  13241.17  8.12
585.3  164720.03  13173.55  8.00
586.7  166113.35  13096.83  7.88
588.1  167543.25  13046.50  7.79
589.5  169099.00  13027.06  7.70
590.9  170648.80  13031.16  7.64
592.3  172386.80  13063.30  7.58
593.7  173736.23  13081.02  7.53
595.0  175317.75  13122.54  7.49
596.4  176689.80  13155.91  7.45
597.8  178081.50  13180.47  7.40
599.2  179559.60  13205.28  7.35
600.6  181220.00  13222.84  7.30
602.0  182459.18  13188.72  7.23
603.3  184171.60  13159.31  7.15
604.7  185747.53  13089.71  7.05
606.1  187169.40  12989.48  6.94
607.5  188725.53  12878.77  6.82
608.9  190321.30  12748.03  6.70
610.2  191646.00  12592.60  6.57
611.6  193172.63  12443.65  6.44
613.0  194641.50  12298.40  6.32
614.4  195959.40  12153.13  6.20
615.8  197335.13  12025.65  6.09
617.1  198802.80  11922.19  6.00
618.5  200347.60  11846.41  5.91
619.9  201786.00  11782.79  5.84
621.3  203316.53  11756.99  5.78
622.6  204807.50  11738.43  5.73
624.0  206195.70  11739.43  5.69
625.4  207568.35  11761.48  5.67
626.8  209095.25  11811.57  5.65
628.1  210357.13  11855.07  5.64
629.5  212147.95  11943.72  5.63
630.9  213713.50  12010.90  5.62
632.2  215039.30  12066.40  5.61
633.6  216614.13  12108.52  5.59
635.0  218096.00  12124.85  5.56
636.3  219554.30  12100.77  5.51
637.7  220853.63  12039.14  5.45
639.1  222425.00  11963.00  5.38
640.4  223818.53  11845.20  5.29
641.8  224969.33  11700.92  5.20
643.2  226484.13  11561.84  5.10
644.5  227778.25  11406.25  5.01
645.9  229462.65  11270.49  4.91
647.2  231456.05  11160.78  4.82
648.6  233361.00  11071.35  4.74
650.0  234792.00  10974.24  4.67
651.3  235051.85  10842.64  4.61
652.7  235686.25  10728.24  4.55
654.0  237587.50  10666.82  4.49
655.4  239183.05  10607.08  4.43
656.8  239643.90  10492.70  4.38
658.1  240869.70  10399.63  4.32
659.5  242997.30  10337.09  4.25
660.8  244642.50  10255.50  4.19
662.2  245459.20  10150.19  4.14
663.5  246994.65  10079.73  4.08
664.9  248359.80  10037.82  4.04
666.2  249106.20  9984.08  4.01
667.6  250732.08  10000.86  3.99
668.9  251829.50  10032.64  3.98
670.3  252748.00  10075.46  3.99
671.6  254393.25  10173.08  4.00
673.0  255521.63  10268.95  4.02
674.3  256691.50  10380.37  4.04
675.7  257968.45  10517.27  4.08
677.0  259058.05  10663.77  4.12
678.4  260379.55  10844.38  4.16
679.7  261414.73  11046.27  4.23
681.1  262648.35  11279.59  4.29
682.4  263785.60  11532.52  4.37
683.8  265023.20  11833.08  4.46
685.1  266008.88  12185.71  4.58
686.4  267265.80  12633.28  4.73
687.8  268513.00  13195.73  4.91
689.1  269536.50  13920.34  5.16
690.5  270859.65  14882.87  5.49
691.8  271655.33  16124.31  5.94
693.1  272909.85  17757.60  6.51
694.5  274069.25  19798.57  7.22
695.8  275229.50  22264.67  8.09
697.1  276367.00  25185.77  9.11
698.5  277394.00  28573.25  10.30
699.8  278471.68  32407.87  11.64
701.1  279560.08  36654.89  13.11
702.5  280341.60  41202.61  14.70
703.8  281250.00  46025.25  16.36
705.1  282353.18  51096.11  18.10
706.5  283379.38  56296.99  19.87
707.8  284359.05  61591.39  21.66
709.1  285224.20  66902.07  23.46
710.5  286340.45  72280.91  25.24
711.8  287179.40  77566.83  27.01
713.1  288160.60  82854.91  28.75
714.4  289052.60  88052.29  30.46
715.8  289855.40  93139.67  32.13
717.1  291153.45  98273.70  33.75
718.4  292073.60  103161.71  35.32
719.7  293163.90  107967.65  36.83
721.0  293670.00  112414.50  38.28
722.4  294435.35  116772.92  39.66
723.7  295378.65  121014.42  40.97
725.0  296424.90  125118.55  42.21
726.3  297341.28  128974.18  43.38
727.6  297889.08  132486.19  44.48
729.0  298827.38  135946.78  45.49
730.3  299578.28  139150.05  46.45
731.6  300463.85  142211.99  47.33
732.9  301248.33  145038.94  48.15
734.2  302075.13  147708.96  48.90
735.5  303072.58  150310.64  49.60
736.8  303857.70  152633.53  50.23
738.1  304677.20  154817.03  50.81
739.5  305596.18  156913.48  51.35
740.8  306280.15  158744.03  51.83
742.1  307061.35  160513.92  52.27
743.4  307825.00  162166.67  52.68
744.7  308821.73  163835.54  53.05
746.0  309700.95  165327.63  53.38
747.3  310256.38  166547.22  53.68
748.6  310982.75  167769.83  53.95
749.9  311766.00  168918.53  54.18
751.2  312570.95  170005.51  54.39
752.5  313486.20  171105.55  54.58
753.8  314125.53  171982.88  54.75
755.1  314834.00  172845.40  54.90
756.4  315440.40  173574.47  55.03
757.7  316394.05  174452.18  55.14
759.0  318135.48  175729.35  55.24
760.3  319308.00  176645.92  55.32
761.6  320849.20  177747.41  55.40
762.9  321428.00  178262.89  55.46
764.2  321831.60  178662.63  55.51
765.5  322138.00  178986.58  55.56
766.8  322592.00  179390.35  55.61
768.1  323155.60  179807.93  55.64
769.3  323781.50  180245.74  55.67
770.6  324471.55  180705.14  55.69
771.9  325224.03  181188.73  55.71
773.2  325634.40  181493.04  55.74
774.5  326297.40  181907.44  55.75
775.8  327014.75  182362.77  55.77
777.1  327616.85  182745.24  55.78
778.4  328000.48  182992.11  55.79
779.6  328817.95  183479.54  55.80
780.9  329310.00  183795.00  55.81
782.2  329815.75  184101.50  55.82
783.5  330162.50  184349.12  55.84
784.8  330752.25  184681.82  55.84
786.0  331186.80  184958.32  55.85
787.3  331620.60  185221.98  55.85
788.6  332093.88  185515.35  55.86
789.9  332593.80  185817.61  55.87
791.2  333307.40  186211.73  55.87
792.4  334036.75  186634.10  55.87
793.7  334534.40  186952.05  55.88
795.0  335205.75  187333.00  55.89
796.2  335849.93  187746.94  55.90
797.5  336624.15  188179.41  55.90
798.8  337349.83  188591.13  55.90
800.0  338091.98  189014.47  55.91
801.3  338654.10  189319.23  55.90
802.6  339280.43  189676.99  55.91
803.8  339928.20  190086.93  55.92
805.1  340468.63  190396.30  55.92
806.4  340956.90  190679.07  55.92
807.7  341504.10  191004.01  55.93
808.9  342136.80  191356.16  55.93
810.2  342700.75  191684.35  55.93
811.4  343215.90  191992.12  55.94
812.7  343850.00  192362.08  55.94
814.0  344713.55  192845.36  55.94
815.2  345314.25  193219.00  55.95
816.5  345767.23  193485.63  55.96
817.7  346313.70  193780.56  55.96
819.0  346817.90  194082.46  55.96
820.2  347028.00  194198.40  55.96
821.5  347689.55  194607.03  55.97
822.7  348074.20  194824.36  55.97
824.0  348426.90  195018.39  55.97
825.2  348939.90  195315.37  55.97
826.5  349267.70  195499.46  55.97
827.7  349814.10  195804.33  55.97
829.0  350284.03  196030.42  55.96
830.2  350600.50  196211.01  55.96
831.5  351050.00  196484.36  55.97
832.7  351331.58  196655.38  55.97
834.0  351678.28  196829.14  55.97
835.2  352022.55  197056.29  55.98
836.4  352376.75  197206.50  55.96
837.7  352733.60  197448.79  55.98
838.9  353195.98  197713.74  55.98
840.1  353573.78  197934.46  55.98
841.4  354031.80  198192.18  55.98
842.6  354429.60  198415.84  55.98
843.8  354764.40  198630.56  55.99
845.1  355209.75  198889.76  55.99
846.3  355551.60  199123.32  56.00
847.5  355960.50  199352.09  56.00
848.8  356338.80  199585.16  56.01
850.0  356666.45  199795.03  56.02
851.2  357223.50  200102.27  56.02
852.5  357636.60  200309.50  56.01
853.7  358026.75  200571.98  56.02
854.9  358460.30  200811.80  56.02
856.1  358918.95  201084.33  56.02
857.4  359065.55  201180.25  56.03
858.6  359588.70  201446.56  56.02
859.8  359986.88  201680.06  56.02
861.0  360477.00  201930.30  56.02
862.2  360918.85  202179.95  56.02
863.5  361207.93  202350.18  56.02
864.7  361765.80  202643.54  56.02
865.9  362155.60  202850.69  56.01
867.1  362445.20  203022.70  56.01
868.3  362872.80  203267.65  56.02
869.5  363346.95  203538.85  56.02
870.8  363834.00  203834.25  56.02
872.0  364355.40  204096.76  56.02
873.2  364804.20  204338.81  56.01
874.4  365259.38  204561.05  56.00
875.6  365608.83  204774.45  56.01
876.8  366151.00  205036.50  56.00
878.0  366608.50  205300.76  56.00
879.2  367048.65  205558.82  56.00
880.4  367531.88  205854.09  56.01
881.6  368070.40  206072.63  55.99
882.8  368508.00  206307.41  55.98
884.0  369155.80  206619.90  55.97
885.2  369655.50  206910.61  55.97
886.5  370326.80  207236.70  55.96
887.7  370812.98  207480.62  55.95
888.8  371397.98  207814.92  55.95
890.0  372018.80  208108.03  55.94
891.2  372644.90  208441.90  55.94
892.4  373258.20  208760.42  55.93
893.6  373838.00  209079.50  55.93
894.8  374773.50  209549.93  55.91
896.0  375562.00  209996.46  55.92
897.2  376402.00  210429.81  55.91
898.4  377180.10  210826.66  55.90
899.6  377793.38  211129.40  55.88
900.8  378264.90  211352.53  55.87
902.0  378603.00  211475.80  55.86
903.2  378860.78  211638.22  55.86
904.3  379294.50  211847.08  55.85
905.5  379923.23  212152.68  55.84
906.7  380565.50  212506.05  55.84
907.9  381146.50  212812.55  55.83
909.1  381737.48  212989.82  55.79
910.2  381802.20  213105.79  55.82
911.4  382081.05  213194.67  55.80
912.6  382274.75  213316.20  55.80
913.8  382736.85  213470.88  55.77
915.0  383096.70  213689.49  55.78
916.2  383418.75  213776.55  55.76
917.3  383626.35  213816.66  55.74
918.5  383925.10  213949.45  55.73
919.7  384126.00  214058.16  55.73
920.8  384309.23  214099.30  55.71
922.0  384441.75  214153.68  55.71
923.2  384793.50  214241.30  55.68
924.4  385097.63  214315.20  55.65
925.5  385404.10  214425.17  55.64
926.7  386121.00  214744.21  55.62
927.9  386949.60  215140.70  55.60
929.0  388476.00  215815.10  55.55
930.2  390560.20  216924.52  55.54
931.4  392868.90  218110.68  55.52
932.5  395601.85  219462.23  55.48
933.7  397037.90  220118.11  55.44
934.9  397726.88  220462.96  55.43
936.0  397510.75  220217.45  55.40
937.2  395590.95  219083.38  55.38
938.3  394139.70  218080.61  55.33
939.5  392882.40  217196.40  55.28
940.7  393135.30  217241.49  55.26
941.8  394706.25  217907.09  55.21
943.0  396142.50  218583.43  55.18
944.2  397081.10  218857.32  55.12
945.3  396805.50  218557.95  55.08
946.5  396129.15  217999.26  55.03
947.6  396465.30  217944.67  54.97
948.8  396393.08  217663.71  54.91
949.9  396576.60  217666.40  54.89
951.1  396437.93  217215.36  54.79
952.2  396576.00  216865.60  54.68
953.4  396262.00  216431.18  54.62
954.5  396349.20  216159.84  54.54
955.7  396270.00  215870.76  54.48
956.8  396142.20  215612.05  54.43
958.0  396042.00  215209.40  54.34
959.1  396147.38  214890.20  54.25
960.3  395786.98  214528.35  54.20
961.4  395685.85  214402.16  54.18
962.6  396067.00  214312.53  54.11
963.7  396199.88  214168.73  54.06
964.9  396117.45  214157.80  54.06
966.0  396049.50  214098.19  54.06
967.2  395960.85  214119.99  54.08
968.3  395899.65  213977.57  54.05
969.5  395878.20  213781.68  54.00
970.6  396130.70  213877.86  53.99
971.8  396438.70  213969.11  53.97
972.9  396525.75  213874.13  53.94
974.0  396620.30  214094.57  53.98
975.2  396387.25  214044.57  54.00
976.3  396528.65  213979.67  53.96
977.5  396705.58  214009.23  53.95
978.6  396499.10  214053.50  53.99
979.7  397117.88  214174.66  53.93
980.9  397264.93  214159.31  53.91
982.0  397398.60  214489.66  53.97
983.2  397499.65  214281.95  53.91
984.3  396974.00  214293.45  53.98
985.4  397481.03  214419.90  53.94
986.6  396724.75  214677.63  54.11
987.7  397857.25  215016.84  54.04
988.9  398473.20  215253.66  54.02
990.0  400235.00  215957.10  53.96
993.1  339318.47  182097.51  53.67
996.9  340247.10  183152.25  53.83
1000.7  341523.93  184280.47  53.96
1004.5  342160.17  185052.73  54.08
1008.4  342093.67  185426.09  54.20
1012.2  342269.50  185920.66  54.32
1016.0  342559.80  186437.13  54.42
1019.8  342925.28  186994.50  54.53
1023.7  343220.32  187428.22  54.61
1027.5  343188.20  187682.93  54.69
1031.3  343627.58  188145.68  54.75
1035.1  343651.58  188369.67  54.81
1038.9  343688.95  188535.92  54.86
1042.7  343584.25  188601.20  54.89
1046.5  343475.67  188639.63  54.92
1050.3  343535.36  188748.42  54.94
1054.2  343267.75  188689.32  54.97
1058.0  342848.39  188466.44  54.97
1061.8  342684.78  188442.40  54.99
1065.6  342470.10  188290.89  54.98
1069.4  342616.20  188375.32  54.98
1073.2  342405.46  188217.43  54.97
1077.0  342044.80  187964.12  54.95
1080.8  341565.63  187579.36  54.92
1084.6  340451.18  186850.27  54.88
1088.4  339718.79  186319.50  54.85
1092.2  338919.75  185715.68  54.80
1096.0  338379.20  185272.17  54.75
1099.8  337988.73  184865.15  54.70
1103.6  337404.72  184345.22  54.64
1107.4  336569.79  183671.61  54.57
1111.2  336305.70  183279.47  54.50
1114.9  335634.83  182641.13  54.42
1118.7  334949.18  181920.48  54.31
1122.5  334221.33  181085.60  54.18
1126.3  333122.53  179925.13  54.01
1130.1  332666.96  178868.89  53.77
1133.9  331235.10  177019.51  53.44
1137.7  329988.00  175001.50  53.03
1141.4  328419.33  172591.70  52.55
1145.2  327813.12  170545.82  52.03
1149.0  326828.54  168398.38  51.52
1152.8  325410.25  166271.70  51.10
1156.6  323932.58  164501.96  50.78
1160.3  322368.00  163033.33  50.57
1164.1  320146.57  161497.09  50.44
1167.9  318478.13  160449.72  50.38
1171.7  317307.38  159752.63  50.35
1175.4  316326.57  159174.82  50.32
1179.2  315464.48  158646.37  50.29
1183.0  315263.67  158425.79  50.25
1186.7  314732.83  158014.88  50.21
1190.5  313634.67  157362.07  50.17
1194.3  312447.17  156726.11  50.16
1198.0  311378.65  156192.20  50.16
1201.8  310056.63  155586.97  50.18
1205.6  308937.00  155129.46  50.21
1209.3  308013.17  154836.23  50.27
1213.1  307026.38  154545.16  50.34
1216.8  306016.52  154296.41  50.42
1220.6  304981.60  154070.40  50.52
1224.3  303800.58  153765.01  50.61
1228.1  302717.60  153523.59  50.72
1231.9  301622.35  153218.89  50.80
1235.6  300334.05  152787.88  50.87
1239.4  299154.75  152393.00  50.94
1243.1  298055.35  151982.31  50.99
1246.9  296942.58  151541.49  51.03
1250.6  296079.33  151170.88  51.06
1254.3  295132.38  150742.27  51.08
1258.1  294268.80  150322.46  51.08
1261.8  293143.07  149752.27  51.09
1265.6  291841.73  149041.41  51.07
1269.3  290433.00  148214.37  51.03
1273.1  290297.06  148016.37  50.99
1276.8  290591.60  148005.05  50.93
1280.6  290622.90  147827.63  50.87
1284.3  289476.40  147008.56  50.78
1288.0  288143.41  146019.54  50.68
1291.8  286827.83  144972.35  50.54
1295.5  285479.33  143835.33  50.38
1299.2  284234.19  142706.08  50.21
1302.9  282901.04  141438.50  50.00
1306.7  281472.33  140046.78  49.76
1310.4  280108.09  138561.52  49.47
1314.1  278860.63  137032.85  49.14
1317.9  277765.00  135438.17  48.76
1321.6  276488.33  133641.81  48.34
1325.3  274993.95  131614.81  47.86
1329.0  273770.35  129628.87  47.35
1332.8  271810.00  127203.02  46.80
1336.5  270067.33  124838.93  46.23
1340.2  269602.67  123072.20  45.65
1343.9  268974.58  121224.18  45.07
