/*** Spectra Vista SIG Data ***/
name= 10_20220926_ACSA_07_avg.sig
comm= Averaged Ref/Tar of files: HR.092622.0027_moc.sig,HR.092622.0028_moc.sig
data=
337.3  6016.50  464.13  7.71
338.8  6253.00  445.27  7.12
340.3  6522.23  442.92  6.79
341.8  6804.38  443.26  6.51
343.2  7194.83  433.98  6.03
344.7  7557.00  444.10  5.88
346.2  7896.00  425.35  5.39
347.7  8231.60  431.94  5.25
349.2  8542.80  412.56  4.83
350.6  8912.10  438.30  4.92
352.1  9409.75  424.50  4.51
353.6  9976.00  426.56  4.28
355.1  10444.43  444.77  4.26
356.6  10997.68  462.96  4.21
358.0  11525.15  463.18  4.02
359.5  12012.08  466.90  3.89
361.0  12690.20  474.40  3.74
362.5  13265.25  477.88  3.60
364.0  13974.03  488.16  3.49
365.4  14605.80  515.32  3.53
366.9  15169.00  549.49  3.62
368.4  15874.65  578.79  3.65
369.9  16589.00  602.69  3.63
371.3  17385.78  612.29  3.52
372.8  18130.55  633.79  3.50
374.3  18936.00  638.72  3.37
375.8  19809.38  667.11  3.37
377.2  20533.50  679.94  3.31
378.7  21386.05  690.80  3.23
380.2  22144.50  717.06  3.24
381.7  22999.00  727.95  3.17
383.1  23989.88  735.14  3.06
384.6  24920.55  740.56  2.97
386.1  25887.98  768.28  2.97
387.6  26760.68  791.63  2.96
389.0  27732.83  817.83  2.95
390.5  28717.80  847.27  2.95
392.0  29808.00  870.88  2.92
393.4  30876.38  879.25  2.85
394.9  31812.50  892.93  2.81
396.4  32991.20  902.13  2.73
397.9  34017.90  937.59  2.76
399.3  35020.75  973.82  2.78
400.8  36165.53  1001.32  2.77
402.2  37323.00  1023.99  2.74
403.7  38499.00  1043.63  2.71
405.2  39646.00  1060.30  2.67
406.6  40905.90  1088.50  2.66
408.1  41955.83  1115.72  2.66
409.6  43117.20  1154.93  2.68
411.0  44307.18  1178.13  2.66
412.5  45659.30  1217.66  2.67
414.0  46994.68  1239.42  2.64
415.4  48297.60  1271.57  2.63
416.9  49570.53  1313.38  2.65
418.4  50818.68  1356.48  2.67
419.8  52176.60  1383.70  2.65
421.3  53603.55  1437.48  2.68
422.7  55094.00  1464.99  2.66
424.2  56536.88  1513.27  2.68
425.7  57937.00  1554.15  2.68
427.1  59404.50  1606.05  2.70
428.6  60830.65  1670.25  2.75
430.0  62381.00  1725.99  2.77
431.5  64011.03  1772.69  2.77
432.9  65631.38  1830.60  2.79
434.4  67288.58  1872.63  2.78
435.9  68915.30  1927.97  2.80
437.3  70556.25  1982.42  2.81
438.8  72124.88  2048.70  2.84
440.2  73792.25  2099.41  2.85
441.7  75649.15  2156.96  2.85
443.1  77411.70  2215.43  2.86
444.6  79191.28  2276.36  2.87
446.0  80967.18  2324.81  2.87
447.5  82875.00  2395.72  2.89
448.9  84595.45  2456.90  2.90
450.4  86425.00  2522.86  2.92
451.8  88213.88  2578.55  2.92
453.3  90004.28  2640.88  2.93
454.7  91809.68  2698.68  2.94
456.2  93564.10  2760.86  2.95
457.6  95469.30  2821.50  2.96
459.1  97266.23  2881.20  2.96
460.5  99090.53  2944.05  2.97
462.0  101059.20  2995.54  2.96
463.4  103031.08  3057.75  2.97
464.8  104958.00  3127.32  2.98
466.3  106865.03  3192.53  2.99
467.7  108881.60  3260.12  2.99
469.2  110744.85  3317.73  3.00
470.6  112731.50  3368.93  2.99
472.0  114760.03  3431.04  2.99
473.5  116709.73  3499.77  3.00
474.9  118878.25  3567.33  3.00
476.4  120930.00  3641.80  3.01
477.8  123032.00  3708.80  3.01
479.2  125075.58  3781.78  3.02
480.7  127174.35  3844.57  3.02
482.1  129320.68  3918.28  3.03
483.6  131520.60  3985.72  3.03
485.0  133776.45  4071.56  3.04
486.4  135854.93  4142.27  3.05
487.9  138114.25  4228.62  3.06
489.3  140277.38  4332.78  3.09
490.7  142449.15  4422.76  3.10
492.2  144655.75  4531.90  3.13
493.6  146905.30  4638.78  3.16
495.0  149178.90  4753.43  3.19
496.5  151360.65  4871.34  3.22
497.9  153650.63  5011.84  3.26
499.3  155892.25  5154.52  3.31
500.7  158168.70  5322.02  3.36
502.2  160543.80  5499.85  3.43
503.6  162826.80  5696.40  3.50
505.0  165106.43  5918.31  3.58
506.5  167531.40  6165.17  3.68
507.9  169985.40  6450.24  3.79
509.3  172278.68  6767.38  3.93
510.7  174909.15  7127.73  4.08
512.2  177529.35  7513.29  4.23
513.6  180351.13  7975.30  4.42
515.0  183065.93  8482.71  4.63
516.4  185854.20  9057.66  4.87
517.8  188624.50  9698.67  5.14
519.3  191515.20  10390.40  5.43
520.7  194171.50  11113.33  5.72
522.1  196836.58  11891.35  6.04
523.5  199390.23  12682.86  6.36
524.9  202233.68  13526.35  6.69
526.3  204795.00  14341.19  7.00
527.8  207502.63  15192.52  7.32
529.2  210153.60  16025.15  7.63
530.6  213016.50  16876.31  7.92
532.0  215934.88  17677.11  8.19
533.4  218300.20  18399.89  8.43
534.8  220686.68  19097.22  8.65
536.3  223652.03  19807.54  8.86
537.7  226713.25  20480.17  9.03
539.1  229610.55  21105.76  9.19
540.5  232383.75  21698.90  9.34
541.9  235253.13  22291.47  9.48
543.3  237740.30  22842.21  9.61
544.7  240614.00  23428.12  9.74
546.1  243365.50  23977.88  9.85
547.5  246304.80  24538.22  9.96
549.0  249418.00  25074.76  10.05
550.4  252252.00  25559.82  10.13
551.8  255120.33  26002.98  10.19
553.2  257937.38  26391.78  10.23
554.6  260750.25  26718.06  10.25
556.0  263659.20  26982.66  10.23
557.4  266719.70  27199.32  10.20
558.8  269525.48  27324.58  10.14
560.2  272660.00  27420.00  10.06
561.6  275529.38  27415.00  9.95
563.0  278291.65  27327.43  9.82
564.4  281418.90  27223.46  9.67
565.8  284377.70  27057.69  9.51
567.2  287506.55  26845.01  9.34
568.6  290480.85  26582.52  9.15
570.0  293299.50  26258.38  8.95
571.4  296679.88  25939.70  8.74
572.8  299749.80  25608.47  8.54
574.2  302598.45  25268.51  8.35
575.6  305582.88  24956.49  8.17
577.0  308581.90  24686.43  8.00
578.4  311937.50  24482.50  7.85
579.8  314966.10  24270.52  7.71
581.2  318019.25  24106.29  7.58
582.5  320872.50  23946.43  7.46
583.9  323883.60  23822.68  7.36
585.3  326714.30  23710.66  7.26
586.7  329683.20  23632.62  7.17
588.1  332630.80  23581.60  7.09
589.5  335917.20  23568.17  7.02
590.9  338862.98  23556.12  6.95
592.3  341768.70  23570.12  6.90
593.7  344685.25  23614.71  6.85
595.0  347598.00  23668.72  6.81
596.4  350886.75  23757.76  6.77
597.8  353508.40  23801.97  6.73
599.2  356598.45  23868.84  6.69
600.6  359737.95  23905.32  6.65
602.0  362696.40  23909.97  6.59
603.3  365560.00  23873.95  6.53
604.7  368566.15  23817.55  6.46
606.1  371550.15  23732.95  6.39
607.5  374844.85  23631.77  6.30
608.9  377892.90  23484.23  6.21
610.2  381068.33  23323.27  6.12
611.6  383955.00  23127.50  6.02
613.0  386708.30  22942.84  5.93
614.4  389469.98  22756.48  5.84
615.8  392725.60  22605.25  5.76
617.1  395404.03  22442.10  5.68
618.5  398660.63  22329.87  5.60
619.9  401357.85  22232.40  5.54
621.3  404284.73  22178.87  5.49
622.6  407189.25  22174.85  5.45
624.0  409891.50  22185.74  5.41
625.4  412989.90  22265.81  5.39
626.8  415938.25  22354.75  5.37
628.1  418780.60  22476.06  5.37
629.5  421530.90  22577.94  5.36
630.9  424444.30  22690.55  5.35
632.2  427514.30  22788.54  5.33
633.6  430007.50  22812.44  5.31
635.0  432895.80  22798.92  5.27
636.3  435919.50  22704.97  5.21
637.7  438623.65  22502.95  5.13
639.1  441652.20  22238.86  5.04
640.4  444372.25  21900.67  4.93
641.8  447165.00  21533.30  4.82
643.2  449771.90  21119.92  4.70
644.5  452655.00  20736.00  4.58
645.9  455343.35  20363.62  4.47
647.2  458284.75  20049.37  4.37
648.6  461060.40  19796.87  4.29
650.0  463804.20  19611.77  4.23
651.3  466344.75  19468.15  4.17
652.7  469758.00  19358.75  4.12
654.0  472790.70  19247.65  4.07
655.4  475011.08  19090.83  4.02
656.8  476405.48  18904.08  3.97
658.1  478889.25  18747.21  3.91
659.5  482284.80  18585.88  3.85
660.8  485647.05  18399.57  3.79
662.2  488314.80  18183.03  3.72
663.5  491026.95  17991.84  3.66
664.9  493043.93  17809.15  3.61
666.2  495062.10  17673.49  3.57
667.6  497610.00  17587.35  3.53
668.9  500428.80  17581.17  3.51
670.3  503181.00  17617.95  3.50
671.6  505535.20  17689.28  3.50
673.0  507782.40  17809.21  3.51
674.3  510232.80  17978.18  3.52
675.7  512802.90  18190.21  3.55
677.0  515102.78  18443.88  3.58
678.4  517372.00  18729.57  3.62
679.7  519747.53  19084.50  3.67
681.1  522290.50  19517.87  3.74
682.4  524560.13  20034.90  3.82
683.8  526933.13  20654.79  3.92
685.1  529224.15  21403.29  4.04
686.4  531336.00  22348.23  4.21
687.8  533821.58  23570.01  4.42
689.1  536226.60  25178.36  4.70
690.5  538238.85  27257.50  5.06
691.8  540982.75  30033.77  5.55
693.1  543402.00  33605.62  6.18
694.5  545769.30  38048.97  6.97
695.8  548172.80  43425.32  7.92
697.1  550401.50  49716.87  9.03
698.5  552728.75  56916.92  10.30
699.8  555071.60  64900.47  11.69
701.1  556975.65  73438.82  13.19
702.5  559060.38  82437.29  14.75
703.8  561535.33  91754.93  16.34
705.1  563409.55  101042.51  17.93
706.5  565703.98  110354.46  19.51
707.8  567542.78  119449.70  21.05
709.1  569823.10  128409.96  22.54
710.5  572017.38  137148.95  23.98
711.8  574007.00  145558.69  25.36
713.1  575985.00  153728.69  26.69
714.4  578040.88  161686.72  27.97
715.8  580349.48  169436.13  29.20
717.1  582611.30  176897.74  30.36
718.4  584861.63  184089.38  31.48
719.7  587106.00  191004.24  32.53
721.0  588849.73  197492.82  33.54
722.4  590715.45  203760.70  34.49
723.7  592720.45  209778.40  35.39
725.0  594454.05  215423.48  36.24
726.3  596744.20  221007.58  37.04
727.6  598525.50  226126.35  37.78
729.0  600430.60  231029.51  38.48
730.3  602487.05  235697.64  39.12
731.6  604039.70  239955.87  39.73
732.9  605977.45  244139.90  40.29
734.2  607662.00  247979.56  40.81
735.5  609518.80  251671.06  41.29
736.8  611534.18  255220.46  41.73
738.1  613413.53  258508.99  42.14
739.5  615185.85  261585.28  42.52
740.8  617095.33  264560.50  42.87
742.1  618711.53  267226.73  43.19
743.4  620530.75  269851.82  43.49
744.7  622496.00  272381.20  43.76
746.0  624059.90  274569.73  44.00
747.3  625723.00  276679.90  44.22
748.6  627376.50  278652.03  44.42
749.9  629180.80  280606.30  44.60
751.2  630560.75  282251.49  44.76
752.5  632191.95  283948.23  44.91
753.8  633591.00  285458.83  45.05
755.1  635229.18  286987.56  45.18
756.4  636376.65  288227.82  45.29
757.7  638430.38  289798.54  45.39
759.0  642041.55  292032.33  45.48
760.3  644838.95  293802.60  45.56
761.6  647712.45  295600.13  45.64
762.9  649258.50  296705.36  45.70
764.2  650043.50  297497.56  45.77
765.5  650962.48  298272.59  45.82
766.8  651565.85  298860.93  45.87
768.1  652720.95  299690.28  45.91
769.3  654113.10  300561.24  45.95
770.6  655581.40  301490.00  45.99
771.9  656824.45  302306.68  46.03
773.2  658285.88  303218.79  46.06
774.5  659258.85  303874.04  46.09
775.8  660454.63  304604.72  46.12
777.1  661775.13  305393.32  46.15
778.4  663206.13  306214.31  46.17
779.6  664527.60  307029.95  46.20
780.9  665295.53  307539.47  46.23
782.2  666340.48  308240.75  46.26
783.5  667347.75  308895.55  46.29
784.8  668290.88  309461.55  46.31
786.0  669200.15  310040.13  46.33
787.3  670098.88  310607.64  46.35
788.6  671092.63  311219.17  46.37
789.9  671825.70  311746.45  46.40
791.2  673298.25  312574.94  46.42
792.4  674555.75  313292.77  46.44
793.7  676218.00  314197.99  46.46
795.0  677433.50  314836.44  46.47
796.2  678886.50  315652.97  46.50
797.5  680160.00  316391.97  46.52
798.8  681572.50  317240.30  46.55
800.0  682780.00  317942.00  46.57
801.3  684156.38  318688.43  46.58
802.6  685224.00  319315.89  46.60
803.8  686402.85  319995.38  46.62
805.1  687480.75  320632.28  46.64
806.4  688539.65  321275.04  46.66
807.7  689773.03  321958.14  46.68
808.9  691020.75  322655.64  46.69
810.2  691996.20  323229.78  46.71
811.4  693046.00  323868.00  46.73
812.7  694455.45  324633.60  46.75
814.0  695795.10  325372.74  46.76
815.2  697178.85  326174.54  46.78
816.5  698416.25  326854.63  46.80
817.7  699190.75  327393.10  46.82
819.0  699938.40  327853.04  46.84
820.2  700881.90  328365.76  46.85
821.5  702048.80  329029.25  46.87
822.7  703068.98  329666.58  46.89
824.0  704007.20  330237.00  46.91
825.2  704696.85  330691.53  46.93
826.5  705412.05  331125.07  46.94
827.7  706479.85  331720.64  46.95
829.0  707542.80  332248.57  46.96
830.2  708487.60  332829.72  46.98
831.5  709402.05  333359.98  46.99
832.7  710377.65  333947.60  47.01
834.0  710926.88  334325.65  47.03
835.2  712009.80  334928.04  47.04
836.4  712624.80  335368.59  47.06
837.7  713390.63  335828.73  47.08
838.9  714591.05  336467.32  47.09
840.1  715479.60  337038.53  47.11
841.4  716474.00  337602.68  47.12
842.6  717346.70  338104.38  47.13
843.8  718034.20  338614.23  47.16
845.1  718832.40  339122.48  47.18
846.3  719730.90  339606.81  47.19
847.5  720658.25  340170.07  47.20
848.8  721437.55  340655.50  47.22
850.0  722496.80  341302.45  47.24
851.2  723394.85  341840.20  47.25
852.5  724470.00  342454.61  47.27
853.7  725074.20  342903.67  47.29
854.9  726152.70  343504.98  47.30
856.1  727130.90  344083.53  47.32
857.4  728167.73  344523.07  47.31
858.6  728974.40  345056.16  47.33
859.8  730024.10  345588.03  47.34
861.0  730877.00  346124.45  47.36
862.2  731921.40  346676.76  47.37
863.5  732743.20  347211.86  47.39
864.7  733700.00  347735.36  47.39
865.9  734579.88  348281.12  47.41
867.1  735256.25  348597.32  47.41
868.3  736285.30  349220.62  47.43
869.5  737454.10  349773.37  47.43
870.8  738383.85  350354.83  47.45
872.0  739245.33  350868.37  47.46
873.2  740231.65  351294.65  47.46
874.4  740951.15  351723.12  47.47
875.6  742233.48  352272.14  47.46
876.8  743592.30  352974.27  47.47
878.0  744457.70  353454.20  47.48
879.2  745443.20  353996.47  47.49
880.4  746336.00  354533.32  47.50
881.6  747322.90  355031.75  47.51
882.8  748730.15  355618.28  47.50
884.0  749593.00  356046.85  47.50
885.2  750843.25  356719.62  47.51
886.5  752209.50  357377.71  47.51
887.7  753095.33  357819.33  47.51
888.8  754469.10  358493.36  47.52
890.0  755396.25  358837.50  47.50
891.2  756445.95  359361.05  47.51
892.4  757967.10  359988.49  47.49
893.6  759614.45  360859.32  47.51
894.8  760980.68  361612.37  47.52
896.0  762455.35  362393.33  47.53
897.2  764210.70  363197.70  47.53
898.4  766319.40  364087.56  47.51
899.6  767599.00  364687.85  47.51
900.8  768207.05  364929.09  47.50
902.0  768897.45  365295.53  47.51
903.2  769099.90  365388.06  47.51
904.3  770225.63  365923.77  47.51
905.5  771383.25  366487.40  47.51
906.7  772558.38  367079.15  47.51
907.9  773728.78  367482.64  47.50
909.1  774475.63  367948.30  47.51
910.2  774900.00  368138.25  47.51
911.4  775166.18  368233.83  47.50
912.6  775757.50  368558.43  47.51
913.8  776779.85  368969.55  47.50
915.0  777379.80  369126.25  47.48
916.2  777645.15  369256.77  47.48
917.3  778238.60  369546.00  47.48
918.5  778550.25  369767.74  47.49
919.7  778791.00  369786.85  47.48
920.8  779252.30  369867.68  47.46
922.0  779406.38  369769.00  47.44
923.2  779863.73  369984.22  47.44
924.4  780635.75  370250.71  47.43
925.5  781471.00  370584.41  47.42
926.7  782286.90  370939.66  47.42
927.9  783682.33  371593.53  47.42
929.0  786663.90  372936.96  47.41
930.2  791027.00  374743.95  47.37
931.4  796481.85  376999.66  47.33
932.5  800839.05  378973.51  47.32
933.7  803638.58  380346.15  47.33
934.9  804842.50  380896.50  47.33
936.0  804273.75  380405.07  47.30
937.2  801175.08  378743.34  47.27
938.3  797709.25  376670.27  47.22
939.5  795319.20  375479.08  47.21
940.7  795279.10  375261.87  47.19
941.8  798245.50  376617.15  47.18
943.0  800625.75  377437.86  47.14
944.2  802638.00  377962.97  47.09
945.3  802224.00  377448.52  47.05
946.5  800660.00  376486.50  47.02
947.6  801478.50  376713.49  47.00
948.8  800327.28  375968.73  46.98
949.9  800762.55  375805.10  46.93
951.1  801522.25  375409.32  46.84
952.2  800700.35  374756.80  46.80
953.4  800609.10  374347.54  46.76
954.5  799183.88  373226.18  46.70
955.7  799091.15  372618.55  46.63
956.8  799468.45  372376.42  46.58
958.0  799309.80  371527.74  46.48
959.1  798789.60  371005.92  46.45
960.3  798275.00  370726.79  46.44
961.4  799131.60  370674.54  46.38
962.6  798372.00  370221.33  46.37
963.7  799121.40  370254.64  46.33
964.9  799092.43  370114.34  46.32
966.0  799856.05  370156.80  46.28
967.2  800633.40  370316.76  46.25
968.3  802051.00  370905.43  46.24
969.5  802765.93  370944.39  46.21
970.6  802514.85  371045.01  46.24
971.8  802697.18  371003.67  46.22
972.9  803278.00  371303.40  46.22
974.0  805075.93  371493.54  46.14
975.2  803958.75  370845.00  46.13
976.3  805416.85  371061.85  46.07
977.5  803860.43  370988.88  46.15
978.6  804647.25  371229.18  46.14
979.7  804619.20  370881.28  46.09
980.9  805757.33  371096.23  46.06
982.0  806134.70  370805.23  46.00
983.2  806155.00  370905.60  46.01
984.3  804316.45  370089.88  46.01
985.4  804862.80  370021.72  45.97
986.6  804409.08  370625.09  46.07
987.7  804047.38  370062.38  46.02
988.9  805738.15  370302.66  45.96
990.0  806409.25  370335.26  45.92
993.1  831358.20  381912.95  45.94
996.9  832563.30  383202.75  46.03
1000.7  833073.68  384167.43  46.11
1004.5  832518.47  384544.86  46.19
1008.4  833600.08  385768.90  46.28
1012.2  835180.13  387134.37  46.35
1016.0  835726.68  387885.90  46.41
1019.8  835351.52  388146.80  46.47
1023.7  835045.11  388361.30  46.51
1027.5  833735.33  388194.66  46.56
1031.3  833043.90  388229.77  46.60
1035.1  832686.00  388335.36  46.64
1038.9  832384.80  388512.94  46.67
1042.7  832128.90  388620.77  46.70
1046.5  831411.00  388502.25  46.73
1050.3  829874.39  387903.31  46.74
1054.2  828012.08  387199.79  46.76
1058.0  827092.80  386802.00  46.77
1061.8  825921.58  386369.73  46.78
1065.6  824340.83  385625.57  46.78
1069.4  822642.45  384774.75  46.77
1073.2  821486.25  384088.37  46.76
1077.0  820327.20  383360.06  46.73
1080.8  819494.50  382667.22  46.70
1084.6  818409.17  381896.82  46.66
1088.4  817134.22  381133.36  46.64
1092.2  815583.77  380164.90  46.61
1096.0  814311.30  379273.60  46.58
1099.8  812936.63  378273.35  46.53
1103.6  811277.25  377115.38  46.48
1107.4  809946.03  376053.05  46.43
1111.2  808572.65  374962.83  46.37
1114.9  807372.00  373876.07  46.31
1118.7  806605.42  372782.86  46.22
1122.5  806345.69  371799.49  46.11
1126.3  803905.20  369539.55  45.97
1130.1  803294.80  367729.40  45.78
1133.9  800019.03  364150.98  45.52
1137.7  797524.40  360461.45  45.20
1141.4  794072.55  355866.57  44.82
1145.2  793368.97  352132.74  44.38
1149.0  791580.60  348108.91  43.98
1152.8  788388.10  343940.51  43.63
1156.6  785018.21  340463.22  43.37
1160.3  781930.20  337743.55  43.19
1164.1  777296.07  334937.49  43.09
1167.9  774199.17  333125.92  43.03
1171.7  771734.97  331788.11  42.99
1175.4  769683.42  330684.99  42.96
1179.2  767971.50  329724.00  42.93
1183.0  768311.38  329541.83  42.89
1186.7  768184.67  329153.00  42.85
1190.5  766413.00  328156.31  42.82
1194.3  763434.70  326714.85  42.80
1198.0  760597.40  325447.36  42.79
1201.8  758244.67  324511.00  42.80
1205.6  756629.33  324116.84  42.84
1209.3  755257.50  324058.66  42.91
1213.1  753547.17  323934.42  42.99
1216.8  751315.20  323725.69  43.09
1220.6  749005.50  323451.08  43.18
1224.3  746625.00  323095.54  43.27
1228.1  744585.27  322889.69  43.37
1231.9  742527.50  322481.53  43.43
1235.6  740235.38  321906.63  43.49
1239.4  738012.50  321406.74  43.55
1243.1  735977.70  320839.46  43.59
1246.9  734109.57  320219.90  43.62
1250.6  732213.97  319516.54  43.64
1254.3  730360.80  318843.26  43.66
1258.1  728543.33  318080.15  43.66
1261.8  726236.70  317057.10  43.66
1265.6  723934.20  315895.16  43.64
1269.3  721344.73  314573.30  43.61
1273.1  721609.77  314468.88  43.58
1276.8  722061.00  314348.11  43.53
1280.6  722029.92  313888.70  43.47
1284.3  719871.37  312420.54  43.40
1288.0  717904.63  310906.03  43.31
1291.8  715932.00  309282.30  43.20
1295.5  713833.68  307570.56  43.09
1299.2  711397.05  305583.11  42.96
1302.9  708654.93  303249.16  42.79
1306.7  705699.23  300618.34  42.60
1310.4  702829.23  297754.93  42.37
1314.1  700494.38  294944.47  42.11
1317.9  698184.61  291836.52  41.80
1321.6  695547.13  288330.91  41.45
1325.3  692818.65  284495.58  41.06
1329.0  690171.53  280557.20  40.65
1332.8  686393.75  275898.75  40.20
1336.5  682776.83  271305.63  39.74
1340.2  680701.10  267321.53  39.27
