/*** Spectra Vista SIG Data ***/
name= 13_20220824_CECA_4_avg.sig
comm= Averaged Ref/Tar of files: HR.082422.0035_moc.sig,HR.082422.0036_moc.sig,HR.082422.0037_moc.sig
data=
337.3  3424.13  277.90  8.12
338.8  3511.30  250.12  7.12
340.3  3654.30  243.62  6.67
341.8  3795.18  243.87  6.43
343.2  3951.60  242.72  6.14
344.7  4222.35  244.53  5.79
346.2  4411.80  228.76  5.19
347.7  4561.70  225.46  4.94
349.2  4762.80  221.76  4.66
350.6  5031.33  225.25  4.48
352.1  5287.30  214.35  4.05
353.6  5552.00  212.83  3.83
355.1  5893.13  211.03  3.58
356.6  6194.48  214.13  3.46
358.0  6475.70  208.41  3.22
359.5  6767.10  214.24  3.17
361.0  7062.30  203.49  2.88
362.5  7465.13  210.78  2.82
364.0  7828.28  217.93  2.78
365.4  8177.10  236.04  2.89
366.9  8591.38  228.37  2.66
368.4  8946.20  232.75  2.60
369.9  9323.63  237.82  2.55
371.3  9772.20  256.32  2.62
372.8  10195.20  272.58  2.67
374.3  10642.50  261.58  2.46
375.8  11076.45  273.09  2.47
377.2  11486.30  269.00  2.34
378.7  11916.70  261.83  2.20
380.2  12347.10  265.41  2.15
381.7  12917.95  263.04  2.04
383.1  13421.10  265.91  1.98
384.6  13973.05  276.94  1.98
386.1  14458.38  284.66  1.97
387.6  14930.30  287.47  1.93
389.0  15436.80  293.01  1.90
390.5  15956.55  286.74  1.80
392.0  16557.70  296.24  1.79
393.4  17157.58  297.78  1.74
394.9  17721.90  306.24  1.73
396.4  18267.75  313.95  1.72
397.9  18834.38  314.33  1.67
399.3  19424.28  320.78  1.65
400.8  20014.78  325.69  1.63
402.2  20695.65  330.61  1.60
403.7  21306.38  327.42  1.54
405.2  21923.05  334.61  1.53
406.6  22527.20  346.45  1.54
408.1  23142.40  361.60  1.56
409.6  23771.85  357.05  1.50
411.0  24467.10  361.53  1.48
412.5  25135.78  360.97  1.44
414.0  25815.13  369.47  1.43
415.4  26553.00  381.60  1.44
416.9  27254.85  395.78  1.45
418.4  27975.15  408.36  1.46
419.8  28701.40  422.24  1.47
421.3  29446.90  439.68  1.49
422.7  30258.60  459.36  1.52
424.2  31083.75  483.75  1.56
425.7  31850.20  502.04  1.58
427.1  32662.80  527.50  1.61
428.6  33480.00  560.07  1.67
430.0  34249.98  582.72  1.70
431.5  35148.38  614.91  1.75
432.9  36053.65  640.69  1.78
434.4  36972.83  672.32  1.82
435.9  37842.00  701.87  1.85
437.3  38720.00  735.17  1.90
438.8  39598.28  769.25  1.94
440.2  40492.38  803.11  1.98
441.7  41499.80  837.95  2.02
443.1  42439.75  872.73  2.06
444.6  43439.60  913.51  2.10
446.0  44400.45  951.50  2.14
447.5  45392.60  994.36  2.19
448.9  46375.50  1028.56  2.22
450.4  47435.85  1073.99  2.26
451.8  48334.00  1111.07  2.30
453.3  49292.75  1147.11  2.33
454.7  50341.68  1187.51  2.36
456.2  51246.88  1223.75  2.39
457.6  52250.40  1256.70  2.41
459.1  53260.03  1293.41  2.43
460.5  54249.00  1319.67  2.43
462.0  55357.83  1356.11  2.45
463.4  56444.00  1391.92  2.47
464.8  57456.38  1426.35  2.48
466.3  58484.25  1458.60  2.49
467.7  59509.10  1491.95  2.51
469.2  60592.88  1527.61  2.52
470.6  61637.35  1556.74  2.53
472.0  62718.20  1591.41  2.54
473.5  63774.38  1625.32  2.55
474.9  64837.50  1664.40  2.57
476.4  66038.40  1704.96  2.58
477.8  67164.00  1749.67  2.61
479.2  68208.00  1788.33  2.62
480.7  69378.68  1829.64  2.64
482.1  70573.80  1874.65  2.66
483.6  71816.50  1928.59  2.69
485.0  72954.00  1985.97  2.72
486.4  74205.00  2048.64  2.76
487.9  75333.38  2113.80  2.81
489.3  76540.55  2189.12  2.86
490.7  77674.38  2267.65  2.92
492.2  78953.70  2359.84  2.99
493.6  80106.20  2459.25  3.07
495.0  81271.13  2574.00  3.17
496.5  82502.85  2704.11  3.28
497.9  83662.18  2850.86  3.41
499.3  84880.20  3011.31  3.55
500.7  86185.95  3199.56  3.71
502.2  87395.60  3412.51  3.90
503.6  88695.00  3657.79  4.12
505.0  89819.15  3935.97  4.38
506.5  91191.30  4267.02  4.68
507.9  92433.88  4633.31  5.01
509.3  93846.80  5051.73  5.38
510.7  95164.88  5510.70  5.79
512.2  96606.15  6033.18  6.25
513.6  98139.65  6622.05  6.75
515.0  99617.68  7258.54  7.29
516.4  101053.58  7939.89  7.86
517.8  102731.13  8685.93  8.46
519.3  104112.78  9441.51  9.07
520.7  105740.30  10245.26  9.69
522.1  107076.45  11036.52  10.31
523.5  108489.50  11833.53  10.91
524.9  109967.85  12623.82  11.48
526.3  111427.75  13372.29  12.00
527.8  112978.80  14103.54  12.48
529.2  114134.00  14772.85  12.94
530.6  115730.05  15469.21  13.37
532.0  117488.00  16126.13  13.73
533.4  118876.28  16679.15  14.03
534.8  119844.95  17127.26  14.29
536.3  121595.40  17647.20  14.51
537.7  123631.20  18184.32  14.71
539.1  125111.08  18620.61  14.88
540.5  126356.30  19003.65  15.04
541.9  128159.10  19457.01  15.18
543.3  129489.53  19834.92  15.32
544.7  130826.40  20211.44  15.45
546.1  132650.38  20651.29  15.57
547.5  133929.60  20988.80  15.67
549.0  135729.00  21386.93  15.76
550.4  137275.00  21718.92  15.82
551.8  138845.80  22011.28  15.85
553.2  140427.85  22258.68  15.85
554.6  141814.40  22419.63  15.81
556.0  143378.55  22546.44  15.73
557.4  145035.28  22629.65  15.60
558.8  146721.60  22660.98  15.44
560.2  148217.25  22603.67  15.25
561.6  149932.35  22520.78  15.02
563.0  151552.30  22367.62  14.76
564.4  153164.90  22167.66  14.47
565.8  154721.25  21904.50  14.16
567.2  156509.25  21629.00  13.82
568.6  158057.25  21280.20  13.46
570.0  159532.60  20887.62  13.09
571.4  161307.90  20527.95  12.73
572.8  163103.63  20170.37  12.37
574.2  164763.20  19819.52  12.03
575.6  166342.50  19476.00  11.71
577.0  167918.00  19175.35  11.42
578.4  169692.25  18924.97  11.15
579.8  171252.90  18685.89  10.91
581.2  173011.53  18504.57  10.70
582.5  174458.70  18317.52  10.50
583.9  176020.60  18159.41  10.32
585.3  177861.38  18056.04  10.15
586.7  179388.95  17944.51  10.00
588.1  180917.13  17856.08  9.87
589.5  182610.75  17811.50  9.75
590.9  184276.40  17788.21  9.65
592.3  186129.05  17800.92  9.56
593.7  187615.35  17787.25  9.48
595.0  189284.18  17790.84  9.40
596.4  190779.40  17779.49  9.32
597.8  192307.10  17759.34  9.23
599.2  193881.60  17721.44  9.14
600.6  195677.63  17674.28  9.03
602.0  197011.88  17550.95  8.91
603.3  198846.25  17432.53  8.77
604.7  200584.90  17270.61  8.61
606.1  202114.80  17054.96  8.44
607.5  203806.30  16830.68  8.26
608.9  205537.45  16593.99  8.07
610.2  206955.00  16318.26  7.88
611.6  208600.65  16063.10  7.70
613.0  210189.70  15810.23  7.52
614.4  211629.75  15554.92  7.35
615.8  213130.13  15328.95  7.19
617.1  214708.20  15135.12  7.05
618.5  216376.00  14979.57  6.92
619.9  217934.85  14851.37  6.81
621.3  219612.60  14773.50  6.73
622.6  221247.00  14727.43  6.66
624.0  222773.55  14710.46  6.60
625.4  224293.58  14724.05  6.56
626.8  225943.90  14778.40  6.54
628.1  227296.03  14825.32  6.52
629.5  229185.23  14925.38  6.51
630.9  230807.23  14996.85  6.50
632.2  232201.03  15037.59  6.48
633.6  233859.00  15054.02  6.44
635.0  235416.40  14993.81  6.37
636.3  237010.00  14864.16  6.27
637.7  238437.13  14645.97  6.14
639.1  240152.50  14361.67  5.98
640.4  241670.28  13991.53  5.79
641.8  242936.93  13556.51  5.58
643.2  244581.23  13100.57  5.36
644.5  245991.75  12629.00  5.13
645.9  247728.15  12181.92  4.92
647.2  249596.38  11788.35  4.72
648.6  251525.25  11442.60  4.55
650.0  253022.40  11122.56  4.40
651.3  253494.45  10806.88  4.26
652.7  254633.35  10550.75  4.14
654.0  256754.80  10326.37  4.02
655.4  258336.83  10072.62  3.90
656.8  258689.20  9773.11  3.78
658.1  260051.20  9500.71  3.65
659.5  262479.53  9261.77  3.53
660.8  264240.00  8997.00  3.40
662.2  265193.60  8718.08  3.29
663.5  266863.20  8490.83  3.18
664.9  268227.70  8306.65  3.10
666.2  269019.60  8151.84  3.03
667.6  270802.25  8084.63  2.99
668.9  271944.33  8051.94  2.96
670.3  273198.75  8063.95  2.95
671.6  274792.50  8136.10  2.96
673.0  276009.38  8251.15  2.99
674.3  277310.80  8400.95  3.03
675.7  278718.95  8603.36  3.09
677.0  279871.68  8842.30  3.16
678.4  281281.28  9141.84  3.25
679.7  282426.58  9491.31  3.36
681.1  283796.20  9916.09  3.49
682.4  284979.50  10454.77  3.67
683.8  286305.50  11123.67  3.89
685.1  287359.50  11979.95  4.17
686.4  288755.40  13095.04  4.53
687.8  290073.25  14524.80  5.01
689.1  291163.50  16355.23  5.62
690.5  292606.20  18693.54  6.39
691.8  293433.60  21587.99  7.36
693.1  294857.70  25147.54  8.53
694.5  296068.50  29280.77  9.89
695.8  297365.25  33921.77  11.41
697.1  298616.50  39005.63  13.06
698.5  299708.10  44467.79  14.84
699.8  300874.58  50217.57  16.69
701.1  302099.03  56167.49  18.59
702.5  302914.15  62108.71  20.50
703.8  303975.00  68049.00  22.39
705.1  305181.83  73912.80  24.22
706.5  306291.38  79586.38  25.98
707.8  307334.85  85040.26  27.67
709.1  308285.93  90207.88  29.26
710.5  309513.80  95217.61  30.76
711.8  310438.30  99883.19  32.17
713.1  311508.70  104369.95  33.50
714.4  312467.60  108571.27  34.75
715.8  313337.30  112519.85  35.91
717.1  314755.05  116428.60  36.99
718.4  315750.40  119980.37  38.00
719.7  316942.45  123390.75  38.93
721.0  317520.00  126372.00  39.80
722.4  318360.90  129253.59  40.60
723.7  319387.65  132034.40  41.34
725.0  320490.68  134680.47  42.02
726.3  321512.95  137120.43  42.65
727.6  322129.23  139244.67  43.23
729.0  323127.88  141383.06  43.75
730.3  323938.73  143310.67  44.24
731.6  324910.25  145175.19  44.68
732.9  325780.18  146868.35  45.08
734.2  326642.25  148465.53  45.45
735.5  327750.30  150067.54  45.79
736.8  328600.50  151452.48  46.09
738.1  329533.20  152778.36  46.36
739.5  330593.13  154085.00  46.61
740.8  331342.55  155171.50  46.83
742.1  332133.65  156217.94  47.03
743.4  332900.00  157200.00  47.22
744.7  333946.38  158256.76  47.39
746.0  334898.85  159208.14  47.54
747.3  335526.13  159946.46  47.67
748.6  336320.75  160724.63  47.79
749.9  337142.00  161435.73  47.88
751.2  337910.30  162091.65  47.97
752.5  338825.55  162802.93  48.05
753.8  339496.50  163358.14  48.12
755.1  340288.00  163938.67  48.18
756.4  340973.83  164435.60  48.23
757.7  342051.85  165106.90  48.27
759.0  343993.33  166158.10  48.30
760.3  345259.20  166876.16  48.33
761.6  346970.40  167778.61  48.36
762.9  347562.75  168146.93  48.38
764.2  348005.30  168422.69  48.40
765.5  348379.28  168639.60  48.41
766.8  348894.40  168912.00  48.41
768.1  349487.00  169226.05  48.42
769.3  350187.25  169568.23  48.42
770.6  350912.25  169939.73  48.43
771.9  351736.70  170346.05  48.43
773.2  352188.40  170581.76  48.43
774.5  352924.00  170917.41  48.43
775.8  353672.15  171292.07  48.43
777.1  354318.25  171600.22  48.43
778.4  354747.80  171798.84  48.43
779.6  355600.18  172222.69  48.43
780.9  356160.00  172492.00  48.43
782.2  356708.00  172759.77  48.43
783.5  357094.00  172939.07  48.43
784.8  357724.13  173232.39  48.43
786.0  358193.85  173459.81  48.43
787.3  358689.10  173691.64  48.42
788.6  359208.78  173942.72  48.42
789.9  359738.40  174206.29  48.43
791.2  360474.95  174554.22  48.42
792.4  361241.13  174930.18  48.42
793.7  361788.80  175207.49  48.43
795.0  362536.35  175547.24  48.42
796.2  363298.38  175911.94  48.42
797.5  364126.35  176305.77  48.42
798.8  364860.55  176655.72  48.42
800.0  365668.75  177028.86  48.41
801.3  366198.40  177294.32  48.41
802.6  366860.03  177614.58  48.41
803.8  367623.58  177964.16  48.41
805.1  368160.63  178237.15  48.41
806.4  368731.80  178485.80  48.41
807.7  369321.53  178795.89  48.41
808.9  369986.05  179102.49  48.41
810.2  370543.95  179372.43  48.41
811.4  371125.50  179626.61  48.40
812.7  371840.63  179963.33  48.40
814.0  372736.70  180407.09  48.40
815.2  373453.75  180744.10  48.40
816.5  373880.10  180970.82  48.40
817.7  374423.30  181209.79  48.40
819.0  374973.50  181476.17  48.40
820.2  375188.00  181561.60  48.39
821.5  375953.00  181916.01  48.39
822.7  376371.08  182102.09  48.38
824.0  376747.20  182271.96  48.38
825.2  377257.50  182524.32  48.38
826.5  377585.43  182664.30  48.38
827.7  378196.88  182911.22  48.36
829.0  378593.25  183108.55  48.37
830.2  378885.90  183228.73  48.36
831.5  379434.90  183448.70  48.35
832.7  379747.73  183594.81  48.35
834.0  380127.03  183740.99  48.34
835.2  380438.58  183900.53  48.34
836.4  380705.60  184029.05  48.34
837.7  381188.60  184200.51  48.32
838.9  381614.68  184427.82  48.33
840.1  381978.45  184591.17  48.33
841.4  382368.00  184811.20  48.33
842.6  382693.80  184960.00  48.33
843.8  383009.60  185129.12  48.34
845.1  383519.70  185354.01  48.33
846.3  383918.80  185516.68  48.32
847.5  384339.90  185712.52  48.32
848.8  384705.00  185902.64  48.32
850.0  384984.25  186053.79  48.33
851.2  385458.75  186297.66  48.33
852.5  385800.00  186461.43  48.33
853.7  386214.75  186667.20  48.33
854.9  386685.00  186869.11  48.33
856.1  387171.85  187076.15  48.32
857.4  387348.58  187106.57  48.30
858.6  387735.20  187304.66  48.31
859.8  388014.38  187479.00  48.32
861.0  388486.80  187696.08  48.31
862.2  388851.33  187865.44  48.31
863.5  389219.68  187999.54  48.30
864.7  389716.80  188237.28  48.30
865.9  390121.00  188393.33  48.29
867.1  390399.75  188499.19  48.28
868.3  390791.85  188701.84  48.29
869.5  391261.80  188903.09  48.28
870.8  391680.00  189138.60  48.29
872.0  392192.40  189343.15  48.28
873.2  392625.60  189518.96  48.27
874.4  392979.60  189676.89  48.27
875.6  393290.75  189832.59  48.27
876.8  393813.95  190043.66  48.26
878.0  394287.85  190255.39  48.25
879.2  394819.05  190469.68  48.24
880.4  395211.75  190653.85  48.24
881.6  395641.85  190857.58  48.24
882.8  395985.60  191002.13  48.23
884.0  396686.65  191261.49  48.21
885.2  397105.60  191478.33  48.22
886.5  397781.45  191726.45  48.20
887.7  398180.58  191897.29  48.19
888.8  398871.75  192200.81  48.19
890.0  399384.00  192431.59  48.18
891.2  400005.30  192684.68  48.17
892.4  400625.40  192951.43  48.16
893.6  401201.40  193162.48  48.15
894.8  402045.75  193518.93  48.13
896.0  402855.75  193947.73  48.14
897.2  403705.25  194326.60  48.14
898.4  404494.20  194642.80  48.12
899.6  405112.50  194869.50  48.10
900.8  405464.55  195022.19  48.10
902.0  405768.30  195105.32  48.08
903.2  405992.03  195200.30  48.08
904.3  406379.10  195317.40  48.06
905.5  406861.00  195591.35  48.07
906.7  407692.00  195855.60  48.04
907.9  408206.75  196077.42  48.03
909.1  408595.73  196197.57  48.02
910.2  408684.68  196206.54  48.01
911.4  408944.25  196293.24  48.00
912.6  409137.30  196311.35  47.98
913.8  409476.68  196420.65  47.97
915.0  409836.00  196604.66  47.97
916.2  410036.25  196631.50  47.95
917.3  410092.20  196601.01  47.94
918.5  410335.40  196624.47  47.92
919.7  410699.10  196711.10  47.90
920.8  410914.23  196699.63  47.87
922.0  410852.75  196663.13  47.87
923.2  411138.00  196705.60  47.84
924.4  411388.88  196769.25  47.83
925.5  411780.50  196831.55  47.80
926.7  412460.38  197009.03  47.76
927.9  413266.80  197330.80  47.75
929.0  414815.85  197926.56  47.71
930.2  417127.90  198932.53  47.69
931.4  419530.05  199989.27  47.67
932.5  422371.90  201239.81  47.65
933.7  423963.83  201769.18  47.59
934.9  424760.00  201955.25  47.55
936.0  424263.13  201611.15  47.52
937.2  422228.40  200503.34  47.49
938.3  420549.40  199577.10  47.46
939.5  419108.40  198685.92  47.41
940.7  419264.10  198716.40  47.40
941.8  420844.58  199306.19  47.36
943.0  422492.25  199780.10  47.29
944.2  423200.05  200013.93  47.26
945.3  422925.75  199674.80  47.21
946.5  422212.50  199084.14  47.15
947.6  422591.20  199039.95  47.10
948.8  422392.43  198733.34  47.05
949.9  422633.40  198479.12  46.96
951.1  422305.65  198038.49  46.89
952.2  422280.00  197662.40  46.81
953.4  421961.00  197274.37  46.75
954.5  422042.40  196896.96  46.65
955.7  422188.20  196578.48  46.56
956.8  422072.30  196139.05  46.47
958.0  421736.00  195687.87  46.40
959.1  421428.58  195297.27  46.34
960.3  421314.20  194957.47  46.27
961.4  421017.25  194770.32  46.26
962.6  421480.50  194740.93  46.20
963.7  421223.03  194460.95  46.17
964.9  420968.93  194360.29  46.17
966.0  420995.48  194184.27  46.13
967.2  421055.10  194167.86  46.11
968.3  420863.85  194033.34  46.10
969.5  420760.38  193875.94  46.08
970.6  420961.05  193869.21  46.05
971.8  420991.55  193987.48  46.08
972.9  420879.30  193995.80  46.09
974.0  421388.70  194149.49  46.07
975.2  421289.38  194122.87  46.08
976.3  421625.40  194081.53  46.03
977.5  421286.95  194079.41  46.07
978.6  421305.30  194128.52  46.08
979.7  421751.93  194297.53  46.07
980.9  421163.95  194258.49  46.12
982.0  421396.10  194283.76  46.10
983.2  421002.20  194287.75  46.15
984.3  420901.20  194245.36  46.15
985.4  420624.03  194169.77  46.16
986.6  420675.63  194309.15  46.19
987.7  421989.58  194971.79  46.20
988.9  421912.80  194870.40  46.19
990.0  422793.70  195411.71  46.22
993.1  370559.06  169288.26  45.68
996.9  370958.08  170143.36  45.87
1000.7  371918.05  171158.33  46.02
1004.5  372449.00  171853.35  46.14
1008.4  372177.54  172234.45  46.28
1012.2  372168.25  172707.65  46.41
1016.0  372168.60  173166.43  46.53
1019.8  372273.83  173654.25  46.65
1023.7  372169.81  173967.96  46.74
1027.5  371787.22  174146.94  46.84
1031.3  371980.03  174488.69  46.91
1035.1  371857.27  174633.86  46.96
1038.9  371812.83  174776.88  47.01
1042.7  371657.08  174846.24  47.05
1046.5  371492.83  174871.79  47.07
1050.3  371577.78  174974.78  47.09
1054.2  371278.25  174917.67  47.11
1058.0  370808.73  174717.35  47.12
1061.8  370697.00  174710.03  47.13
1065.6  370461.17  174558.03  47.12
1069.4  370466.13  174575.75  47.12
1073.2  370047.03  174357.11  47.12
1077.0  369517.68  174067.80  47.11
1080.8  369025.00  173719.49  47.08
1084.6  368039.00  173072.43  47.03
1088.4  367428.37  172654.27  46.99
1092.2  366678.00  172107.00  46.94
1096.0  366144.09  171674.28  46.89
1099.8  365662.48  171240.70  46.83
1103.6  365001.13  170717.56  46.77
1107.4  364106.06  170039.62  46.70
1111.2  363839.50  169634.80  46.62
1114.9  363161.17  168980.67  46.53
1118.7  362555.33  168285.50  46.42
1122.5  361867.13  167440.74  46.27
1126.3  360740.57  166306.11  46.10
1130.1  360272.64  165249.53  45.87
1133.9  358715.00  163406.80  45.55
1137.7  357358.50  161377.64  45.16
1141.4  355604.60  158917.93  44.69
1145.2  354851.06  156725.56  44.17
1149.0  353752.29  154469.80  43.67
1152.8  352120.65  152234.55  43.23
1156.6  350486.03  150410.33  42.91
1160.3  348818.33  148986.05  42.71
1164.1  346463.97  147601.77  42.60
1167.9  344688.54  146700.30  42.56
1171.7  343413.00  146137.50  42.55
1175.4  342243.83  145668.29  42.56
1179.2  341208.55  145231.65  42.56
1183.0  340918.33  145063.14  42.55
1186.7  340396.93  144756.57  42.53
1190.5  339367.60  144206.80  42.49
1194.3  338221.47  143635.87  42.47
1198.0  337056.78  143138.84  42.47
1201.8  335577.45  142573.60  42.49
1205.6  334330.00  142180.38  42.53
1209.3  333398.38  141979.19  42.59
1213.1  332494.50  141785.46  42.64
1216.8  331605.36  141648.77  42.72
1220.6  330545.60  141460.00  42.80
1224.3  329346.58  141194.44  42.87
1228.1  328131.60  140954.86  42.96
1231.9  326887.55  140665.41  43.03
1235.6  325427.78  140238.18  43.09
1239.4  324093.63  139876.41  43.16
1243.1  322865.71  139474.52  43.20
1246.9  321665.05  139064.90  43.23
1250.6  320701.80  138709.21  43.25
1254.3  319617.65  138285.65  43.27
1258.1  318615.03  137863.00  43.27
1261.8  317334.40  137295.49  43.27
1265.6  315881.22  136624.68  43.25
1269.3  314466.50  135888.41  43.21
1273.1  314462.18  135720.93  43.16
1276.8  314716.00  135635.03  43.10
1280.6  314501.87  135373.38  43.04
1284.3  313092.40  134531.54  42.97
1288.0  311645.10  133578.43  42.86
1291.8  310378.25  132603.93  42.72
1295.5  309066.27  131546.59  42.56
1299.2  307842.16  130477.88  42.38
1302.9  306375.98  129223.62  42.18
1306.7  304824.92  127846.25  41.94
1310.4  303328.45  126359.34  41.66
1314.1  301959.53  124835.36  41.34
1317.9  300729.58  123217.92  40.97
1321.6  299351.79  121403.12  40.56
1325.3  297709.65  119353.13  40.09
1329.0  296389.68  117345.43  39.59
1332.8  294294.00  114908.20  39.05
1336.5  292478.80  112541.51  38.48
1340.2  292079.67  110716.67  37.91
1343.9  291558.96  108854.73  37.34
