/*** Spectra Vista SIG Data ***/
name= 4_20221020_TITO_18_avg.sig
comm= Averaged Ref/Tar of files: HR.102022.0011_moc.sig,HR.102022.0012_moc.sig,HR.102022.0013_moc.sig
data=
337.3  2977.50  271.28  9.11
338.8  3126.50  269.36  8.62
340.3  3279.50  274.85  8.38
341.8  3475.10  274.35  7.89
343.2  3596.40  260.48  7.24
344.7  3753.20  261.59  6.97
346.2  3921.60  261.44  6.67
347.7  4129.13  251.68  6.10
349.2  4309.20  257.04  5.96
350.6  4553.90  264.42  5.81
352.1  4822.88  271.51  5.63
353.6  5066.20  268.35  5.30
355.1  5354.33  278.38  5.20
356.6  5637.30  284.05  5.04
358.0  5901.50  289.23  4.90
359.5  6149.10  292.52  4.76
361.0  6463.80  307.23  4.75
362.5  6791.80  312.27  4.60
364.0  7140.08  324.98  4.55
365.4  7502.70  333.45  4.44
366.9  7845.50  346.23  4.41
368.4  8182.50  363.67  4.44
369.9  8512.88  378.35  4.44
371.3  8944.50  395.16  4.42
372.8  9345.60  407.10  4.36
374.3  9782.50  419.25  4.29
375.8  10187.10  434.79  4.27
377.2  10571.70  444.75  4.21
378.7  10975.20  455.51  4.15
380.2  11351.80  459.09  4.04
381.7  11836.95  464.83  3.93
383.1  12289.20  485.10  3.95
384.6  12786.15  492.74  3.85
386.1  13269.28  511.67  3.86
387.6  13663.65  531.81  3.89
389.0  14123.60  546.72  3.87
390.5  14602.50  555.78  3.81
392.0  15129.40  567.79  3.75
393.4  15686.18  578.05  3.69
394.9  16208.10  598.56  3.69
396.4  16715.25  621.00  3.72
397.9  17245.63  645.75  3.74
399.3  17778.15  661.83  3.72
400.8  18344.80  671.31  3.66
402.2  18952.60  690.67  3.64
403.7  19524.83  712.62  3.65
405.2  20123.75  729.19  3.62
406.6  20648.00  754.77  3.66
408.1  21244.00  771.41  3.63
409.6  21818.30  790.20  3.62
411.0  22460.20  814.15  3.62
412.5  23094.93  833.00  3.61
414.0  23736.88  863.90  3.64
415.4  24426.38  887.75  3.63
416.9  25057.50  909.78  3.63
418.4  25734.15  933.75  3.63
419.8  26444.60  956.11  3.62
421.3  27147.48  981.56  3.62
422.7  27874.80  1011.52  3.63
424.2  28636.88  1039.50  3.63
425.7  29372.60  1067.11  3.63
427.1  30114.98  1092.98  3.63
428.6  30907.00  1122.20  3.63
430.0  31624.70  1147.23  3.63
431.5  32476.80  1176.09  3.62
432.9  33314.10  1205.21  3.62
434.4  34179.45  1241.50  3.63
435.9  35000.00  1271.20  3.63
437.3  35818.75  1299.83  3.63
438.8  36652.50  1328.54  3.62
440.2  37500.93  1360.08  3.63
441.7  38444.60  1398.96  3.64
443.1  39312.75  1432.77  3.64
444.6  40256.30  1472.44  3.66
446.0  41182.65  1508.56  3.66
447.5  42122.58  1542.38  3.66
448.9  43034.40  1577.24  3.67
450.4  44017.05  1617.89  3.68
451.8  44876.00  1651.87  3.68
453.3  45788.65  1687.55  3.69
454.7  46784.43  1730.32  3.70
456.2  47610.00  1763.33  3.70
457.6  48559.95  1800.09  3.71
459.1  49529.03  1838.85  3.71
460.5  50437.13  1874.28  3.72
462.0  51489.68  1915.14  3.72
463.4  52512.10  1954.53  3.72
464.8  53488.13  1996.15  3.73
466.3  54431.03  2036.43  3.74
467.7  55399.20  2071.84  3.74
469.2  56440.75  2115.00  3.75
470.6  57422.35  2152.46  3.75
472.0  58453.48  2191.95  3.75
473.5  59466.25  2233.63  3.76
474.9  60477.00  2278.10  3.77
476.4  61617.60  2327.04  3.78
477.8  62654.50  2366.40  3.78
479.2  63640.50  2407.00  3.78
480.7  64717.73  2449.17  3.78
482.1  65834.20  2496.96  3.79
483.6  67004.65  2550.91  3.81
485.0  68075.93  2597.78  3.82
486.4  69228.90  2651.98  3.83
487.9  70302.38  2706.60  3.85
489.3  71430.98  2756.52  3.86
490.7  72491.18  2811.49  3.88
492.2  73691.10  2875.32  3.90
493.6  74773.60  2941.72  3.93
495.0  75874.50  3014.70  3.97
496.5  77029.08  3093.49  4.02
497.9  78129.70  3167.84  4.05
499.3  79289.03  3255.89  4.11
500.7  80531.05  3355.83  4.17
502.2  81657.80  3463.12  4.24
503.6  82884.20  3589.65  4.33
505.0  83959.15  3719.15  4.43
506.5  85251.75  3874.99  4.55
507.9  86414.93  4048.21  4.68
509.3  87749.20  4248.59  4.84
510.7  88963.88  4467.45  5.02
512.2  90338.48  4724.64  5.23
513.6  91811.30  5018.67  5.47
515.0  93216.43  5341.01  5.73
516.4  94589.78  5696.46  6.02
517.8  96191.25  6100.12  6.34
519.3  97511.60  6515.79  6.68
520.7  99052.50  6980.04  7.05
522.1  100340.50  7453.33  7.43
523.5  101664.60  7945.24  7.82
524.9  103118.40  8461.14  8.21
526.3  104525.40  8965.88  8.58
527.8  105984.45  9482.22  8.95
529.2  107041.60  9963.13  9.31
530.6  108591.75  10488.77  9.66
532.0  110222.00  11000.27  9.98
533.4  111505.05  11460.92  10.28
534.8  112386.05  11858.42  10.55
536.3  113907.00  12291.12  10.79
537.7  115806.60  12742.80  11.00
539.1  117198.43  13131.88  11.20
540.5  118379.20  13486.36  11.39
541.9  120069.68  13886.65  11.57
543.3  121352.30  14237.25  11.73
544.7  122652.60  14587.44  11.89
546.1  124442.18  14983.72  12.04
547.5  125652.80  15299.20  12.18
549.0  127270.00  15653.73  12.30
550.4  128732.50  15971.50  12.41
551.8  130267.93  16270.25  12.49
553.2  131744.08  16532.34  12.55
554.6  133036.80  16741.23  12.58
556.0  134529.30  16928.46  12.58
557.4  136093.83  17084.43  12.55
558.8  137717.10  17209.98  12.50
560.2  139128.75  17269.53  12.41
561.6  140758.35  17309.67  12.30
563.0  142302.88  17296.32  12.15
564.4  143870.35  17251.36  11.99
565.8  145371.25  17165.75  11.81
567.2  147092.25  17072.43  11.61
568.6  148541.63  16925.85  11.39
570.0  149929.48  16744.92  11.17
571.4  151617.05  16579.42  10.94
572.8  153324.75  16421.98  10.71
574.2  154907.20  16260.91  10.50
575.6  156431.25  16110.00  10.30
577.0  157940.10  15975.19  10.11
578.4  159602.63  15877.98  9.95
579.8  161097.53  15780.42  9.80
581.2  162779.23  15720.39  9.66
582.5  164162.70  15649.92  9.53
583.9  165672.00  15593.31  9.41
585.3  167403.15  15583.59  9.31
586.7  168867.08  15553.94  9.21
588.1  170307.75  15541.02  9.13
589.5  171928.75  15552.60  9.05
590.9  173513.20  15572.75  8.97
592.3  175273.30  15618.89  8.91
593.7  176702.18  15654.47  8.86
595.0  178293.15  15706.35  8.81
596.4  179694.20  15748.93  8.76
597.8  181154.13  15792.86  8.72
599.2  182661.60  15836.48  8.67
600.6  184364.70  15892.28  8.62
602.0  185640.90  15893.41  8.56
603.3  187382.95  15925.77  8.50
604.7  189015.85  15930.46  8.43
606.1  190467.60  15899.44  8.35
607.5  192067.53  15870.79  8.26
608.9  193721.40  15835.29  8.17
610.2  195076.35  15758.82  8.08
611.6  196667.93  15707.84  7.99
613.0  198181.75  15650.31  7.90
614.4  199524.15  15568.50  7.80
615.8  200947.50  15500.55  7.71
617.1  202463.10  15446.76  7.63
618.5  204062.40  15413.71  7.55
619.9  205562.03  15396.63  7.49
621.3  207145.58  15416.70  7.44
622.6  208681.00  15445.20  7.40
624.0  210104.55  15493.26  7.37
625.4  211534.13  15566.32  7.36
626.8  213060.58  15668.08  7.35
628.1  214299.80  15764.21  7.36
629.5  216031.33  15899.25  7.36
630.9  217487.88  16003.35  7.36
632.2  218739.85  16062.88  7.34
633.6  220244.63  16102.07  7.31
635.0  221690.80  16076.27  7.25
636.3  223152.70  15992.12  7.17
637.7  224467.63  15829.78  7.05
639.1  226065.00  15626.33  6.91
640.4  227494.93  15370.18  6.76
641.8  228694.75  15058.56  6.58
643.2  230215.30  14766.08  6.41
644.5  231537.75  14463.73  6.25
645.9  233060.40  14189.28  6.09
647.2  233993.03  13924.75  5.95
648.6  235406.25  13745.70  5.84
650.0  236736.00  13610.88  5.75
651.3  237813.68  13515.44  5.68
652.7  240088.80  13528.81  5.63
654.0  242167.50  13553.75  5.60
655.4  243464.75  13537.46  5.56
656.8  243661.80  13441.43  5.52
658.1  245001.10  13396.03  5.47
659.5  247128.53  13379.45  5.41
660.8  248377.50  13302.00  5.36
662.2  249334.40  13192.11  5.29
663.5  250804.45  13100.99  5.22
664.9  251785.30  12997.75  5.16
666.2  252502.80  12905.60  5.11
667.6  254192.45  12888.97  5.07
668.9  255073.10  12884.30  5.05
670.3  256976.88  12947.67  5.04
671.6  257933.25  13000.65  5.04
673.0  259105.88  13100.95  5.06
674.3  260360.10  13227.59  5.08
675.7  261677.05  13389.22  5.12
677.0  262758.25  13561.53  5.16
678.4  264057.73  13787.65  5.22
679.7  265114.93  14040.20  5.30
681.1  266379.03  14366.41  5.39
682.4  267476.30  14736.28  5.51
683.8  268647.60  15207.75  5.66
685.1  269681.63  15809.05  5.86
686.4  270995.40  16590.80  6.12
687.8  272228.75  17613.10  6.47
689.1  273319.00  18918.43  6.92
690.5  274659.15  20612.66  7.50
691.8  275476.08  22747.70  8.26
693.1  276850.95  25446.52  9.19
694.5  278027.75  28652.87  10.31
695.8  279301.75  32329.27  11.58
697.1  280462.00  36442.47  12.99
698.5  281548.10  40932.64  14.54
699.8  282621.20  45730.94  16.18
701.1  283777.63  50779.91  17.89
702.5  284626.10  55893.93  19.64
703.8  285547.50  61086.00  21.39
705.1  286703.63  66306.24  23.13
706.5  287720.13  71421.00  24.82
707.8  288694.95  76442.96  26.48
709.1  289555.25  81298.72  28.08
710.5  290671.50  86114.97  29.63
711.8  291483.30  90722.35  31.12
713.1  292419.90  95250.73  32.57
714.4  293334.20  99627.48  33.96
715.8  294181.60  103858.53  35.30
717.1  295467.00  108126.32  36.60
718.4  296441.60  112134.40  37.83
719.7  297501.58  116057.90  39.01
721.0  297990.00  119640.00  40.15
722.4  298742.40  123153.07  41.22
723.7  299682.15  126607.46  42.25
725.0  300697.20  129941.55  43.21
726.3  301632.38  133088.01  44.12
727.6  302157.35  135909.18  44.98
729.0  303022.65  138735.99  45.78
730.3  303768.83  141358.15  46.53
731.6  304630.85  143878.79  47.23
732.9  305414.55  146201.14  47.87
734.2  306212.50  148400.08  48.46
735.5  307212.98  150581.96  49.02
736.8  307957.80  152526.88  49.53
738.1  308764.10  154390.81  50.00
739.5  309681.75  156180.17  50.43
740.8  310391.95  157736.48  50.82
742.1  311074.90  159210.76  51.18
743.4  311725.00  160583.33  51.51
744.7  312597.98  162006.16  51.83
746.0  313376.70  163308.08  52.11
747.3  313931.98  164394.61  52.37
748.6  314639.25  165479.80  52.59
749.9  315276.00  166462.40  52.80
751.2  315892.00  167387.89  52.99
752.5  316624.20  168353.70  53.17
753.8  317150.23  169139.83  53.33
755.1  317798.00  169932.53  53.47
756.4  318349.60  170631.51  53.60
757.7  319314.45  171503.97  53.71
759.0  321046.45  172759.81  53.81
760.3  322132.80  173662.72  53.91
761.6  323642.20  174744.27  53.99
762.9  324103.00  175262.43  54.08
764.2  324440.90  175657.00  54.14
765.5  324678.35  175983.20  54.20
766.8  325012.80  176361.17  54.26
768.1  325512.00  176792.11  54.31
769.3  326048.80  177254.93  54.36
770.6  326651.65  177750.82  54.42
771.9  327280.80  178238.81  54.46
773.2  327565.60  178541.33  54.51
774.5  328127.80  178959.73  54.54
775.8  328745.75  179416.23  54.58
777.1  329249.25  179824.41  54.62
778.4  329501.15  180084.92  54.65
779.6  330185.30  180589.28  54.69
780.9  330570.00  180920.00  54.73
782.2  330935.00  181253.97  54.77
783.5  331230.00  181479.07  54.79
784.8  331677.00  181830.51  54.82
786.0  331996.70  182119.51  54.86
787.3  332313.05  182399.72  54.89
788.6  332634.90  182692.47  54.92
789.9  333012.40  183007.63  54.96
791.2  333568.00  183427.65  54.99
792.4  334168.65  183855.41  55.02
793.7  334601.20  184163.15  55.04
795.0  335138.10  184562.73  55.07
796.2  335678.80  184965.59  55.10
797.5  336242.18  185385.20  55.13
798.8  336856.68  185823.62  55.16
800.0  337449.83  186233.01  55.19
801.3  337823.80  186526.29  55.21
802.6  338363.55  186905.58  55.24
803.8  338924.48  187312.43  55.27
805.1  339302.25  187623.33  55.30
806.4  339699.60  187934.60  55.32
807.7  340195.95  188296.65  55.35
808.9  340695.65  188658.22  55.37
810.2  341079.20  189001.54  55.41
811.4  341531.70  189320.12  55.43
812.7  342103.13  189713.33  55.46
814.0  342861.80  190217.25  55.48
815.2  343435.50  190630.50  55.51
816.5  343822.58  190925.17  55.53
817.7  344256.90  191253.83  55.56
819.0  344732.30  191608.71  55.58
820.2  344828.00  191757.87  55.61
821.5  345501.70  192191.46  55.63
822.7  345810.45  192454.97  55.65
824.0  346040.10  192688.20  55.68
825.2  346518.00  193019.22  55.70
826.5  346809.40  193272.81  55.73
827.7  347316.80  193617.59  55.75
829.0  347652.88  193893.02  55.77
830.2  347979.65  194120.92  55.79
831.5  348492.35  194488.39  55.81
832.7  348785.33  194716.83  55.83
834.0  349092.03  194989.46  55.86
835.2  349448.83  195224.92  55.87
836.4  349709.25  195438.83  55.89
837.7  350132.00  195741.49  55.91
838.9  350607.45  196074.34  55.92
840.1  350884.58  196356.42  55.96
841.4  351300.60  196676.75  55.99
842.6  351713.00  196974.69  56.00
843.8  352068.80  197255.41  56.03
845.1  352598.35  197619.67  56.05
846.3  353027.40  197905.29  56.06
847.5  353402.70  198192.96  56.08
848.8  353805.00  198501.60  56.10
850.0  354223.10  198800.98  56.12
851.2  354748.95  199173.78  56.14
852.5  355128.90  199441.45  56.16
853.7  355612.50  199804.20  56.19
854.9  356080.70  200106.73  56.20
856.1  356575.70  200412.59  56.20
857.4  356827.33  200617.31  56.22
858.6  357323.25  200979.74  56.25
859.8  357766.88  201270.75  56.26
861.0  358160.40  201586.32  56.28
862.2  358644.45  201890.91  56.29
863.5  359053.18  202163.43  56.30
864.7  359587.80  202505.60  56.32
865.9  359953.60  202779.73  56.33
867.1  360369.00  203012.81  56.33
868.3  360777.00  203312.56  56.35
869.5  361228.75  203619.54  56.37
870.8  361845.00  203949.00  56.36
872.0  362267.63  204292.65  56.39
873.2  362694.15  204565.44  56.40
874.4  363206.03  204882.21  56.41
875.6  363614.45  205149.39  56.42
876.8  364054.10  205420.93  56.43
878.0  364567.25  205736.23  56.43
879.2  365065.05  206018.90  56.43
880.4  365524.88  206353.05  56.45
881.6  366040.60  206644.92  56.45
882.8  366368.00  206889.49  56.47
884.0  366904.85  207260.55  56.49
885.2  367375.30  207521.59  56.49
886.5  367927.85  207885.31  56.50
887.7  368472.33  208137.80  56.49
888.8  369024.83  208532.95  56.51
890.0  369615.10  208863.04  56.51
891.2  370115.00  209175.88  56.52
892.4  370597.50  209523.79  56.54
893.6  371140.20  209837.45  56.54
894.8  372036.50  210292.83  56.52
896.0  372783.00  210780.53  56.54
897.2  373581.00  211225.73  56.54
898.4  374213.40  211651.88  56.56
899.6  374781.00  211932.70  56.55
900.8  375102.15  212143.21  56.56
902.0  375287.55  212245.84  56.56
903.2  375605.03  212376.19  56.54
904.3  375771.30  212551.72  56.56
905.5  376346.43  212894.12  56.57
906.7  376820.00  213213.53  56.58
907.9  377231.40  213472.75  56.59
909.1  377533.58  213604.83  56.58
910.2  377538.90  213701.86  56.60
911.4  377883.68  213818.28  56.58
912.6  378020.50  213911.79  56.59
913.8  378177.53  213984.32  56.58
915.0  378348.60  214197.62  56.61
916.2  378475.50  214224.40  56.60
917.3  378487.35  214193.52  56.59
918.5  378591.00  214335.41  56.61
919.7  378732.45  214391.42  56.61
920.8  378722.18  214383.09  56.61
922.0  378782.25  214396.23  56.60
923.2  378924.00  214468.80  56.60
924.4  379009.13  214499.70  56.59
925.5  379090.60  214565.47  56.60
926.7  379571.75  214815.40  56.59
927.9  380298.00  215203.36  56.59
929.0  381707.10  215918.10  56.57
930.2  383805.70  217084.63  56.56
931.4  386280.23  218314.98  56.52
932.5  388557.10  219712.71  56.55
933.7  389868.28  220335.85  56.52
934.9  390442.50  220603.25  56.50
936.0  389796.88  220233.87  56.50
937.2  387649.35  218945.50  56.48
938.3  385949.35  217852.17  56.45
939.5  384253.20  216891.84  56.45
940.7  384368.40  216891.96  56.43
941.8  385759.58  217573.78  56.40
943.0  387180.00  218183.10  56.35
944.2  387765.95  218425.05  56.33
945.3  387357.75  218002.20  56.28
946.5  386371.35  217423.80  56.27
947.6  386548.90  217347.15  56.23
948.8  386109.75  217075.17  56.22
949.9  386114.40  216903.12  56.18
951.1  385609.58  216433.32  56.13
952.2  385356.00  216022.40  56.06
953.4  385277.75  215595.27  55.96
954.5  384766.20  215345.52  55.97
955.7  384703.20  214971.12  55.88
956.8  384157.70  214646.03  55.87
958.0  383859.50  214116.67  55.78
959.1  383506.78  213686.33  55.72
960.3  382908.38  213355.47  55.72
961.4  382785.60  213096.49  55.67
962.6  382880.75  213057.83  55.65
963.7  382461.68  212778.55  55.63
964.9  382060.05  212601.44  55.65
966.0  381904.88  212392.26  55.61
967.2  381696.75  212270.94  55.61
968.3  381246.75  211978.62  55.60
969.5  380781.15  211806.02  55.62
970.6  380539.55  211770.16  55.65
971.8  380868.60  211833.21  55.62
972.9  380602.28  211688.55  55.62
974.0  380651.20  211748.09  55.63
975.2  380354.38  211452.02  55.59
976.3  379677.98  211195.13  55.62
977.5  379687.70  211072.07  55.59
978.6  379294.80  211039.41  55.64
979.7  379704.15  211003.38  55.57
980.9  379227.93  210972.78  55.63
982.0  378200.60  210858.03  55.75
983.2  377573.58  210501.10  55.75
984.3  377397.20  209979.31  55.64
985.4  377230.90  209829.87  55.62
986.6  377072.75  209785.10  55.64
987.7  377638.28  210277.34  55.68
988.9  377101.80  209945.28  55.67
990.0  376948.60  210159.76  55.75
993.1  390310.67  216192.24  55.39
996.9  388220.00  215677.78  55.56
1000.7  387745.69  215967.79  55.70
1004.5  387535.83  216359.78  55.83
1008.4  386933.71  216516.15  55.96
1012.2  386453.21  216758.03  56.09
1016.0  385615.20  216751.60  56.21
1019.8  384401.33  216525.28  56.33
1023.7  382679.65  215930.24  56.43
1027.5  380506.87  215068.75  56.52
1031.3  379050.98  214546.51  56.60
1035.1  377747.48  214067.00  56.67
1038.9  377227.58  213964.67  56.72
1042.7  376908.58  213986.02  56.77
1046.5  376736.00  214065.59  56.82
1050.3  376713.63  214172.64  56.85
1054.2  376317.67  214101.35  56.89
1058.0  376005.70  214004.61  56.92
1061.8  375975.53  214067.19  56.94
1065.6  375206.43  213697.18  56.95
1069.4  374098.73  213138.79  56.97
1073.2  372538.33  212261.40  56.98
1077.0  371739.53  211796.35  56.97
1080.8  372106.25  211928.24  56.95
1084.6  372480.85  212067.28  56.93
1088.4  373018.11  212290.62  56.91
1092.2  372674.25  211978.00  56.88
1096.0  371980.21  211493.42  56.86
1099.8  371197.23  210919.70  56.82
1103.6  370212.23  210224.62  56.78
1107.4  368963.77  209359.52  56.74
1111.2  368631.60  208999.58  56.70
1114.9  368096.17  208494.61  56.64
1118.7  367864.20  208071.60  56.56
1122.5  367562.87  207512.16  56.46
1126.3  366712.03  206525.07  56.32
1130.1  366369.12  205585.22  56.11
1133.9  364697.90  203602.78  55.83
1137.7  363115.30  201402.33  55.47
1141.4  361006.32  198708.01  55.04
1145.2  359988.02  196524.15  54.59
1149.0  358710.63  194322.59  54.17
1152.8  356932.45  192106.48  53.82
1156.6  355118.87  190217.09  53.56
1160.3  353393.00  188686.07  53.39
1164.1  351141.00  187086.72  53.28
1167.9  349576.04  186028.47  53.22
1171.7  348279.75  185204.25  53.18
1175.4  346696.17  184274.53  53.15
1179.2  345143.95  183355.28  53.12
1183.0  344799.67  183038.00  53.09
1186.7  344992.43  182997.78  53.04
1190.5  344858.53  182808.78  53.01
1194.3  344002.83  182270.45  52.99
1198.0  342420.65  181438.46  52.99
1201.8  340690.63  180600.45  53.01
1205.6  339667.67  180230.00  53.06
1209.3  339232.80  180238.22  53.13
1213.1  338975.33  180369.72  53.21
1216.8  338532.61  180453.70  53.30
1220.6  337485.87  180232.47  53.40
1224.3  336315.50  179910.96  53.49
1228.1  334747.00  179437.07  53.60
1231.9  333070.68  178830.77  53.69
1235.6  331282.35  178134.70  53.77
1239.4  329718.38  177521.09  53.84
1243.1  328309.64  176948.27  53.90
1246.9  327013.40  176390.44  53.94
1250.6  325920.40  175933.97  53.98
1254.3  324712.85  175375.52  54.01
1258.1  323424.38  174765.16  54.04
1261.8  321928.13  173991.29  54.05
1265.6  320864.38  173387.47  54.04
1269.3  320305.63  173014.87  54.02
1273.1  320723.53  173132.65  53.98
1276.8  320193.60  172750.31  53.95
1280.6  318675.37  171773.62  53.90
1284.3  316487.20  170366.84  53.83
1288.0  315331.96  169433.07  53.73
1291.8  315137.06  168949.43  53.61
1295.5  314632.27  168224.06  53.47
1299.2  313537.34  167132.95  53.31
1302.9  311870.11  165652.98  53.12
1306.7  310054.03  163993.92  52.89
1310.4  308259.12  162232.63  52.63
1314.1  306631.05  160454.68  52.33
1317.9  305170.42  158622.91  51.98
1321.6  303575.08  156619.33  51.59
1325.3  301850.85  154432.25  51.16
1329.0  300546.75  152378.23  50.70
1332.8  298652.20  149937.82  50.20
1336.5  297043.53  147601.53  49.69
1340.2  296933.00  146017.93  49.18
1343.9  296851.46  144455.51  48.66
