/*** Spectra Vista SIG Data ***/
name= 23_20220824_BENI_49_avg.sig
comm= Averaged Ref/Tar of files: HR.082422.0065_moc.sig,HR.082422.0066_moc.sig,HR.082422.0067_moc.sig
data=
337.3  3506.83  363.92  10.38
338.8  3655.60  333.49  9.12
340.3  3810.47  324.83  8.52
341.8  3993.32  329.22  8.24
343.2  4144.00  325.60  7.86
344.7  4293.43  329.83  7.68
346.2  4493.50  299.57  6.67
347.7  4692.78  298.87  6.37
349.2  4888.80  277.20  5.67
350.6  5165.98  279.11  5.40
352.1  5454.02  285.80  5.24
353.6  5713.93  286.85  5.02
355.1  5994.15  282.87  4.72
356.6  6292.80  284.05  4.51
358.0  6592.67  276.47  4.19
359.5  6880.40  284.28  4.13
361.0  7201.95  291.27  4.04
362.5  7572.47  300.56  3.97
364.0  7933.42  305.87  3.86
365.4  8298.87  310.97  3.75
366.9  8674.25  316.77  3.65
368.4  9037.12  320.03  3.54
369.9  9422.72  331.51  3.52
371.3  9879.00  352.44  3.57
372.8  10283.70  354.00  3.44
374.3  10714.17  365.50  3.41
375.8  11139.33  373.71  3.35
377.2  11584.93  369.43  3.19
378.7  12015.33  373.01  3.10
380.2  12427.80  373.01  3.00
381.7  12972.00  392.76  3.03
383.1  13457.03  402.45  2.99
384.6  13991.03  413.62  2.96
386.1  14467.38  421.59  2.91
387.6  14966.23  431.20  2.88
389.0  15472.53  439.52  2.84
390.5  16000.80  446.04  2.79
392.0  16575.33  458.47  2.77
393.4  17166.33  465.94  2.71
394.9  17695.80  480.24  2.71
396.4  18250.50  500.25  2.74
397.9  18825.83  515.92  2.74
399.3  19415.83  530.14  2.73
400.8  20023.08  531.73  2.66
402.2  20687.47  549.92  2.66
403.7  21282.30  561.75  2.64
405.2  21907.27  577.67  2.64
406.6  22504.00  597.01  2.65
408.1  23127.33  617.73  2.67
409.6  23764.53  632.16  2.66
411.0  24467.10  646.19  2.64
412.5  25128.83  666.40  2.65
414.0  25808.33  681.88  2.64
415.4  26539.75  704.90  2.66
416.9  27229.15  727.31  2.67
418.4  27950.25  751.98  2.69
419.8  28683.20  778.96  2.72
421.3  29435.02  805.69  2.74
422.7  30252.80  830.56  2.75
424.2  31072.50  852.75  2.74
425.7  31861.07  882.37  2.77
427.1  32641.70  909.41  2.79
428.6  33459.33  940.33  2.81
430.0  34214.57  969.18  2.83
431.5  35113.55  1002.96  2.86
432.9  36019.47  1029.41  2.86
434.4  36939.40  1058.14  2.86
435.9  37809.33  1090.13  2.88
437.3  38674.17  1120.17  2.90
438.8  39548.50  1154.78  2.92
440.2  40433.98  1185.80  2.93
441.7  41432.80  1222.08  2.95
443.1  42364.67  1252.57  2.96
444.6  43361.00  1285.55  2.96
446.0  44322.60  1325.18  2.99
447.5  45315.05  1363.16  3.01
448.9  46285.20  1403.52  3.03
450.4  47319.30  1440.04  3.04
451.8  48221.33  1476.80  3.06
453.3  49188.15  1507.98  3.07
454.7  50231.88  1547.62  3.08
456.2  51136.67  1585.24  3.10
457.6  52144.20  1628.40  3.12
459.1  53157.87  1662.96  3.13
460.5  54124.17  1694.17  3.13
462.0  55227.08  1733.00  3.14
463.4  56297.87  1770.04  3.14
464.8  57331.50  1807.45  3.15
466.3  58372.05  1845.69  3.16
467.7  59405.88  1884.17  3.17
469.2  60503.73  1923.58  3.18
470.6  61510.90  1959.51  3.19
472.0  62586.83  1993.02  3.18
473.5  63628.42  2034.00  3.20
474.9  64704.50  2076.70  3.21
476.4  65904.00  2125.44  3.23
477.8  67028.67  2165.33  3.23
479.2  68092.00  2202.07  3.23
480.7  69248.40  2244.59  3.24
482.1  70438.93  2288.88  3.25
483.6  71681.63  2342.83  3.27
485.0  72828.55  2393.20  3.29
486.4  74078.90  2444.40  3.30
487.9  75231.00  2494.05  3.32
489.3  76452.20  2548.41  3.33
490.7  77590.93  2607.31  3.36
492.2  78890.00  2671.48  3.39
493.6  80047.60  2736.62  3.42
495.0  81217.50  2806.05  3.45
496.5  82453.93  2880.21  3.49
497.9  83618.15  2958.48  3.54
499.3  84841.07  3046.53  3.59
500.7  86151.77  3144.87  3.65
502.2  87346.93  3248.99  3.72
503.6  88651.20  3371.63  3.80
505.0  89775.20  3500.37  3.90
506.5  91142.05  3656.32  4.01
507.9  92428.93  3828.80  4.14
509.3  93891.20  4029.55  4.29
510.7  95228.25  4241.25  4.45
512.2  96693.00  4494.97  4.65
513.6  98211.40  4783.33  4.87
515.0  99698.28  5103.93  5.12
516.4  101105.55  5458.32  5.40
517.8  102792.33  5859.05  5.70
519.3  104164.38  6273.70  6.02
520.7  105787.13  6736.51  6.37
522.1  107141.67  7207.37  6.73
523.5  108568.27  7698.75  7.09
524.9  110000.40  8195.16  7.45
526.3  111403.83  8678.88  7.79
527.8  112988.70  9159.48  8.11
529.2  114352.53  9633.35  8.42
530.6  116014.23  10109.22  8.71
532.0  117814.67  10565.33  8.97
533.4  119170.40  10945.07  9.18
534.8  120162.35  11251.83  9.36
536.3  122016.80  11616.88  9.52
537.7  124143.60  11990.16  9.66
539.1  125682.13  12290.49  9.78
540.5  126958.80  12543.25  9.88
541.9  128787.10  12856.73  9.98
543.3  130118.43  13115.25  10.08
544.7  131495.20  13374.48  10.17
546.1  133323.12  13677.33  10.26
547.5  134631.47  13914.88  10.34
549.0  136554.00  14201.73  10.40
550.4  138082.50  14433.00  10.45
551.8  139645.70  14631.15  10.48
553.2  141244.90  14803.27  10.48
554.6  142646.40  14909.44  10.45
556.0  144230.70  14995.08  10.40
557.4  145878.48  15042.84  10.31
558.8  147556.50  15053.04  10.20
560.2  149047.25  15007.78  10.07
561.6  150780.25  14953.62  9.92
563.0  152411.25  14850.76  9.74
564.4  154044.07  14713.73  9.55
565.8  155620.83  14539.25  9.34
567.2  157415.83  14357.70  9.12
568.6  158985.25  14128.80  8.89
570.0  160498.40  13873.86  8.64
571.4  162295.03  13638.65  8.40
572.8  164101.17  13404.88  8.17
574.2  165782.40  13183.15  7.95
575.6  167362.50  12969.00  7.75
577.0  168942.53  12779.55  7.56
578.4  170738.75  12633.83  7.40
579.8  172300.95  12492.45  7.25
581.2  174088.00  12386.79  7.12
582.5  175546.80  12274.08  6.99
583.9  177125.87  12190.19  6.88
585.3  178986.30  12142.83  6.78
586.7  180511.28  12087.53  6.70
588.1  182077.08  12052.25  6.62
589.5  183774.50  12039.30  6.55
590.9  185479.20  12041.23  6.49
592.3  187346.40  12069.75  6.44
593.7  188832.15  12088.57  6.40
595.0  190528.20  12129.03  6.37
596.4  192031.23  12155.73  6.33
597.8  193579.73  12182.41  6.29
599.2  195201.60  12203.84  6.25
600.6  197005.68  12216.36  6.20
602.0  198349.90  12184.53  6.14
603.3  200205.77  12166.09  6.08
604.7  201925.05  12121.52  6.00
606.1  203485.60  12042.80  5.92
607.5  205180.23  11956.93  5.83
608.9  206937.77  11861.95  5.73
610.2  208381.95  11738.79  5.63
611.6  210023.60  11631.90  5.54
613.0  211644.33  11525.32  5.45
614.4  213079.90  11418.84  5.36
615.8  214587.75  11323.65  5.28
617.1  216178.20  11252.36  5.21
618.5  217875.73  11198.67  5.14
619.9  219447.25  11155.94  5.08
621.3  221140.20  11145.45  5.04
622.6  222812.67  11150.80  5.00
624.0  224334.00  11165.20  4.98
625.4  225887.20  11198.22  4.96
626.8  227557.63  11247.30  4.94
628.1  228988.83  11290.44  4.93
629.5  230975.43  11373.61  4.92
630.9  232725.17  11445.02  4.92
632.2  234221.05  11497.73  4.91
633.6  235948.25  11546.82  4.89
635.0  237577.87  11569.87  4.87
636.3  239189.80  11561.01  4.83
637.7  240655.33  11506.88  4.78
639.1  242398.33  11442.67  4.72
640.4  243950.35  11349.71  4.65
641.8  245248.23  11227.37  4.58
643.2  246906.45  11115.42  4.50
644.5  248346.00  10988.93  4.42
645.9  250157.40  10883.04  4.35
647.2  252400.40  10809.17  4.28
648.6  254542.50  10751.40  4.22
650.0  256147.20  10687.68  4.17
651.3  256492.13  10606.02  4.14
652.7  257207.27  10535.39  4.10
654.0  259319.60  10521.79  4.06
655.4  260940.77  10464.35  4.01
656.8  261277.00  10354.23  3.96
658.1  262517.93  10275.53  3.91
659.5  265045.55  10252.06  3.87
660.8  267105.00  10221.00  3.83
662.2  268053.33  10139.73  3.78
663.5  269727.93  10109.26  3.75
664.9  271211.20  10089.39  3.72
666.2  272038.80  10064.00  3.70
667.6  273853.33  10087.92  3.68
668.9  275180.42  10133.25  3.68
670.3  276062.75  10173.17  3.69
671.6  277934.25  10263.05  3.69
673.0  279188.00  10363.35  3.71
674.3  280507.93  10478.35  3.74
675.7  281912.47  10610.72  3.76
677.0  283138.72  10754.07  3.80
678.4  284636.42  10930.27  3.84
679.7  285825.77  11118.22  3.89
681.1  287210.47  11334.78  3.95
682.4  288463.93  11577.45  4.01
683.8  289878.33  11857.39  4.09
685.1  290958.50  12174.65  4.18
686.4  292344.40  12580.00  4.30
687.8  293714.83  13080.03  4.45
689.1  294871.83  13717.87  4.65
690.5  296331.20  14563.26  4.91
691.8  297209.40  15630.61  5.26
693.1  298647.80  17059.98  5.71
694.5  299936.00  18864.30  6.29
695.8  301270.67  21087.73  7.00
697.1  302514.33  23760.10  7.85
698.5  303680.60  26916.15  8.86
699.8  304888.05  30553.81  10.02
701.1  306127.62  34665.54  11.32
702.5  306995.70  39143.79  12.75
703.8  308025.00  43980.00  14.28
705.1  309300.55  49134.67  15.89
706.5  310445.67  54478.65  17.55
707.8  311514.30  59975.48  19.25
709.1  312475.58  65549.18  20.98
710.5  313740.67  71240.56  22.71
711.8  314697.60  76893.37  24.43
713.1  315812.60  82566.49  26.14
714.4  316823.53  88159.33  27.83
715.8  317730.40  93657.03  29.48
717.1  319172.90  99204.20  31.08
718.4  320230.40  104518.40  32.64
719.7  321482.40  109752.92  34.14
721.0  322110.00  114624.00  35.59
722.4  322961.10  119397.74  36.97
723.7  324046.00  124058.58  38.28
725.0  325194.75  128562.90  39.53
726.3  326260.55  132811.07  40.71
727.6  326899.65  136676.10  41.81
729.0  327949.77  140487.46  42.84
730.3  328843.05  144016.77  43.79
731.6  329856.63  147406.85  44.69
732.9  330784.30  150555.11  45.51
734.2  331706.83  153530.12  46.28
735.5  332863.07  156416.16  46.99
736.8  333759.20  159001.72  47.64
738.1  334711.53  161462.03  48.24
739.5  335790.75  163822.69  48.79
740.8  336596.52  165914.39  49.29
742.1  337501.57  167921.65  49.75
743.4  338400.00  169810.00  50.18
744.7  339560.40  171713.64  50.57
746.0  340568.80  173427.80  50.92
747.3  341218.20  174842.85  51.24
748.6  342063.00  176267.33  51.53
749.9  342992.00  177607.73  51.78
751.2  343889.93  178869.49  52.01
752.5  344935.93  180142.12  52.22
753.8  345702.35  181186.48  52.41
755.1  346528.00  182208.00  52.58
756.4  347216.48  183085.65  52.73
757.7  348344.62  184124.27  52.86
759.0  350331.03  185575.09  52.97
760.3  351683.20  186633.92  53.07
761.6  353460.80  187881.12  53.15
762.9  354134.33  188523.30  53.23
764.2  354631.67  189024.51  53.30
765.5  355054.45  189452.46  53.36
766.8  355649.07  189946.67  53.41
768.1  356327.87  190470.19  53.45
769.3  357090.53  190998.83  53.49
770.6  357909.07  191561.85  53.52
771.9  358799.23  192145.99  53.55
773.2  359316.80  192529.28  53.58
774.5  360093.07  193042.37  53.61
775.8  360971.20  193571.96  53.63
777.1  361693.20  194041.83  53.65
778.4  362202.13  194361.93  53.66
779.6  363140.42  194932.59  53.68
780.9  363760.00  195332.00  53.70
782.2  364371.33  195709.43  53.71
783.5  364841.00  196017.40  53.73
784.8  365543.40  196429.23  53.74
786.0  366074.80  196764.17  53.75
787.3  366641.78  197113.24  53.76
788.6  367218.07  197459.27  53.77
789.9  367831.33  197832.51  53.78
791.2  368640.42  198316.60  53.80
792.4  369495.87  198795.28  53.80
793.7  370138.80  199166.43  53.81
795.0  370924.95  199626.13  53.82
796.2  371774.77  200097.60  53.82
797.5  372668.70  200622.53  53.83
798.8  373525.90  201097.18  53.84
800.0  374349.67  201578.02  53.85
801.3  374958.67  201948.21  53.86
802.6  375698.70  202382.43  53.87
803.8  376483.62  202831.76  53.88
805.1  377127.92  203200.08  53.88
806.4  377748.80  203545.44  53.88
807.7  378414.45  203943.15  53.89
808.9  379113.33  204342.09  53.90
810.2  379811.83  204721.35  53.90
811.4  380442.07  205087.44  53.91
812.7  381170.83  205513.75  53.92
814.0  382118.90  206068.23  53.93
815.2  382875.33  206506.63  53.94
816.5  383406.07  206820.57  53.94
817.7  383993.13  207148.33  53.95
819.0  384619.40  207488.23  53.95
820.2  384853.33  207627.20  53.95
821.5  385627.17  208104.72  53.97
822.7  386105.20  208367.62  53.97
824.0  386478.00  208612.44  53.98
825.2  387100.35  208960.29  53.98
826.5  387497.42  209188.72  53.98
827.7  388138.05  209523.47  53.98
829.0  388598.12  209777.37  53.98
830.2  388973.70  209964.70  53.98
831.5  389498.33  210275.61  53.99
832.7  389881.80  210490.00  53.99
834.0  390247.88  210693.17  53.99
835.2  390645.93  210933.40  54.00
836.4  390984.37  211137.96  54.00
837.7  391432.40  211387.23  54.00
838.9  391913.70  211656.90  54.01
840.1  392361.75  211938.84  54.02
841.4  392875.53  212237.00  54.02
842.6  393271.20  212480.51  54.03
843.8  393635.73  212710.19  54.04
845.1  394163.13  213019.02  54.04
846.3  394536.47  213258.84  54.05
847.5  394956.80  213499.16  54.06
848.8  395437.60  213753.84  54.06
850.0  395739.17  213978.99  54.07
851.2  396351.00  214317.18  54.07
852.5  396773.87  214556.24  54.08
853.7  397242.00  214855.20  54.09
854.9  397701.67  215115.84  54.09
856.1  398129.33  215391.54  54.10
857.4  398358.83  215475.50  54.09
858.6  398856.50  215762.37  54.10
859.8  399276.25  216006.00  54.10
861.0  399812.40  216300.24  54.10
862.2  400247.02  216551.31  54.10
863.5  400591.97  216758.27  54.11
864.7  401187.60  217054.64  54.10
865.9  401595.87  217293.36  54.11
867.1  401893.00  217477.01  54.11
868.3  402393.60  217723.68  54.11
869.5  402861.47  218013.21  54.12
870.8  403410.00  218341.20  54.12
872.0  404048.90  218613.24  54.11
873.2  404504.40  218861.68  54.11
874.4  404931.15  219108.24  54.11
875.6  405257.00  219317.43  54.12
876.8  405777.03  219636.83  54.13
878.0  406344.83  219932.44  54.12
879.2  406913.50  220201.64  54.12
880.4  407476.75  220513.55  54.12
881.6  408046.18  220774.58  54.11
882.8  408483.20  220996.37  54.10
884.0  409211.17  221331.87  54.09
885.2  409734.40  221647.13  54.10
886.5  410427.77  222030.23  54.10
887.7  410994.13  222313.74  54.09
888.8  411711.10  222686.66  54.09
890.0  412388.63  223026.38  54.08
891.2  413029.60  223355.81  54.08
892.4  413738.85  223688.85  54.07
893.6  414433.47  224020.17  54.05
894.8  415437.50  224564.33  54.05
896.0  416453.00  225085.77  54.05
897.2  417373.67  225545.67  54.04
898.4  418270.60  226014.80  54.04
899.6  418962.50  226350.55  54.03
900.8  419450.93  226607.52  54.02
902.0  419814.40  226748.26  54.01
903.2  420281.15  226918.54  53.99
904.3  420655.40  227173.00  54.00
905.5  421391.75  227529.19  53.99
906.7  422220.00  227938.27  53.99
907.9  422830.80  228242.65  53.98
909.1  423348.30  228458.61  53.96
910.2  423724.65  228607.62  53.95
911.4  424054.80  228800.91  53.96
912.6  424371.57  228902.96  53.94
913.8  424797.65  229083.49  53.93
915.0  425329.80  229324.90  53.92
916.2  425711.00  229485.10  53.91
917.3  425851.80  229524.87  53.90
918.5  426294.33  229704.56  53.88
919.7  426660.50  229826.62  53.87
920.8  426921.57  229884.94  53.85
922.0  427157.50  229955.37  53.83
923.2  427518.00  230084.40  53.82
924.4  427947.75  230256.00  53.80
925.5  428476.20  230410.01  53.77
926.7  429308.08  230704.45  53.74
927.9  430329.60  231205.76  53.73
929.0  431934.30  232006.50  53.71
930.2  434389.40  233195.36  53.68
931.4  437099.85  234556.83  53.66
932.5  440218.60  236014.78  53.61
933.7  441861.33  236799.44  53.59
934.9  442890.00  237157.67  53.55
936.0  442590.42  236887.08  53.52
937.2  440758.80  235711.10  53.48
938.3  439158.77  234745.46  53.45
939.5  437551.20  233789.28  53.43
940.7  438001.20  233806.92  53.38
941.8  439848.95  234578.31  53.33
943.0  441672.00  235367.20  53.29
944.2  442621.83  235764.62  53.27
945.3  442377.00  235440.40  53.22
946.5  441728.10  234887.76  53.17
947.6  442169.73  234866.12  53.12
948.8  442247.65  234589.16  53.04
949.9  442570.80  234458.56  52.98
951.1  442625.52  234079.52  52.88
952.2  442408.00  233784.00  52.84
953.4  442271.50  233391.13  52.77
954.5  442540.80  233120.16  52.68
955.7  442680.00  232821.12  52.59
956.8  442772.80  232455.72  52.50
958.0  442557.00  232072.93  52.44
959.1  442571.48  231774.43  52.37
960.3  442318.58  231508.17  52.34
961.4  442517.67  231328.85  52.28
962.6  442898.17  231374.73  52.24
963.7  443056.95  231292.41  52.20
964.9  442975.45  231244.23  52.20
966.0  443026.80  231148.89  52.17
967.2  443243.70  231184.08  52.16
968.3  443205.00  231081.66  52.14
969.5  443219.57  231078.06  52.14
970.6  443481.60  231095.49  52.11
971.8  443947.47  231235.95  52.09
972.9  444192.10  231337.91  52.08
974.0  444527.60  231606.27  52.10
975.2  444599.58  231646.62  52.10
976.3  444571.00  231654.95  52.11
977.5  444733.80  231644.79  52.09
978.6  445177.93  231791.27  52.07
979.7  445678.10  232013.11  52.06
980.9  445814.52  232136.19  52.07
982.0  446033.53  232231.81  52.07
983.2  445526.60  232232.44  52.13
984.3  445553.47  232311.36  52.14
985.4  445888.47  232510.01  52.15
986.6  446673.58  232630.55  52.08
987.7  448295.98  233496.55  52.09
988.9  448569.60  233660.64  52.09
990.0  449718.60  234319.40  52.10
993.1  361194.75  186796.53  51.72
996.9  362985.70  188286.70  51.87
1000.7  364729.40  189749.53  52.02
1004.5  365654.17  190741.59  52.16
1008.4  365682.75  191183.57  52.28
1012.2  365903.75  191752.76  52.41
1016.0  366343.20  192418.27  52.52
1019.8  367018.58  193150.65  52.63
1023.7  367730.63  193856.62  52.72
1027.5  368270.65  194447.80  52.80
1031.3  369302.68  195225.34  52.86
1035.1  369804.11  195674.59  52.91
1038.9  370139.18  196010.30  52.96
1042.7  370101.08  196164.06  53.00
1046.5  370013.17  196245.26  53.04
1050.3  370191.41  196436.96  53.06
1054.2  369979.75  196423.89  53.09
1058.0  369501.88  196222.11  53.10
1061.8  369377.37  196205.48  53.12
1065.6  369259.83  196151.04  53.12
1069.4  369786.87  196416.35  53.12
1073.2  369987.71  196489.75  53.11
1077.0  369817.93  196330.14  53.09
1080.8  369115.63  195864.12  53.06
1084.6  367495.10  194904.21  53.04
1088.4  366322.38  194169.62  53.01
1092.2  365274.00  193472.50  52.97
1096.0  364757.29  193015.60  52.92
1099.8  364413.62  192602.99  52.85
1103.6  363908.48  192150.75  52.80
1107.4  363134.52  191514.00  52.74
1111.2  363036.20  191191.56  52.66
1114.9  362393.50  190551.93  52.58
1118.7  361684.13  189812.70  52.48
1122.5  360846.20  188902.52  52.35
1126.3  359647.58  187674.67  52.18
1130.1  359111.41  186536.30  51.94
1133.9  357575.40  184592.18  51.62
1137.7  356253.40  182458.58  51.22
1141.4  354645.42  179916.99  50.73
1145.2  354074.25  177735.98  50.20
1149.0  353082.92  175420.33  49.68
1152.8  351556.00  173126.60  49.25
1156.6  349998.37  171214.35  48.92
1160.3  348356.00  169657.41  48.70
1164.1  345906.60  168033.93  48.58
1167.9  344065.63  166920.37  48.51
1171.7  342798.75  166188.75  48.48
1175.4  341775.17  165637.21  48.46
1179.2  340974.30  165167.07  48.44
1183.0  340800.00  164956.67  48.40
1186.7  340067.00  164490.10  48.37
1190.5  338623.07  163693.93  48.34
1194.3  337277.10  162973.63  48.32
1198.0  336212.25  162458.20  48.32
1201.8  334901.70  161889.68  48.34
1205.6  333615.33  161390.59  48.38
1209.3  332517.72  161059.25  48.44
1213.1  331324.05  160722.53  48.51
1216.8  330135.94  160464.96  48.61
1220.6  329026.13  160255.82  48.71
1224.3  327760.00  159965.98  48.81
1228.1  326696.00  159812.89  48.92
1231.9  325631.90  159585.93  49.01
1235.6  324354.75  159217.67  49.09
1239.4  323162.38  158871.25  49.16
1243.1  322019.69  158507.56  49.22
1246.9  320901.00  158089.63  49.26
1250.6  319984.47  157749.57  49.30
1254.3  318998.44  157341.82  49.32
1258.1  318121.77  156960.59  49.34
1261.8  316985.07  156392.65  49.34
1265.6  315520.37  155631.36  49.33
1269.3  313738.73  154683.22  49.30
1273.1  313449.08  154420.60  49.26
1276.8  313912.40  154473.42  49.21
1280.6  314338.20  154457.69  49.14
1284.3  313387.60  153726.31  49.05
1288.0  311937.45  152711.37  48.96
1291.8  310232.08  151477.00  48.83
1295.5  308453.20  150143.97  48.68
1299.2  307078.56  148933.82  48.50
1302.9  305689.21  147627.09  48.29
1306.7  304250.80  146208.38  48.06
1310.4  302897.02  144701.37  47.77
1314.1  301639.98  143134.73  47.45
1317.9  300547.08  141488.19  47.08
1321.6  299245.45  139618.17  46.66
1325.3  297648.75  137498.67  46.19
1329.0  296343.83  135389.96  45.69
1332.8  294170.80  132799.33  45.14
1336.5  292249.80  130285.73  44.58
1340.2  291791.50  128407.74  44.01
1343.9  291193.96  126472.50  43.43
1347.6  290290.05  124434.30  42.87
