/*** Spectra Vista SIG Data ***/
name= 40_20220825_CECA_12_avg.sig
comm= Averaged Ref/Tar of files: HR.082522.0038_moc.sig,HR.082522.0039_moc.sig,HR.082522.0040_moc.sig
data=
337.3  3374.50  284.52  8.43
338.8  3511.30  275.77  7.85
340.3  3654.30  281.10  7.69
341.8  3840.90  280.45  7.30
343.2  4040.40  278.24  6.89
344.7  4179.70  278.65  6.67
346.2  4370.95  255.99  5.86
347.7  4561.70  251.68  5.52
349.2  4762.80  252.00  5.29
350.6  5031.33  254.63  5.06
352.1  5323.03  266.75  5.01
353.6  5586.70  263.72  4.72
355.1  5926.80  264.91  4.47
356.6  6194.48  279.68  4.51
358.0  6475.70  272.21  4.20
359.5  6736.20  280.16  4.16
361.0  7062.30  279.30  3.95
362.5  7465.13  292.75  3.92
364.0  7828.28  298.22  3.81
365.4  8205.20  310.97  3.79
366.9  8591.38  313.08  3.64
368.4  8918.93  330.94  3.71
369.9  9296.60  338.71  3.64
371.3  9745.50  352.44  3.62
372.8  10195.20  364.62  3.58
374.3  10642.50  365.50  3.43
375.8  11103.40  370.11  3.33
377.2  11513.20  380.19  3.30
378.7  11916.70  394.53  3.31
380.2  12347.10  398.12  3.22
381.7  12890.93  407.18  3.16
383.1  13367.20  413.23  3.09
384.6  13919.10  420.81  3.02
386.1  14404.33  425.19  2.95
387.6  14876.40  438.39  2.95
389.0  15356.40  457.39  2.98
390.5  15876.90  463.74  2.92
392.0  16451.90  472.57  2.87
393.4  17052.48  479.96  2.81
394.9  17617.50  497.64  2.82
396.4  18190.13  503.70  2.77
397.9  18757.50  519.33  2.77
399.3  19348.30  526.76  2.72
400.8  19915.08  545.03  2.74
402.2  20597.45  559.74  2.72
403.7  21210.08  561.75  2.65
405.2  21852.03  574.51  2.63
406.6  22457.60  584.64  2.60
408.1  23074.60  602.67  2.61
409.6  23706.00  614.60  2.59
411.0  24381.70  631.96  2.59
412.5  25073.30  649.74  2.59
414.0  25754.00  662.87  2.57
415.4  26473.50  686.35  2.59
416.9  27177.75  704.18  2.59
418.4  27900.45  722.10  2.59
419.8  28646.80  749.84  2.62
421.3  29393.43  774.79  2.64
422.7  30189.00  802.72  2.66
424.2  30999.38  828.00  2.67
425.7  31785.00  860.64  2.71
427.1  32583.68  894.64  2.75
428.6  33402.50  930.00  2.78
430.0  34174.10  961.08  2.81
431.5  35073.75  996.99  2.84
432.9  35980.40  1029.41  2.86
434.4  36915.53  1069.60  2.90
435.9  37772.00  1105.07  2.93
437.3  38637.50  1138.50  2.95
438.8  39516.83  1176.50  2.98
440.2  40425.00  1209.16  2.99
441.7  41419.40  1245.31  3.01
443.1  42360.25  1284.37  3.03
444.6  43361.00  1316.99  3.04
446.0  44335.58  1359.78  3.07
447.5  45327.98  1394.18  3.08
448.9  46311.00  1434.48  3.10
450.4  47358.15  1474.57  3.11
451.8  48256.00  1506.27  3.12
453.3  49214.30  1544.59  3.14
454.7  50275.80  1582.76  3.15
456.2  51167.53  1615.21  3.16
457.6  52184.03  1647.87  3.16
459.1  53193.40  1680.73  3.16
460.5  54182.13  1712.00  3.16
462.0  55290.20  1749.23  3.16
463.4  56361.80  1782.83  3.16
464.8  57387.00  1816.70  3.17
466.3  58414.13  1853.17  3.17
467.7  59424.65  1884.17  3.17
469.2  60522.50  1916.08  3.17
470.6  61553.05  1946.39  3.16
472.0  62633.75  1976.13  3.16
473.5  63675.50  2013.28  3.16
474.9  64766.25  2048.20  3.16
476.4  65952.00  2088.96  3.17
477.8  67062.50  2128.60  3.17
479.2  68121.00  2161.47  3.17
480.7  69262.88  2198.27  3.17
482.1  70458.20  2236.86  3.17
483.6  71700.90  2275.39  3.17
485.0  72852.68  2314.07  3.18
486.4  74088.60  2362.92  3.19
487.9  75231.00  2408.25  3.20
489.3  76437.48  2458.09  3.22
490.7  77556.58  2505.21  3.23
492.2  78836.10  2557.80  3.24
493.6  79989.00  2611.61  3.26
495.0  81154.13  2671.50  3.29
496.5  82385.45  2739.33  3.33
497.9  83530.10  2805.86  3.36
499.3  84748.13  2884.13  3.40
500.7  86054.10  2969.07  3.45
502.2  87264.20  3058.21  3.50
503.6  88578.20  3163.33  3.57
505.0  89701.95  3271.83  3.65
506.5  91043.55  3408.10  3.74
507.9  92285.63  3554.05  3.85
509.3  93698.80  3727.63  3.98
510.7  94989.38  3913.65  4.12
512.2  96446.93  4135.99  4.29
513.6  97996.15  4379.62  4.47
515.0  99461.20  4654.42  4.68
516.4  100897.65  4961.25  4.92
517.8  102575.75  5312.88  5.18
519.3  103943.88  5686.30  5.47
520.7  105571.70  6097.70  5.78
522.1  106908.75  6519.80  6.10
523.5  108308.80  6961.12  6.43
524.9  109744.65  7408.38  6.75
526.3  111169.45  7850.41  7.06
527.8  112741.20  8300.16  7.36
529.2  114044.60  8731.40  7.66
530.6  115628.90  9167.08  7.93
532.0  117404.00  9589.07  8.17
533.4  118754.10  9947.76  8.38
534.8  119673.03  10236.15  8.55
536.3  121401.90  10562.52  8.70
537.7  123467.40  10899.84  8.83
539.1  124987.83  11171.38  8.94
540.5  126235.80  11407.33  9.04
541.9  128076.68  11683.94  9.12
543.3  129385.35  11911.45  9.21
544.7  130792.20  12140.24  9.28
546.1  132639.10  12411.52  9.36
547.5  133896.00  12617.17  9.42
549.0  135718.00  12865.60  9.48
550.4  137232.50  13060.25  9.52
551.8  138824.75  13233.43  9.53
553.2  140396.43  13370.29  9.52
554.6  141783.20  13445.12  9.48
556.0  143368.20  13496.40  9.41
557.4  145024.95  13514.74  9.32
558.8  146711.25  13500.54  9.20
560.2  148217.25  13433.55  9.06
561.6  149932.35  13353.73  8.91
563.0  151573.25  13234.81  8.73
564.4  153207.10  13090.44  8.54
565.8  154774.38  12908.67  8.34
567.2  156584.50  12722.27  8.12
568.6  158122.50  12487.40  7.90
570.0  159598.45  12226.15  7.66
571.4  161374.20  11979.67  7.42
572.8  163192.63  11745.03  7.20
574.2  164875.20  11512.11  6.98
575.6  166477.50  11293.50  6.78
577.0  168053.60  11099.61  6.60
578.4  169828.75  10942.75  6.44
579.8  171379.13  10794.15  6.30
581.2  173150.43  10676.78  6.17
582.5  174610.80  10562.76  6.05
583.9  176185.80  10472.11  5.94
585.3  178040.25  10409.73  5.85
586.7  179581.35  10344.71  5.76
588.1  181111.13  10294.93  5.68
589.5  182794.50  10267.13  5.62
590.9  184474.80  10255.63  5.56
592.3  186329.85  10270.92  5.51
593.7  187818.15  10278.58  5.47
595.0  189502.20  10301.04  5.44
596.4  190986.60  10315.11  5.40
597.8  192503.23  10320.53  5.36
599.2  194106.00  10329.44  5.32
600.6  195904.15  10333.09  5.27
602.0  197226.68  10299.66  5.22
603.3  199076.60  10272.71  5.16
604.7  200803.70  10217.96  5.09
606.1  202335.60  10138.40  5.01
607.5  204015.18  10051.99  4.93
608.9  205776.30  9953.02  4.84
610.2  207181.80  9835.56  4.75
611.6  208829.85  9725.72  4.66
613.0  210420.90  9617.92  4.57
614.4  211833.45  9507.94  4.49
615.8  213334.88  9416.55  4.41
617.1  214914.00  9335.48  4.34
618.5  216598.00  9278.61  4.28
619.9  218173.65  9231.61  4.23
621.3  219838.73  9201.78  4.19
622.6  221506.25  9190.67  4.15
624.0  223036.20  9191.72  4.12
625.4  224575.73  9206.45  4.10
626.8  226214.63  9242.87  4.09
628.1  227571.85  9272.05  4.07
629.5  229482.68  9324.51  4.06
630.9  231109.18  9371.63  4.06
632.2  232489.60  9404.15  4.04
633.6  234150.13  9437.02  4.03
635.0  235708.80  9443.95  4.01
636.3  237286.80  9434.27  3.98
637.7  238715.13  9391.77  3.93
639.1  240450.00  9338.00  3.88
640.4  241988.43  9259.34  3.83
641.8  243239.95  9152.54  3.76
643.2  244887.65  9058.16  3.70
644.5  246302.00  8952.23  3.63
645.9  248060.25  8853.54  3.57
647.2  249844.35  8771.96  3.51
648.6  251748.00  8712.90  3.46
650.0  253281.60  8645.76  3.41
651.3  253836.83  8563.94  3.37
652.7  255048.25  8497.77  3.33
654.0  257212.80  8469.95  3.29
655.4  258746.78  8426.75  3.26
656.8  259007.00  8332.41  3.22
658.1  260142.00  8256.75  3.17
659.5  262614.98  8211.28  3.13
660.8  264465.00  8154.00  3.08
662.2  265372.80  8072.96  3.04
663.5  267106.85  8033.07  3.01
664.9  268448.70  8003.15  2.98
666.2  269263.80  7974.24  2.96
667.6  271137.13  7989.37  2.95
668.9  272304.73  8012.89  2.94
670.3  273444.88  8043.07  2.94
671.6  275102.25  8112.50  2.95
673.0  276319.13  8206.90  2.97
674.3  277620.20  8303.71  2.99
675.7  278983.85  8420.88  3.02
677.0  280158.00  8551.57  3.05
678.4  281589.63  8701.34  3.09
679.7  282756.95  8859.92  3.13
681.1  284127.33  9065.47  3.19
682.4  285333.10  9276.11  3.25
683.8  286637.00  9523.63  3.32
685.1  287647.13  9794.00  3.40
686.4  288999.60  10129.12  3.50
687.8  290340.25  10531.67  3.63
689.1  291452.75  11033.03  3.79
690.5  292896.75  11699.48  3.99
691.8  293770.73  12556.03  4.27
693.1  295152.15  13710.80  4.65
694.5  296341.50  15169.70  5.12
695.8  297592.75  17001.83  5.71
697.1  298844.00  19243.47  6.44
698.5  299957.80  21919.12  7.31
699.8  301124.00  25042.27  8.32
701.1  302348.45  28597.71  9.46
702.5  303162.20  32490.04  10.72
703.8  304177.50  36732.00  12.08
705.1  305383.65  41256.02  13.51
706.5  306515.13  45973.17  15.00
707.8  307580.70  50841.78  16.53
709.1  308531.50  55800.59  18.09
710.5  309759.38  60881.76  19.65
711.8  310661.30  65954.48  21.23
713.1  311687.10  71071.59  22.80
714.4  312668.30  76153.01  24.36
715.8  313560.30  81183.89  25.89
717.1  314978.55  86291.86  27.40
718.4  315996.80  91227.73  28.87
719.7  317189.68  96112.09  30.30
721.0  317745.00  100704.00  31.69
722.4  318586.40  105236.34  33.03
723.7  319591.50  109680.36  34.32
725.0  320717.93  114012.84  35.55
726.3  321741.20  118126.98  36.71
727.6  322334.65  121922.02  37.82
729.0  323334.20  125659.57  38.86
730.3  324192.00  129151.83  39.84
731.6  325118.60  132513.69  40.76
732.9  326012.93  135659.11  41.61
734.2  326899.38  138626.22  42.41
735.5  328009.08  141513.85  43.14
736.8  328884.90  144121.28  43.82
738.1  329796.10  146593.04  44.45
739.5  330834.88  148953.46  45.02
740.8  331587.30  151043.38  45.55
742.1  332356.63  153007.10  46.04
743.4  333125.00  154830.00  46.48
744.7  334147.78  156658.99  46.88
746.0  335127.00  158325.96  47.24
747.3  335755.85  159711.63  47.57
748.6  336604.00  161074.83  47.85
749.9  337376.00  162323.20  48.11
751.2  338119.50  163472.37  48.35
752.5  339034.75  164612.51  48.55
753.8  339652.95  165579.73  48.75
755.1  340418.00  166521.33  48.92
756.4  341103.70  167341.34  49.06
757.7  342182.23  168301.96  49.18
759.0  344124.45  169612.81  49.29
760.3  345417.60  170568.64  49.38
761.6  347076.80  171683.49  49.47
762.9  347696.50  172230.77  49.53
764.2  348139.80  172658.55  49.59
765.5  348487.38  173003.24  49.64
766.8  349003.20  173383.68  49.68
768.1  349596.60  173803.68  49.72
769.3  350270.20  174242.93  49.75
770.6  350996.10  174694.95  49.77
771.9  351821.23  175177.12  49.79
773.2  352273.60  175466.56  49.81
774.5  352981.20  175859.49  49.82
775.8  353729.85  176273.50  49.83
777.1  354376.55  176633.45  49.84
778.4  354777.23  176863.87  49.85
779.6  355659.63  177327.46  49.86
780.9  356220.00  177624.00  49.86
782.2  356738.25  177914.37  49.87
783.5  357124.50  178128.13  49.88
784.8  357754.95  178443.87  49.88
786.0  358193.85  178688.86  49.89
787.3  358689.10  178920.69  49.88
788.6  359176.95  179178.99  49.89
789.9  359706.20  179465.63  49.89
791.2  360474.95  179848.75  49.89
792.4  361241.13  180236.95  49.89
793.7  361788.80  180515.87  49.90
795.0  362502.53  180864.53  49.89
796.2  363264.15  181228.22  49.89
797.5  364056.90  181634.90  49.89
798.8  364825.33  182009.92  49.89
800.0  365561.73  182394.38  49.89
801.3  366162.30  182666.00  49.89
802.6  366786.68  182998.47  49.89
803.8  367512.05  183361.97  49.89
805.1  368085.38  183630.07  49.89
806.4  368617.50  183916.32  49.89
807.7  369206.10  184218.30  49.90
808.9  369869.20  184519.13  49.89
810.2  370464.85  184814.51  49.89
811.4  371005.20  185096.25  49.89
812.7  371718.75  185450.42  49.89
814.0  372654.40  185899.24  49.89
815.2  373328.50  186243.97  49.89
816.5  373795.55  186477.84  49.89
817.7  374294.75  186734.59  49.89
819.0  374886.60  187014.59  49.89
820.2  375100.00  187111.47  49.88
821.5  375863.70  187494.28  49.88
822.7  376325.80  187704.11  49.88
824.0  376701.30  187877.88  49.87
825.2  377210.93  188138.16  49.88
826.5  377585.43  188299.48  49.87
827.7  378148.85  188571.76  49.87
829.0  378593.25  188780.14  49.86
830.2  378935.35  188945.15  49.86
831.5  379485.05  189185.86  49.85
832.7  379849.58  189345.94  49.85
834.0  380230.48  189506.61  49.84
835.2  380596.15  189692.29  49.84
836.4  380865.65  189833.53  49.84
837.7  381351.20  190054.11  49.84
838.9  381779.90  190287.80  49.84
840.1  382202.55  190477.53  49.84
841.4  382709.40  190713.63  49.83
842.6  383040.60  190909.55  49.84
843.8  383419.80  191098.51  49.84
845.1  383935.15  191344.40  49.84
846.3  384339.50  191526.68  49.83
847.5  384766.20  191737.56  49.83
848.8  385137.60  191967.28  49.84
850.0  385548.10  192151.73  49.84
851.2  386093.25  192456.54  49.85
852.5  386507.30  192634.23  49.84
853.7  386997.75  192870.30  49.84
854.9  387412.10  193100.13  49.84
856.1  387908.30  193324.82  49.84
857.4  388094.65  193418.81  49.84
858.6  388627.65  193657.07  49.83
859.8  389055.00  193870.75  49.83
861.0  389539.80  194088.96  49.83
862.2  389988.53  194338.00  49.83
863.5  390297.05  194502.10  49.83
864.7  390878.40  194761.60  49.83
865.9  391295.40  194969.97  49.83
867.1  391660.30  195093.59  49.81
868.3  392139.15  195328.56  49.81
869.5  392623.50  195550.21  49.81
870.8  393210.00  195840.00  49.81
872.0  393738.90  196075.58  49.80
873.2  394188.60  196281.54  49.79
874.4  394559.10  196521.39  49.81
875.6  395045.80  196714.51  49.80
876.8  395588.25  196936.55  49.78
878.0  396084.15  197168.42  49.78
879.2  396637.35  197423.30  49.77
880.4  397218.75  197656.05  49.76
881.6  397756.23  197882.95  49.75
882.8  398211.20  198078.40  49.74
884.0  398764.45  198383.73  49.75
885.2  399298.10  198646.35  49.75
886.5  400002.70  198941.07  49.73
887.7  400521.23  199159.31  49.73
888.8  401336.18  199478.47  49.70
890.0  401880.15  199741.31  49.70
891.2  402535.20  199993.28  49.68
892.4  403286.10  200300.03  49.67
893.6  403899.20  200600.70  49.67
894.8  404880.50  201052.20  49.66
896.0  405734.00  201477.50  49.66
897.2  406627.00  201876.13  49.65
898.4  407460.90  202226.64  49.63
899.6  408124.88  202500.85  49.62
900.8  408627.30  202683.08  49.60
902.0  408869.85  202791.46  49.60
903.2  409247.78  202941.75  49.59
904.3  409572.00  203127.16  49.59
905.5  410214.25  203415.60  49.59
906.7  410870.00  203649.27  49.57
907.9  411546.10  203922.97  49.55
909.1  411982.20  204091.56  49.54
910.2  412237.43  204148.91  49.52
911.4  412422.08  204240.27  49.52
912.6  412662.25  204333.65  49.52
913.8  413050.20  204422.06  49.49
915.0  413459.55  204618.12  49.49
916.2  413838.75  204726.60  49.47
917.3  413946.45  204720.63  49.46
918.5  414238.40  204777.40  49.43
919.7  414514.05  204867.20  49.42
920.8  414638.93  204858.50  49.41
922.0  414760.50  204909.83  49.40
923.2  415096.50  205004.80  49.39
924.4  415540.13  205016.40  49.34
925.5  415849.20  205118.60  49.33
926.7  416589.25  205342.72  49.29
927.9  417460.20  205736.88  49.28
929.0  419083.20  206363.16  49.24
930.2  421480.80  207438.20  49.22
931.4  423973.58  208610.73  49.20
932.5  426911.85  209881.37  49.16
933.7  428424.93  210521.43  49.14
934.9  429130.63  210739.67  49.11
936.0  428858.63  210473.90  49.08
937.2  426695.55  209305.28  49.05
938.3  425062.45  208313.47  49.01
939.5  423507.60  207439.20  48.98
940.7  423905.40  207426.00  48.93
941.8  425581.05  208077.44  48.89
943.0  426973.50  208694.80  48.88
944.2  427948.95  208927.25  48.82
945.3  427557.00  208591.50  48.79
946.5  427091.40  208016.28  48.71
947.6  427358.70  207913.85  48.65
948.8  427243.05  207606.75  48.59
949.9  427568.40  207427.92  48.51
951.1  427118.25  207022.01  48.47
952.2  426972.00  206692.80  48.41
953.4  426935.00  206255.20  48.31
954.5  426886.20  205882.56  48.23
955.7  426900.60  205546.32  48.15
956.8  426866.10  205145.59  48.06
958.0  426609.00  204725.07  47.99
959.1  426620.25  204386.46  47.91
960.3  426143.68  204033.82  47.88
961.4  426177.35  203870.86  47.84
962.6  426515.25  203851.43  47.79
963.7  426374.85  203587.04  47.75
964.9  426240.45  203464.13  47.73
966.0  426138.98  203305.41  47.71
967.2  426338.10  203184.18  47.66
968.3  426290.85  203186.88  47.66
969.5  426351.88  203157.83  47.65
970.6  426735.55  203185.41  47.61
971.8  426980.05  203289.61  47.61
972.9  426811.58  203237.66  47.62
974.0  427254.90  203231.24  47.57
975.2  427429.63  203265.02  47.56
976.3  427361.80  203211.97  47.55
977.5  427715.93  203357.30  47.54
978.6  427706.90  203304.15  47.53
979.7  428122.80  203358.33  47.50
980.9  428378.75  203397.24  47.48
982.0  428595.35  203306.82  47.44
983.2  428666.08  203280.03  47.42
984.3  427970.60  203308.69  47.51
985.4  428145.50  203195.54  47.46
986.6  428045.13  203234.43  47.48
987.7  429164.05  203755.09  47.48
988.9  429496.20  203694.72  47.43
990.0  430070.70  204144.11  47.47
993.1  369457.38  174852.88  47.33
996.9  370542.13  175818.10  47.45
1000.7  371918.05  176896.64  47.56
1004.5  372736.92  177644.58  47.66
1008.4  372697.13  178009.25  47.76
1012.2  372927.58  178450.11  47.85
1016.0  373219.80  178891.71  47.93
1019.8  373729.13  179388.83  48.00
1023.7  374104.83  179783.88  48.06
1027.5  374119.63  180031.81  48.12
1031.3  374691.70  180471.04  48.17
1035.1  374718.23  180658.70  48.21
1038.9  374831.97  180857.34  48.25
1042.7  374704.25  180945.20  48.29
1046.5  374613.00  180983.45  48.31
1050.3  374728.61  181096.39  48.33
1054.2  374493.58  181048.00  48.34
1058.0  373999.85  180821.74  48.35
1061.8  373876.12  180798.34  48.36
1065.6  373704.77  180693.40  48.35
1069.4  373832.93  180722.91  48.34
1073.2  373665.34  180547.22  48.32
1077.0  373330.85  180265.81  48.29
1080.8  372801.04  179847.47  48.24
1084.6  371574.35  179089.87  48.20
1088.4  370776.23  178589.90  48.17
1092.2  369837.00  177986.25  48.13
1096.0  369264.39  177522.78  48.07
1099.8  368841.42  177083.62  48.01
1103.6  368223.05  176561.03  47.95
1107.4  367353.78  175876.80  47.88
1111.2  367191.20  175515.12  47.80
1114.9  366533.42  174887.00  47.71
1118.7  365876.78  174173.88  47.60
1122.5  365171.73  173316.87  47.46
1126.3  364019.54  172186.18  47.30
1130.1  363492.43  171116.03  47.08
1133.9  361926.60  169230.60  46.76
1137.7  360519.60  167160.14  46.37
1141.4  358759.81  164655.00  45.90
1145.2  358108.64  162467.49  45.37
1149.0  357049.58  160203.75  44.87
1152.8  355459.45  157919.63  44.43
1156.6  353802.17  156018.50  44.10
1160.3  352030.33  154474.95  43.88
1164.1  349565.83  152919.26  43.75
1167.9  347707.29  151865.03  43.68
1171.7  346437.00  151162.88  43.63
1175.4  345313.60  150582.60  43.61
1179.2  344347.50  150040.47  43.57
1183.0  344089.67  149772.81  43.53
1186.7  343507.73  149368.90  43.48
1190.5  342345.73  148737.15  43.45
1194.3  341077.60  148101.04  43.42
1198.0  339887.08  147553.84  43.41
1201.8  338483.18  146956.32  43.42
1205.6  337233.33  146532.19  43.45
1209.3  336216.52  146322.77  43.52
1213.1  335138.85  146132.85  43.60
1216.8  334061.38  146009.04  43.71
1220.6  332906.93  145845.33  43.81
1224.3  331616.00  145612.77  43.91
1228.1  330362.60  145389.14  44.01
1231.9  329170.55  145133.57  44.09
1235.6  327724.43  144715.84  44.16
1239.4  326403.13  144354.39  44.23
1243.1  325164.67  143959.46  44.27
1246.9  323957.20  143532.25  44.31
1250.6  322997.27  143177.17  44.33
1254.3  321952.95  142759.11  44.34
1258.1  320975.67  142340.15  44.35
1261.8  319727.33  141764.46  44.34
1265.6  318286.88  141053.07  44.32
1269.3  316751.38  140262.31  44.28
1273.1  316637.88  140062.82  44.23
1276.8  316995.60  140025.54  44.17
1280.6  317005.97  139815.76  44.11
1284.3  315814.80  138997.03  44.01
1288.0  314357.46  138003.12  43.90
1291.8  312928.19  136954.37  43.77
1295.5  311421.73  135831.14  43.62
1299.2  310101.14  134729.95  43.45
1302.9  308654.79  133489.16  43.25
1306.7  307105.87  132100.03  43.01
1310.4  305639.70  130596.63  42.73
1314.1  304272.47  129056.90  42.41
1317.9  303071.67  127424.11  42.04
1321.6  301691.31  125598.19  41.63
1325.3  300054.30  123533.48  41.17
1329.0  298712.75  121500.32  40.67
1332.8  296588.60  119042.00  40.14
1336.5  294753.53  116663.50  39.58
1340.2  294369.83  114874.50  39.02
1343.9  293901.04  113056.58  38.47
1347.6  293287.35  111182.61  37.91
1351.4  293508.00  109684.64  37.37
1355.1  293906.43  108287.72  36.84
