/*** Spectra Vista SIG Data ***/
name= 22_20221020_BENI_49_avg.sig
comm= Averaged Ref/Tar of files: HR.102022.0062_moc.sig,HR.102022.0063_moc.sig,HR.102022.0064_moc.sig
data=
337.3  3076.75  239.15  7.77
338.8  3174.60  231.80  7.30
340.3  3279.50  225.77  6.88
341.8  3475.10  216.00  6.22
343.2  3685.20  230.03  6.24
344.7  3838.50  220.97  5.76
346.2  4044.15  206.20  5.10
347.7  4207.78  203.74  4.84
349.2  4384.80  190.80  4.35
350.6  4627.35  190.27  4.11
352.1  4858.60  193.26  3.98
353.6  5170.30  200.27  3.87
355.1  5421.68  211.03  3.89
356.6  5735.63  205.39  3.58
358.0  5997.20  205.98  3.43
359.5  6272.70  194.23  3.10
361.0  6553.58  206.91  3.16
362.5  6908.90  216.91  3.14
364.0  7283.45  230.49  3.16
365.4  7615.10  233.36  3.06
366.9  7983.63  235.73  2.95
368.4  8291.60  230.67  2.78
369.9  8620.98  243.48  2.82
371.3  9024.60  263.44  2.92
372.8  9451.80  278.65  2.95
374.3  9863.13  286.67  2.91
375.8  10294.90  287.47  2.79
377.2  10679.30  285.91  2.68
378.7  11082.80  294.62  2.66
380.2  11432.50  293.59  2.57
381.7  11918.03  302.17  2.54
383.1  12370.05  312.11  2.52
384.6  12867.08  322.16  2.50
386.1  13323.33  314.00  2.36
387.6  13771.45  320.83  2.33
389.0  14204.00  331.30  2.33
390.5  14655.60  354.51  2.42
392.0  15208.75  359.22  2.36
393.4  15738.73  366.35  2.33
394.9  16260.30  369.87  2.27
396.4  16792.88  381.96  2.27
397.9  17296.88  395.85  2.29
399.3  17828.80  402.79  2.26
400.8  18344.80  416.84  2.27
402.2  18977.15  426.00  2.24
403.7  19548.90  438.39  2.24
405.2  20147.43  450.50  2.24
406.6  20694.40  463.56  2.24
408.1  21266.60  477.40  2.24
409.6  21862.20  492.52  2.25
411.0  22502.90  514.03  2.28
412.5  23136.58  529.55  2.29
414.0  23757.25  540.23  2.27
415.4  24426.38  564.83  2.31
416.9  25096.05  581.19  2.32
418.4  25752.83  601.16  2.33
419.8  26462.80  624.00  2.36
421.3  27147.48  644.42  2.37
422.7  27892.20  672.47  2.41
424.2  28636.88  695.89  2.43
425.7  29372.60  718.75  2.45
427.1  30146.63  740.91  2.46
428.6  30907.00  769.98  2.49
430.0  31624.70  795.17  2.51
431.5  32461.88  820.73  2.53
432.9  33299.45  846.35  2.54
434.4  34150.80  876.96  2.57
435.9  34986.00  900.80  2.57
437.3  35818.75  929.76  2.60
438.8  36652.50  953.09  2.60
440.2  37487.45  982.26  2.62
441.7  38417.80  1008.45  2.62
443.1  39286.25  1039.30  2.65
444.6  40230.10  1072.70  2.67
446.0  41156.70  1105.47  2.69
447.5  42096.73  1140.60  2.71
448.9  43021.50  1173.04  2.73
450.4  43991.15  1208.67  2.75
451.8  44850.00  1236.36  2.76
453.3  45736.35  1266.66  2.77
454.7  46731.73  1299.68  2.78
456.2  47570.33  1332.83  2.80
457.6  48520.13  1361.38  2.81
459.1  49489.05  1394.94  2.82
460.5  50397.00  1423.35  2.82
462.0  51449.10  1457.09  2.83
463.4  52457.30  1490.82  2.84
464.8  53418.75  1524.40  2.85
466.3  54374.93  1556.11  2.86
467.7  55328.83  1584.17  2.86
469.2  56370.38  1615.01  2.86
470.6  57352.10  1649.07  2.88
472.0  58369.03  1683.37  2.88
473.5  59367.38  1718.14  2.89
474.9  60391.50  1751.53  2.90
476.4  61502.40  1789.71  2.91
477.8  62538.50  1826.45  2.92
479.2  63524.50  1862.08  2.93
480.7  64601.93  1898.29  2.94
482.1  65704.15  1936.85  2.95
483.6  66874.60  1978.96  2.96
485.0  67931.18  2011.34  2.96
486.4  69097.95  2058.06  2.98
487.9  70141.50  2104.61  3.00
489.3  71254.28  2152.94  3.02
490.7  72299.75  2197.25  3.04
492.2  73485.30  2252.88  3.07
493.6  74568.50  2308.56  3.10
495.0  75669.75  2371.76  3.13
496.5  76823.63  2439.96  3.18
497.9  77894.90  2514.04  3.23
499.3  79039.55  2593.98  3.28
500.7  80267.35  2688.90  3.35
502.2  81409.60  2789.85  3.43
503.6  82621.40  2908.04  3.52
505.0  83695.45  3033.25  3.62
506.5  84971.03  3188.87  3.75
507.9  86118.43  3357.51  3.90
509.3  87438.40  3552.56  4.06
510.7  88627.50  3765.17  4.25
512.2  89991.08  4017.98  4.46
513.6  91452.55  4301.72  4.70
515.0  92860.80  4616.76  4.97
516.4  94221.23  4963.41  5.27
517.8  95809.88  5358.89  5.59
519.3  97117.50  5770.48  5.94
520.7  98659.10  6226.69  6.31
522.1  99921.25  6685.91  6.69
523.5  101233.70  7175.31  7.09
524.9  102685.95  7677.55  7.48
526.3  104066.20  8181.14  7.86
527.8  105509.25  8693.90  8.24
529.2  106549.90  9174.14  8.61
530.6  108086.00  9699.12  8.97
532.0  109732.00  10216.80  9.31
533.4  111029.93  10681.33  9.62
534.8  111896.73  11084.31  9.91
536.3  113429.70  11532.35  10.17
537.7  115315.20  11997.60  10.40
539.1  116705.43  12401.30  10.63
540.5  117873.10  12776.90  10.84
541.9  119563.35  13199.44  11.04
543.3  120843.00  13575.60  11.23
544.7  122128.20  13946.65  11.42
546.1  123900.98  14364.56  11.59
547.5  125115.20  14713.81  11.76
549.0  126720.00  15088.02  11.91
550.4  128180.00  15435.39  12.04
551.8  129720.63  15759.23  12.15
553.2  131199.38  16039.32  12.23
554.6  132496.00  16251.34  12.27
556.0  133980.75  16436.79  12.27
557.4  135546.60  16588.24  12.24
558.8  137168.55  16708.05  12.18
560.2  138578.88  16766.00  12.10
561.6  140226.68  16813.24  11.99
563.0  141768.65  16812.47  11.86
564.4  143353.40  16785.15  11.71
565.8  144829.38  16715.65  11.54
567.2  146544.00  16642.43  11.36
568.6  148008.75  16504.52  11.15
570.0  149391.70  16311.36  10.92
571.4  151064.55  16121.63  10.67
572.8  152790.75  15927.82  10.42
574.2  154369.60  15722.03  10.18
575.6  155891.25  15531.43  9.96
577.0  157386.40  15350.78  9.75
578.4  159056.63  15209.13  9.56
579.8  160558.20  15069.41  9.39
581.2  162235.20  14964.38  9.22
582.5  163624.50  14854.10  9.08
583.9  165117.40  14769.55  8.94
585.3  166866.53  14720.45  8.82
586.7  168313.93  14663.40  8.71
588.1  169774.25  14620.44  8.61
589.5  171389.75  14607.83  8.52
590.9  172967.60  14611.92  8.45
592.3  174721.10  14647.64  8.38
593.7  176144.48  14673.55  8.33
595.0  177728.85  14725.79  8.29
596.4  179150.30  14762.75  8.24
597.8  180604.98  14799.41  8.19
599.2  182107.20  14834.54  8.15
600.6  183818.38  14871.97  8.09
602.0  185077.05  14856.49  8.03
603.3  186827.40  14846.93  7.95
604.7  188455.18  14797.13  7.85
606.1  189915.60  14699.23  7.74
607.5  191510.53  14587.03  7.62
608.9  193173.45  14456.25  7.48
610.2  194523.53  14284.08  7.34
611.6  196094.93  14121.99  7.20
613.0  197618.20  13952.37  7.06
614.4  198971.25  13773.17  6.92
615.8  200406.38  13612.95  6.79
617.1  201889.80  13469.68  6.67
618.5  203485.20  13356.37  6.56
619.9  204965.03  13263.92  6.47
621.3  206557.65  13204.26  6.39
622.6  208116.75  13180.94  6.33
624.0  209548.35  13172.23  6.29
625.4  210985.50  13184.91  6.25
626.8  212519.13  13230.79  6.23
628.1  213748.15  13279.16  6.21
629.5  215486.00  13366.05  6.20
630.9  216951.08  13439.17  6.19
632.2  218179.68  13483.65  6.18
633.6  219662.38  13516.35  6.15
635.0  221088.80  13499.54  6.11
636.3  222564.50  13429.74  6.03
637.7  223911.63  13302.96  5.94
639.1  225505.00  13142.67  5.83
640.4  226929.33  12928.00  5.70
641.8  228088.70  12675.44  5.56
643.2  229620.48  12422.49  5.41
644.5  230953.75  12149.98  5.26
645.9  232506.90  11887.77  5.11
647.2  233458.93  11619.76  4.98
648.6  234879.75  11412.13  4.86
650.0  236174.40  11227.47  4.75
651.3  237197.40  11067.73  4.67
652.7  239420.35  10952.04  4.57
654.0  241549.20  10838.46  4.49
655.4  242872.60  10680.39  4.40
656.8  243048.90  10468.81  4.31
658.1  244388.20  10277.70  4.21
659.5  246564.15  10085.22  4.09
660.8  247860.00  9852.00  3.97
662.2  248841.60  9605.97  3.86
663.5  250317.15  9375.57  3.75
664.9  251321.20  9164.13  3.65
666.2  252081.00  8971.34  3.56
667.6  253768.28  8851.33  3.49
668.9  254667.65  8749.57  3.44
670.3  256484.63  8701.53  3.39
671.6  257490.75  8664.99  3.37
673.0  258641.25  8667.52  3.35
674.3  259918.10  8703.61  3.35
675.7  261213.48  8760.62  3.35
677.0  262273.70  8837.69  3.37
678.4  263551.15  8959.77  3.40
679.7  264586.33  9102.83  3.44
681.1  265805.08  9301.35  3.50
682.4  266879.60  9551.41  3.58
683.8  268050.90  9894.91  3.69
685.1  269062.13  10348.18  3.85
686.4  270351.60  10972.72  4.06
687.8  271561.25  11815.81  4.35
689.1  272651.50  12927.46  4.74
690.5  273943.95  14404.89  5.26
691.8  274734.40  16291.59  5.93
693.1  276058.20  18706.31  6.78
694.5  277208.75  21623.77  7.80
695.8  278460.00  25033.23  8.99
697.1  279643.00  28901.60  10.34
698.5  280640.10  33179.18  11.82
699.8  281691.53  37807.22  13.42
701.1  282825.28  42722.29  15.11
702.5  283611.35  47769.49  16.84
703.8  284512.50  52936.29  18.61
705.1  285649.65  58181.13  20.37
706.5  286690.88  63385.18  22.11
707.8  287644.50  68546.81  23.83
709.1  288439.00  73583.20  25.51
710.5  289510.60  78617.59  27.16
711.8  290323.70  83488.65  28.76
713.1  291282.60  88312.67  30.32
714.4  292196.90  92998.22  31.83
715.8  292999.70  97558.89  33.30
717.1  294282.45  102158.23  34.71
718.4  295209.60  106498.99  36.08
719.7  296265.45  110751.23  37.38
721.0  296775.00  114639.43  38.63
722.4  297524.70  118453.22  39.81
723.7  298459.05  122188.34  40.94
725.0  299447.33  125769.24  42.00
726.3  300354.18  129138.20  43.00
727.6  300879.15  132158.49  43.92
729.0  301738.85  135148.77  44.79
730.3  302502.45  137919.31  45.59
731.6  303380.75  140559.30  46.33
732.9  304111.15  142986.08  47.02
734.2  304903.50  145261.60  47.64
735.5  305872.05  147496.82  48.22
736.8  306654.30  149489.22  48.75
738.1  307473.50  151371.22  49.23
739.5  308400.48  153176.94  49.67
740.8  309045.83  154740.27  50.07
742.1  309712.28  156206.61  50.44
743.4  310325.00  157560.48  50.77
744.7  311213.35  158956.39  51.08
746.0  312058.50  160255.46  51.35
747.3  312630.20  161332.10  51.60
748.6  313351.75  162417.76  51.83
749.9  313976.00  163381.03  52.04
751.2  314558.35  164265.33  52.22
752.5  315264.40  165178.34  52.39
753.8  315768.25  165915.97  52.54
755.1  316420.00  166660.99  52.67
756.4  316946.95  167328.48  52.79
757.7  317880.33  168176.80  52.91
759.0  319577.85  169382.03  53.00
760.3  320707.20  170241.78  53.08
761.6  322179.20  171271.07  53.16
762.9  322658.50  171744.17  53.23
764.2  323015.20  172123.62  53.29
765.5  323219.00  172419.50  53.34
766.8  323571.20  172771.81  53.40
768.1  324005.00  173161.74  53.44
769.3  324555.70  173580.38  53.48
770.6  325142.35  174036.93  53.53
771.9  325787.53  174491.26  53.56
773.2  326117.20  174768.19  53.59
774.5  326669.20  175150.21  53.62
775.8  327245.55  175561.32  53.65
777.1  327733.45  175917.75  53.68
778.4  327971.05  176134.13  53.70
779.6  328669.33  176585.75  53.73
780.9  329070.00  176872.00  53.75
782.2  329513.25  177160.71  53.76
783.5  329735.50  177365.92  53.79
784.8  330135.75  177670.02  53.82
786.0  330439.20  177896.76  53.84
787.3  330770.78  178120.92  53.85
788.6  331107.30  178364.27  53.87
789.9  331499.00  178636.40  53.89
791.2  332036.98  178993.11  53.91
792.4  332651.80  179368.30  53.92
793.7  332998.00  179632.20  53.94
795.0  333548.33  179981.21  53.96
796.2  334104.45  180325.33  53.97
797.5  334679.55  180700.96  53.99
798.8  335306.78  181069.25  54.00
800.0  335880.13  181431.50  54.02
801.3  336271.50  181669.64  54.02
802.6  336786.53  181993.23  54.04
803.8  337325.95  182352.23  54.06
805.1  337722.00  182601.65  54.07
806.4  338061.30  182853.15  54.09
807.7  338541.53  183160.79  54.10
808.9  339059.75  183451.53  54.11
810.2  339497.20  183731.97  54.12
811.4  339927.70  184003.24  54.13
812.7  340478.13  184350.06  54.14
814.0  341215.80  184800.34  54.16
815.2  341807.25  185149.72  54.17
816.5  342173.85  185404.46  54.18
817.7  342585.75  185672.72  54.20
819.0  343081.20  185960.21  54.20
820.2  343200.00  186066.36  54.22
821.5  343849.65  186455.00  54.23
822.7  344180.55  186665.81  54.23
824.0  344433.60  186870.70  54.25
825.2  344887.88  187152.54  54.26
826.5  345154.78  187344.07  54.28
827.7  345731.98  187670.72  54.28
829.0  346093.68  187908.66  54.29
830.2  346397.25  188097.44  54.30
831.5  346837.40  188398.74  54.32
832.7  347155.73  188593.22  54.33
834.0  347488.55  188816.94  54.34
835.2  347925.60  189046.98  54.34
836.4  348215.45  189225.84  54.34
837.7  348668.60  189498.69  54.35
838.9  349065.35  189789.50  54.37
840.1  349371.90  190048.54  54.40
841.4  349764.30  190309.37  54.41
842.6  350210.20  190561.65  54.41
843.8  350603.80  190797.14  54.42
845.1  351114.60  191116.04  54.43
846.3  351524.90  191373.28  54.44
847.5  351941.10  191662.16  54.46
848.8  352321.80  191913.13  54.47
850.0  352782.15  192152.92  54.47
851.2  353289.60  192484.34  54.48
852.5  353714.30  192730.98  54.49
853.7  354242.25  193069.16  54.50
854.9  354692.60  193343.13  54.51
856.1  355169.75  193616.85  54.51
857.4  355403.00  193765.04  54.52
858.6  355950.25  194078.13  54.52
859.8  356379.38  194337.21  54.53
861.0  356826.60  194599.75  54.54
862.2  357294.03  194874.11  54.54
863.5  357688.50  195095.85  54.54
864.7  358208.40  195396.33  54.55
865.9  358632.40  195638.26  54.55
867.1  358960.15  195864.75  54.56
868.3  359429.70  196111.28  54.56
869.5  359867.05  196361.46  54.57
870.8  360391.50  196686.60  54.58
872.0  360953.10  196976.97  54.57
873.2  361365.60  197220.83  54.58
874.4  361863.45  197493.16  54.58
875.6  362338.05  197717.40  54.57
876.8  362844.35  197976.55  54.56
878.0  363260.85  198249.31  54.57
879.2  363742.65  198563.08  54.59
880.4  364270.50  198837.95  54.59
881.6  364687.40  199097.60  54.59
882.8  365169.60  199296.37  54.58
884.0  365779.38  199587.53  54.57
885.2  366235.20  199877.49  54.58
886.5  366772.80  200176.51  54.58
887.7  367302.00  200405.94  54.56
888.8  367929.53  200749.37  54.56
890.0  368413.25  201026.80  54.57
891.2  368896.90  201308.65  54.57
892.4  369457.20  201615.90  54.57
893.6  370080.35  201896.38  54.55
894.8  370863.50  202364.84  54.57
896.0  371691.25  202804.61  54.56
897.2  372472.75  203204.11  54.56
898.4  373190.40  203526.34  54.54
899.6  373742.25  203798.79  54.53
900.8  373942.48  203970.27  54.55
902.0  374218.05  204048.38  54.53
903.2  374411.25  204177.90  54.53
904.3  374670.30  204318.34  54.53
905.5  375228.68  204571.67  54.52
906.7  375912.00  204844.80  54.49
907.9  376310.20  205089.83  54.50
909.1  376599.38  205214.82  54.49
910.2  376591.50  205283.53  54.51
911.4  376804.35  205361.85  54.50
912.6  376926.55  205419.50  54.50
913.8  377068.50  205450.11  54.49
915.0  377473.95  205610.58  54.47
916.2  377588.25  205651.27  54.46
917.3  377459.55  205618.73  54.47
918.5  377550.20  205637.30  54.47
919.7  377680.05  205694.09  54.46
920.8  377657.98  205676.92  54.46
922.0  377704.25  205649.03  54.45
923.2  377832.00  205670.40  54.43
924.4  378040.50  205691.14  54.41
925.5  378248.80  205741.26  54.39
926.7  378717.50  205977.30  54.39
927.9  379430.40  206298.75  54.37
929.0  380677.05  206999.41  54.38
930.2  382755.00  208078.63  54.36
931.4  385207.65  209296.59  54.33
932.5  387774.35  210552.30  54.30
933.7  389071.65  211155.70  54.27
934.9  389633.13  211402.58  54.26
936.0  388976.25  211042.87  54.26
937.2  386822.10  209746.48  54.22
938.3  384946.45  208650.96  54.20
939.5  383407.20  207658.35  54.16
940.7  383680.80  207606.09  54.11
941.8  385057.88  208281.27  54.09
943.0  386283.75  208944.04  54.09
944.2  386852.70  209146.43  54.06
945.3  386246.25  208704.41  54.03
946.5  385433.10  208023.43  53.97
947.6  385595.40  207852.10  53.90
948.8  385333.65  207580.88  53.87
949.9  385522.20  207431.68  53.81
951.1  384807.48  206960.90  53.78
952.2  384540.00  206521.83  53.71
953.4  384034.25  206053.87  53.66
954.5  384134.40  205718.09  53.55
955.7  383846.40  205350.48  53.50
956.8  383504.00  204987.87  53.45
958.0  382973.50  204547.87  53.41
959.1  382603.88  204141.39  53.36
960.3  382218.45  203709.66  53.30
961.4  382081.95  203370.49  53.23
962.6  382161.50  203234.93  53.18
963.7  381725.70  202988.91  53.18
964.9  381306.98  202799.51  53.19
966.0  381133.35  202531.44  53.14
967.2  380904.30  202489.84  53.16
968.3  380704.05  202111.82  53.09
969.5  380501.58  201975.63  53.08
970.6  380828.28  201865.52  53.01
971.8  380569.18  201835.26  53.04
972.9  380602.28  201863.87  53.04
974.0  380325.30  201964.89  53.10
975.2  380354.38  201738.08  53.04
976.3  380395.03  201695.92  53.02
977.5  380444.05  201578.08  52.98
978.6  380495.10  201627.54  52.99
979.7  380553.60  201699.88  53.00
980.9  380580.70  201576.36  52.97
982.0  379640.45  201396.16  53.05
983.2  379106.35  201226.59  53.08
984.3  379028.60  201102.42  53.06
985.4  379545.20  201101.65  52.98
986.6  379529.25  201035.28  52.97
987.7  380247.18  201382.23  52.96
988.9  379170.00  201173.49  53.06
990.0  379859.40  201330.33  53.00
993.1  386926.93  204143.67  52.76
996.9  385447.00  203892.53  52.90
1000.7  385286.42  204309.00  53.03
1004.5  385290.08  204804.72  53.16
1008.4  384959.29  205073.77  53.27
1012.2  384839.63  205431.31  53.38
1016.0  384345.00  205645.87  53.51
1019.8  383633.25  205628.50  53.60
1023.7  382338.18  205247.55  53.68
1027.5  380542.75  204558.92  53.75
1031.3  379359.90  204149.84  53.81
1035.1  378185.03  203715.19  53.87
1038.9  377654.20  203601.89  53.91
1042.7  377362.42  203598.28  53.95
1046.5  377250.67  203672.19  53.99
1050.3  377280.78  203781.90  54.01
1054.2  376936.00  203699.61  54.04
1058.0  376552.75  203583.64  54.07
1061.8  376545.38  203623.42  54.08
1065.6  375867.17  203272.27  54.08
1069.4  375014.27  202802.12  54.08
1073.2  373665.34  202012.79  54.06
1077.0  372970.55  201587.85  54.05
1080.8  373223.96  201657.41  54.03
1084.6  373447.78  201706.32  54.01
1088.4  373825.18  201821.89  53.99
1092.2  373376.25  201441.50  53.95
1096.0  372731.39  200919.07  53.90
1099.8  372020.35  200335.87  53.85
1103.6  371080.75  199621.86  53.79
1107.4  369907.55  198755.84  53.73
1111.2  369601.10  198368.93  53.67
1114.9  369110.58  197832.58  53.60
1118.7  368925.98  197351.00  53.49
1122.5  368610.67  196711.76  53.37
1126.3  367698.39  195630.70  53.20
1130.1  367319.22  194553.50  52.97
1133.9  365604.40  192517.58  52.66
1137.7  364066.20  190271.38  52.26
1141.4  362015.98  187534.37  51.80
1145.2  361040.47  185303.59  51.32
1149.0  359751.88  183001.06  50.87
1152.8  357889.90  180671.63  50.48
1156.6  356045.43  178653.97  50.18
1160.3  354244.67  176968.22  49.96
1164.1  351916.47  175266.24  49.80
1167.9  350342.71  174102.55  49.69
1171.7  349059.38  173202.75  49.62
1175.4  347539.77  172235.00  49.56
1179.2  346127.80  171283.60  49.49
1183.0  345817.33  170862.81  49.41
1186.7  345887.97  170669.80  49.34
1190.5  345626.33  170363.70  49.29
1194.3  344693.83  169791.50  49.26
1198.0  343173.88  168976.01  49.24
1201.8  341479.00  168156.63  49.24
1205.6  340427.00  167733.26  49.27
1209.3  339937.33  167674.04  49.32
1213.1  339517.20  167725.97  49.40
1216.8  338910.46  167770.07  49.50
1220.6  337773.33  167570.25  49.61
1224.3  336476.17  167280.78  49.72
1228.1  334941.00  166891.73  49.83
1231.9  333337.03  166384.19  49.91
1235.6  331583.55  165768.77  49.99
1239.4  329979.13  165224.44  50.07
1243.1  328585.52  164719.86  50.13
1246.9  327322.66  164226.28  50.17
1250.6  326279.07  163807.05  50.20
1254.3  325084.38  163301.94  50.23
1258.1  323829.57  162738.85  50.25
1261.8  322382.27  162036.32  50.26
1265.6  321293.97  161462.24  50.25
1269.3  320610.28  161073.34  50.24
1273.1  320989.26  161156.19  50.21
1276.8  320669.20  160840.26  50.16
1280.6  319428.23  159996.90  50.09
1284.3  317405.60  158730.13  50.01
1288.0  316209.01  157829.30  49.91
1291.8  315835.45  157266.25  49.79
1295.5  315148.53  156496.92  49.66
1299.2  313998.68  155396.13  49.49
1302.9  312369.58  153943.25  49.28
1306.7  310550.57  152325.39  49.05
1310.4  308798.41  150597.62  48.77
1314.1  307194.07  148839.29  48.45
1317.9  305763.54  147030.79  48.09
1321.6  304228.32  145043.28  47.68
1325.3  302551.20  142868.02  47.22
1329.0  301295.63  140786.67  46.73
1332.8  299391.40  138339.91  46.21
1336.5  297761.07  135981.89  45.67
1340.2  297661.00  134332.85  45.13
1343.9  297748.75  132761.99  44.59
1347.6  298123.20  131359.33  44.06
