/*** Spectra Vista SIG Data ***/
name= 50_20220825_QUPH_20_avg.sig
comm= Averaged Ref/Tar of files: HR.082522.0067_moc.sig,HR.082522.0068_moc.sig
data=
337.3  3225.63  205.59  6.37
338.8  3367.00  206.15  6.12
340.3  3513.75  191.42  5.45
341.8  3703.73  186.82  5.04
343.2  3907.20  183.95  4.71
344.7  4051.75  197.41  4.87
346.2  4207.55  203.09  4.83
347.7  4443.73  195.50  4.40
349.2  4573.80  187.92  4.11
350.6  4847.70  182.58  3.77
352.1  5108.68  194.96  3.82
353.6  5413.20  206.22  3.81
355.1  5691.08  218.41  3.84
356.6  5997.83  212.57  3.54
358.0  6252.40  211.45  3.38
359.5  6550.80  219.83  3.36
361.0  6852.83  229.14  3.34
362.5  7230.93  232.53  3.22
364.0  7570.20  233.50  3.08
365.4  7952.30  246.48  3.10
366.9  8315.13  251.78  3.03
368.4  8673.45  261.84  3.02
369.9  9026.35  277.97  3.08
371.3  9451.80  291.41  3.08
372.8  9903.15  295.09  2.98
374.3  10320.00  302.54  2.93
375.8  10753.05  303.38  2.82
377.2  11190.40  315.89  2.82
378.7  11593.90  330.49  2.85
380.2  12024.30  330.49  2.75
381.7  12539.60  337.43  2.69
383.1  13043.80  338.80  2.60
384.6  13568.43  357.61  2.64
386.1  14053.00  363.68  2.59
387.6  14579.95  379.61  2.60
389.0  15061.60  381.33  2.53
390.5  15531.75  392.18  2.53
392.0  16134.50  407.33  2.52
393.4  16710.90  422.65  2.53
394.9  17304.30  441.47  2.55
396.4  17879.63  446.53  2.50
397.9  18450.00  458.32  2.48
399.3  18993.75  470.32  2.48
400.8  19566.13  483.55  2.47
402.2  20229.20  505.03  2.50
403.7  20848.95  518.65  2.49
405.2  21473.23  531.00  2.47
406.6  22086.40  546.20  2.47
408.1  22667.80  558.55  2.46
409.6  23288.95  568.19  2.44
411.0  23997.40  591.09  2.46
412.5  24677.63  605.12  2.45
414.0  25346.50  622.90  2.46
415.4  26056.13  640.55  2.46
416.9  26753.70  657.00  2.46
418.4  27452.25  672.84  2.45
419.8  28191.80  691.08  2.45
421.3  28929.98  715.04  2.47
422.7  29736.60  739.75  2.49
424.2  30526.88  756.97  2.48
425.7  31312.30  776.35  2.48
427.1  32093.10  793.06  2.47
428.6  32906.50  817.52  2.48
430.0  33658.15  838.10  2.49
431.5  34551.38  864.37  2.50
432.9  35438.35  885.70  2.50
434.4  36356.85  905.75  2.49
435.9  37212.00  924.80  2.49
437.3  38073.75  949.15  2.49
438.8  38933.10  970.81  2.49
440.2  39818.63  994.46  2.50
441.7  40816.40  1019.55  2.50
443.1  41737.50  1046.37  2.51
444.6  42719.10  1076.07  2.52
446.0  43673.85  1099.91  2.52
447.5  44655.88  1125.95  2.52
448.9  45614.40  1148.84  2.52
450.4  46658.85  1179.19  2.53
451.8  47541.00  1205.29  2.54
453.3  48482.10  1235.78  2.55
454.7  49524.83  1265.18  2.55
456.2  50400.48  1290.01  2.56
457.6  51387.53  1310.43  2.55
459.1  52380.58  1337.45  2.55
460.5  53352.88  1361.96  2.55
462.0  54438.13  1395.01  2.56
463.4  55498.70  1421.67  2.56
464.8  56499.00  1447.36  2.56
466.3  57502.50  1472.63  2.56
467.7  58495.70  1498.39  2.56
469.2  59579.48  1526.54  2.56
470.6  60597.65  1553.93  2.56
472.0  61662.58  1582.03  2.57
473.5  62686.75  1611.06  2.57
474.9  63740.25  1635.09  2.57
476.4  64915.20  1664.23  2.56
477.8  65989.50  1692.77  2.57
479.2  67019.00  1720.95  2.57
480.7  68148.30  1753.96  2.57
482.1  69316.65  1783.96  2.57
483.6  70530.45  1820.70  2.58
485.0  71636.78  1850.73  2.58
486.4  72851.85  1889.42  2.59
487.9  73973.25  1925.49  2.60
489.3  75141.68  1955.06  2.60
490.7  76231.33  1993.77  2.62
492.2  77483.70  2033.22  2.62
493.6  78597.25  2074.86  2.64
495.0  79735.50  2114.78  2.65
496.5  80932.63  2163.52  2.67
497.9  82047.93  2212.15  2.70
499.3  83251.28  2270.02  2.73
500.7  84530.50  2323.07  2.75
502.2  85702.00  2382.72  2.78
503.6  86986.80  2454.47  2.82
505.0  88090.45  2531.52  2.87
506.5  89418.30  2624.89  2.94
507.9  90610.40  2721.03  3.00
509.3  91982.00  2836.53  3.08
510.7  93249.00  2955.92  3.17
512.2  94666.50  3096.83  3.27
513.6  96173.70  3260.73  3.39
515.0  97640.40  3446.92  3.53
516.4  99026.55  3652.70  3.69
517.8  100683.00  3896.08  3.87
519.3  102029.68  4146.50  4.06
520.7  103632.80  4430.97  4.28
522.1  104952.25  4723.55  4.50
523.5  106307.20  5028.23  4.73
524.9  107777.70  5341.66  4.96
526.3  109232.20  5651.85  5.17
527.8  110781.00  5964.19  5.38
529.2  111913.90  6256.73  5.59
530.6  113432.50  6546.68  5.77
532.0  115164.00  6836.80  5.94
533.4  116514.23  7078.40  6.08
534.8  117398.33  7273.00  6.20
536.3  119079.90  7489.74  6.29
537.7  121086.00  7719.12  6.37
539.1  122596.78  7893.64  6.44
540.5  123813.75  8042.86  6.50
541.9  125627.48  8229.38  6.55
543.3  126931.45  8377.33  6.60
544.7  128295.60  8537.95  6.65
546.1  130102.23  8726.21  6.71
547.5  131353.60  8874.24  6.76
549.0  133056.00  9047.03  6.80
550.4  134586.88  9190.63  6.83
551.8  136172.45  9324.25  6.85
553.2  137714.83  9430.79  6.85
554.6  139079.20  9494.31  6.83
556.0  140625.45  9531.17  6.78
557.4  142257.85  9540.30  6.71
558.8  143916.75  9523.48  6.62
560.2  145395.25  9467.63  6.51
561.6  147086.33  9405.14  6.39
563.0  148703.10  9319.16  6.27
564.4  150316.40  9217.39  6.13
565.8  151863.13  9082.25  5.98
567.2  153639.00  8946.77  5.82
568.6  155164.50  8775.51  5.66
570.0  156624.23  8593.43  5.49
571.4  158357.55  8428.00  5.32
572.8  160155.50  8270.96  5.16
574.2  161806.40  8114.88  5.02
575.6  163383.75  7968.86  4.88
577.0  164912.20  7834.45  4.75
578.4  166655.13  7728.83  4.64
579.8  168200.55  7636.12  4.54
581.2  169944.15  7567.08  4.45
582.5  171393.30  7500.37  4.38
583.9  172929.00  7439.40  4.30
585.3  174748.95  7403.38  4.24
586.7  176250.43  7363.08  4.18
588.1  177764.63  7331.12  4.12
589.5  179425.75  7321.65  4.08
590.9  181077.20  7317.77  4.04
592.3  182916.25  7335.66  4.01
593.7  184383.23  7350.78  3.99
595.0  186026.63  7372.91  3.96
596.4  187490.10  7391.12  3.94
597.8  188986.05  7408.30  3.92
599.2  190542.00  7429.72  3.90
600.6  192319.73  7455.53  3.88
602.0  193655.63  7457.40  3.85
603.3  195472.30  7464.89  3.82
604.7  197166.15  7451.31  3.78
606.1  198664.80  7420.07  3.73
607.5  200311.13  7383.04  3.69
608.9  202039.00  7344.94  3.64
610.2  203439.60  7291.22  3.58
611.6  205048.05  7243.13  3.53
613.0  206635.00  7198.99  3.48
614.4  208021.35  7142.81  3.43
615.8  209473.88  7095.63  3.39
617.1  211033.20  7056.42  3.34
618.5  212705.60  7040.57  3.31
619.9  214248.38  7023.28  3.28
621.3  215889.08  7024.95  3.25
622.6  217495.50  7034.61  3.23
624.0  218972.85  7043.44  3.22
625.4  220468.88  7063.61  3.20
626.8  222058.20  7092.54  3.19
628.1  223385.80  7119.53  3.19
629.5  225219.23  7170.91  3.18
630.9  226764.45  7209.90  3.18
632.2  228076.10  7237.17  3.17
633.6  229663.38  7261.98  3.16
635.0  231168.00  7267.74  3.14
636.3  232702.30  7268.97  3.12
637.7  234093.38  7249.85  3.10
639.1  235760.00  7234.00  3.07
640.4  237251.53  7194.74  3.03
641.8  238480.68  7151.90  3.00
643.2  240074.98  7114.73  2.96
644.5  241447.50  7066.92  2.93
645.9  243115.65  7039.47  2.90
647.2  244598.73  7016.33  2.87
648.6  246361.50  7012.87  2.85
650.0  247860.00  7010.13  2.83
651.3  248541.43  6990.97  2.81
652.7  250115.55  7005.23  2.80
654.0  252197.70  7028.99  2.79
655.4  253667.95  7039.43  2.78
656.8  253831.40  7020.79  2.77
658.1  255057.20  7012.36  2.75
659.5  257467.88  7029.21  2.73
660.8  259155.00  7019.36  2.71
662.2  260086.40  7000.32  2.69
663.5  261790.85  7012.06  2.68
664.9  262990.00  7015.81  2.67
666.2  263780.40  7025.35  2.66
667.6  265578.20  7081.49  2.67
668.9  266628.43  7119.83  2.67
670.3  268052.50  7166.40  2.67
671.6  269460.38  7235.51  2.69
673.0  270655.13  7317.69  2.70
674.3  271918.40  7409.82  2.73
675.7  273266.43  7520.01  2.75
677.0  274387.45  7621.28  2.78
678.4  275753.00  7750.29  2.81
679.7  276854.25  7874.88  2.84
681.1  278167.08  8028.36  2.89
682.4  279299.80  8192.79  2.93
683.8  280559.50  8372.75  2.98
685.1  281540.63  8561.11  3.04
686.4  282828.00  8774.71  3.10
687.8  284110.25  9030.32  3.18
689.1  285200.50  9334.20  3.27
690.5  286527.00  9733.11  3.40
691.8  287410.30  10263.37  3.57
693.1  288742.20  10989.14  3.81
694.5  289903.25  11932.05  4.12
695.8  291131.75  13143.00  4.51
697.1  292383.00  14659.45  5.01
698.5  293442.90  16507.44  5.63
699.8  294548.25  18671.25  6.34
701.1  295727.35  21149.30  7.15
702.5  296555.05  23883.03  8.05
703.8  297517.50  26846.36  9.02
705.1  298701.00  30023.87  10.05
706.5  299780.25  33348.34  11.12
707.8  300786.30  36818.12  12.24
709.1  301677.73  40381.46  13.39
710.5  302838.63  44085.50  14.56
711.8  303681.40  47829.04  15.75
713.1  304707.20  51687.58  16.96
714.4  305643.80  55593.27  18.19
715.8  306491.20  59549.29  19.43
717.1  307826.55  63650.25  20.68
718.4  308784.00  67713.92  21.93
719.7  309930.25  71805.06  23.17
721.0  310432.50  75766.50  24.41
722.4  311257.65  79742.60  25.62
723.7  312230.25  83711.17  26.81
725.0  313309.58  87643.19  27.97
726.3  314254.60  91455.21  29.10
727.6  314779.58  95040.69  30.19
729.0  315700.18  98611.56  31.24
730.3  316478.63  101991.54  32.23
731.6  317409.65  105265.70  33.16
732.9  318215.80  108355.10  34.05
734.2  319045.38  111307.75  34.89
735.5  320081.15  114174.22  35.67
736.8  320898.00  116790.89  36.40
738.1  321765.70  119273.29  37.07
739.5  322760.43  121647.22  37.69
740.8  323461.60  123767.28  38.26
742.1  324180.88  125755.78  38.79
743.4  324900.00  127601.43  39.27
744.7  325814.85  129403.82  39.72
746.0  326685.45  131055.88  40.12
747.3  327256.03  132471.84  40.48
748.6  328003.50  133837.47  40.80
749.9  328718.00  135079.66  41.09
751.2  329359.25  136179.49  41.35
752.5  330196.05  137278.54  41.57
753.8  330787.45  138201.97  41.78
755.1  331474.00  139080.69  41.96
756.4  332090.38  139866.47  42.12
757.7  333108.13  140755.83  42.26
759.0  334971.93  141940.19  42.37
760.3  336177.60  142810.43  42.48
761.6  337766.80  143796.56  42.57
762.9  338280.50  144302.50  42.66
764.2  338671.00  144690.49  42.72
765.5  338920.53  145012.29  42.79
766.8  339347.20  145373.12  42.84
768.1  339897.00  145753.13  42.88
769.3  340482.10  146143.68  42.92
770.6  341129.75  146538.66  42.96
771.9  341875.45  146955.97  42.99
773.2  342248.40  147210.19  43.01
774.5  342856.80  147553.94  43.04
775.8  343516.95  147911.48  43.06
777.1  344086.60  148226.09  43.08
778.4  344419.63  148423.91  43.09
779.6  345196.43  148808.45  43.11
780.9  345660.00  149058.00  43.12
782.2  346090.25  149312.27  43.14
783.5  346419.00  149490.96  43.15
784.8  346935.38  149752.26  43.16
786.0  347322.50  149958.77  43.18
787.3  347704.33  150160.93  43.19
788.6  348101.85  150380.40  43.20
789.9  348532.80  150604.92  43.21
791.2  349204.00  150923.70  43.22
792.4  349864.75  151242.20  43.23
793.7  350332.60  151480.45  43.24
795.0  350934.38  151770.84  43.25
796.2  351593.43  152067.54  43.25
797.5  352285.13  152402.07  43.26
798.8  352989.73  152720.51  43.26
800.0  353610.60  153026.39  43.28
801.3  354104.90  153261.01  43.28
802.6  354647.25  153544.61  43.30
803.8  355318.65  153833.34  43.29
805.1  355782.00  154048.58  43.30
806.4  356235.00  154273.43  43.31
807.7  356817.15  154532.09  43.31
808.9  357366.25  154807.33  43.32
810.2  357848.40  155069.90  43.33
811.4  358333.60  155285.53  43.34
812.7  358962.50  155574.02  43.34
814.0  359815.60  155950.27  43.34
815.2  360469.50  156258.32  43.35
816.5  360859.40  156457.36  43.36
817.7  361354.05  156695.11  43.36
819.0  361851.60  156938.92  43.37
820.2  362032.00  157038.52  43.38
821.5  362736.60  157382.32  43.39
822.7  363105.50  157575.11  43.40
824.0  363390.30  157728.14  43.40
825.2  363890.48  157977.08  43.41
826.5  364253.88  158144.33  43.42
827.7  364797.90  158391.94  43.42
829.0  365242.60  158617.98  43.43
830.2  365583.85  158775.48  43.43
831.5  366044.85  159011.32  43.44
832.7  366354.45  159182.82  43.45
834.0  366678.53  159344.04  43.46
835.2  367044.70  159545.44  43.47
836.4  367421.45  159729.90  43.47
837.7  367855.40  159936.46  43.48
838.9  368286.53  160164.40  43.49
840.1  368644.50  160346.75  43.50
841.4  369110.30  160568.55  43.50
842.6  369457.60  160784.74  43.52
843.8  369883.20  160970.85  43.52
845.1  370403.35  161240.39  43.53
846.3  370817.00  161464.66  43.54
847.5  371246.40  161687.76  43.55
848.8  371727.00  161908.94  43.56
850.0  372078.35  162080.92  43.56
851.2  372641.85  162363.11  43.57
852.5  373068.60  162554.08  43.57
853.7  373621.50  162815.53  43.58
854.9  374126.00  163042.26  43.58
856.1  374652.20  163298.70  43.59
857.4  374868.78  163396.24  43.59
858.6  375309.55  163681.22  43.61
859.8  375804.38  163881.59  43.61
861.0  376272.00  164099.52  43.61
862.2  376768.58  164319.31  43.61
863.5  377224.90  164516.19  43.61
864.7  377883.00  164762.59  43.60
865.9  378230.20  164986.43  43.62
867.1  378609.90  165161.71  43.62
868.3  379040.40  165386.42  43.63
869.5  379611.70  165608.66  43.63
870.8  380128.50  165862.93  43.63
872.0  380748.30  166098.52  43.62
873.2  381215.70  166332.23  43.63
874.4  381686.18  166556.02  43.64
875.6  382122.25  166777.62  43.65
876.8  382603.60  167003.11  43.65
878.0  383183.45  167235.53  43.64
879.2  383743.95  167446.54  43.63
880.4  384256.88  167706.36  43.64
881.6  384816.25  167941.79  43.64
882.8  385200.00  168133.08  43.65
884.0  385864.78  168423.01  43.65
885.2  386406.20  168624.55  43.64
886.5  387030.60  168914.01  43.64
887.7  387557.63  169102.96  43.63
888.8  388283.85  169435.09  43.64
890.0  388844.70  169688.02  43.64
891.2  389510.90  169963.77  43.64
892.4  390077.63  170241.36  43.64
893.6  390699.25  170506.47  43.64
894.8  391586.50  170883.76  43.64
896.0  392533.75  171285.65  43.64
897.2  393529.50  171654.97  43.62
898.4  394161.90  171977.99  43.63
899.6  394828.88  172230.69  43.62
900.8  395238.33  172375.90  43.61
902.0  395394.15  172455.35  43.62
903.2  395682.15  172626.07  43.63
904.3  396139.80  172797.23  43.62
905.5  396801.25  173072.41  43.62
906.7  397363.50  173314.50  43.62
907.9  397958.40  173550.79  43.61
909.1  398319.53  173684.46  43.60
910.2  398381.70  173719.33  43.61
911.4  398750.63  173833.00  43.59
912.6  399048.65  173906.80  43.58
913.8  399249.00  174021.87  43.59
915.0  399715.05  174187.44  43.58
916.2  399896.25  174263.15  43.58
917.3  399942.68  174230.46  43.56
918.5  400187.60  174322.85  43.56
919.7  400306.65  174431.54  43.57
920.8  400405.25  174403.38  43.56
922.0  400611.75  174424.25  43.54
923.2  400900.50  174521.10  43.53
924.4  401010.75  174652.97  43.55
925.5  401398.30  174717.60  43.53
926.7  401782.25  174901.59  43.53
927.9  402855.60  175209.76  43.49
929.0  404221.05  175840.05  43.50
930.2  406620.90  176804.94  43.48
931.4  409263.98  177841.69  43.45
932.5  411883.05  178945.60  43.45
933.7  413129.73  179509.20  43.45
934.9  413752.50  179732.13  43.44
936.0  413430.88  179430.83  43.40
937.2  411308.70  178468.55  43.39
938.3  409517.50  177613.59  43.37
939.5  408110.40  176905.85  43.35
940.7  408262.50  176939.13  43.34
941.8  409792.80  177525.09  43.32
943.0  411199.50  178031.10  43.30
944.2  412058.40  178329.03  43.28
945.3  411625.50  178041.13  43.25
946.5  410953.50  177559.79  43.21
947.6  411149.20  177536.25  43.18
948.8  411138.98  177388.74  43.15
949.9  410986.80  177299.04  43.14
951.1  410675.20  176977.64  43.09
952.2  410448.00  176733.95  43.06
953.4  410147.75  176357.91  43.00
954.5  410248.80  176181.95  42.95
955.7  410193.00  175937.76  42.89
956.8  409869.90  175758.14  42.88
958.0  409553.50  175465.97  42.84
959.1  409465.15  175194.85  42.79
960.3  408895.55  174872.99  42.77
961.4  408820.65  174672.74  42.73
962.6  409013.50  174640.75  42.70
963.7  408466.13  174482.15  42.72
964.9  408417.68  174376.31  42.70
966.0  408393.90  174349.96  42.69
967.2  408375.90  174263.53  42.67
968.3  408110.40  174067.15  42.65
969.5  407899.93  173895.65  42.63
970.6  407968.43  173944.44  42.64
971.8  408116.28  174042.92  42.65
972.9  408078.08  173980.69  42.63
974.0  408352.70  174105.09  42.64
975.2  408326.63  174090.71  42.64
976.3  408001.45  174028.04  42.65
977.5  408050.83  173852.45  42.61
978.6  407701.90  173872.03  42.65
979.7  407311.28  173930.96  42.70
980.9  407185.28  173760.73  42.67
982.0  406517.65  173906.46  42.78
983.2  406696.30  173597.72  42.68
984.3  406218.60  173347.91  42.67
985.4  406159.65  173208.83  42.65
986.6  405936.63  173288.53  42.69
987.7  406336.18  173771.38  42.77
988.9  406056.60  173630.32  42.76
990.0  406784.30  173774.76  42.72
993.1  376382.24  159367.49  42.34
996.9  376018.80  159769.37  42.49
1000.7  376521.31  160420.41  42.61
1004.5  376825.33  160904.29  42.70
1008.4  376438.13  161119.08  42.80
1012.2  376202.21  161402.40  42.90
1016.0  375935.40  161687.70  43.01
1019.8  375629.10  161954.10  43.12
1023.7  375053.38  162029.89  43.20
1027.5  374119.63  161936.36  43.28
1031.3  373867.90  162023.81  43.34
1035.1  373371.89  161999.97  43.39
1038.9  373158.32  162055.73  43.43
1042.7  372953.75  162094.91  43.46
1046.5  372843.83  162113.11  43.48
1050.3  372806.60  162191.40  43.51
1054.2  372422.17  162133.63  43.53
1058.0  371963.61  161972.39  43.55
1061.8  371866.68  161987.14  43.56
1065.6  371452.27  161826.04  43.57
1069.4  371115.87  161732.97  43.58
1073.2  370313.95  161426.07  43.59
1077.0  369637.78  161157.04  43.60
1080.8  369327.08  160950.00  43.58
1084.6  368673.55  160573.53  43.55
1088.4  368384.90  160370.93  43.53
1092.2  367701.75  159987.06  43.51
1096.0  367126.41  159642.97  43.48
1099.8  366570.75  159285.24  43.45
1103.6  365813.62  158842.50  43.42
1107.4  364827.78  158264.14  43.38
1111.2  364559.70  158020.59  43.35
1114.9  363874.00  157585.13  43.31
1118.7  363426.53  157148.54  43.24
1122.5  362834.33  156600.05  43.16
1126.3  361860.22  155802.73  43.06
1130.1  361407.48  155092.52  42.91
1133.9  359776.90  153679.50  42.72
1137.7  358283.70  152178.88  42.47
1141.4  356387.09  150357.40  42.19
1145.2  355577.75  148878.72  41.87
1149.0  354372.08  147320.94  41.57
1152.8  352660.75  145648.14  41.30
1156.6  350949.32  144183.88  41.08
1160.3  349232.00  142918.36  40.92
1164.1  346875.93  141567.67  40.81
1167.9  345143.75  140623.44  40.74
1171.7  343838.25  139942.69  40.70
1175.4  342501.60  139294.43  40.67
1179.2  341278.83  138692.74  40.64
1183.0  340942.00  138434.79  40.60
1186.7  340609.03  138147.80  40.56
1190.5  339832.93  137710.42  40.52
1194.3  338774.27  137207.92  40.50
1198.0  337444.80  136666.32  40.50
1201.8  335847.75  136047.78  40.51
1205.6  334665.00  135636.72  40.53
1209.3  333882.75  135435.53  40.56
1213.1  333144.75  135242.71  40.60
1216.8  332382.05  135090.37  40.64
1220.6  331305.33  134829.20  40.70
1224.3  330109.75  134503.82  40.75
1228.1  328752.40  134159.32  40.81
1231.9  327401.23  133791.96  40.86
1235.6  325841.93  133309.24  40.91
1239.4  324410.25  132906.67  40.97
1243.1  323104.80  132494.88  41.01
1246.9  321828.78  132063.71  41.04
1250.6  320809.40  131710.09  41.06
1254.3  319688.42  131307.55  41.07
1258.1  318579.80  130890.58  41.09
1261.8  317177.20  130348.75  41.10
1265.6  315795.30  129780.81  41.10
1269.3  314635.75  129236.89  41.08
1273.1  314777.74  129192.67  41.04
1276.8  314830.80  129114.86  41.01
1280.6  314223.63  128806.84  40.99
1284.3  312534.80  128025.43  40.96
1288.0  311076.64  127255.78  40.91
1291.8  310102.14  126577.11  40.82
1295.5  309001.73  125819.26  40.72
1299.2  307842.16  124984.96  40.60
1302.9  306360.37  123969.19  40.47
1306.7  304731.82  122838.80  40.31
1310.4  303158.96  121637.79  40.12
1314.1  301685.63  120427.96  39.92
1317.9  300379.79  119172.50  39.67
1321.6  298911.23  117765.80  39.40
1325.3  297237.68  116187.42  39.09
1329.0  295900.62  114687.23  38.76
1332.8  293909.00  112817.10  38.39
1336.5  292188.73  111042.10  38.00
1340.2  291897.67  109807.75  37.62
1343.9  291619.79  108571.21  37.23
1347.6  291294.30  107336.67  36.85
1351.4  291989.00  106528.18  36.48
1355.1  292944.67  105840.51  36.13
1358.8  293712.00  105027.43  35.76
1362.5  293495.38  103742.98  35.35
1366.2  291749.75  101700.01  34.86
