/*** Spectra Vista SIG Data ***/
name= 42_20220926_ACSA_24_avg.sig
comm= Averaged Ref/Tar of files: HR.092722.0041_moc.sig,HR.092722.0042_moc.sig,HR.092722.0043_moc.sig
data=
337.3  3225.63  187.16  5.80
338.8  3318.90  168.58  5.08
340.3  3466.90  181.15  5.23
341.8  3612.28  181.16  5.02
343.2  3818.40  183.52  4.81
344.7  4009.10  170.60  4.26
346.2  4207.55  178.18  4.23
347.7  4365.08  180.52  4.14
349.2  4573.80  185.76  4.06
350.6  4847.70  176.98  3.65
352.1  5108.68  181.69  3.56
353.6  5378.50  193.66  3.60
355.1  5657.40  192.43  3.40
356.6  5997.83  202.27  3.37
358.0  6252.40  199.91  3.20
359.5  6550.80  204.82  3.13
361.0  6852.83  202.35  2.95
362.5  7230.93  219.14  3.03
364.0  7598.88  225.03  2.96
365.4  7952.30  243.53  3.06
366.9  8342.75  245.73  2.95
368.4  8700.73  252.49  2.90
369.9  9080.40  272.31  3.00
371.3  9505.20  283.27  2.98
372.8  9929.70  297.36  2.99
374.3  10373.75  301.00  2.90
375.8  10780.00  309.03  2.87
377.2  11190.40  307.43  2.75
378.7  11674.60  313.58  2.69
380.2  12078.10  323.31  2.68
381.7  12593.65  334.60  2.66
383.1  13043.80  343.42  2.63
384.6  13568.43  350.93  2.59
386.1  14053.00  355.19  2.53
387.6  14526.05  366.52  2.52
389.0  15008.00  374.18  2.49
390.5  15478.65  382.83  2.47
392.0  16055.15  397.00  2.47
393.4  16632.08  401.38  2.41
394.9  17199.90  417.60  2.43
396.4  17724.38  436.18  2.46
397.9  18296.25  441.24  2.41
399.3  18841.80  454.40  2.41
400.8  19416.58  466.69  2.40
402.2  20081.90  483.05  2.41
403.7  20680.43  501.68  2.43
405.2  21307.50  512.73  2.41
406.6  21877.60  525.42  2.40
408.1  22464.40  535.51  2.38
409.6  23069.45  550.21  2.39
411.0  23762.55  569.74  2.40
412.5  24448.55  592.62  2.42
414.0  25102.00  607.37  2.42
415.4  25797.75  632.21  2.45
416.9  26483.85  652.41  2.46
418.4  27190.80  676.21  2.49
419.8  27918.80  697.84  2.50
421.3  28644.78  722.17  2.52
422.7  29440.80  745.05  2.53
424.2  30223.13  766.93  2.54
425.7  30986.30  788.30  2.54
427.1  31760.78  814.76  2.57
428.6  32565.50  840.84  2.58
430.0  33339.48  862.52  2.59
431.5  34223.03  887.54  2.59
432.9  35116.05  911.09  2.59
434.4  36013.05  936.99  2.60
435.9  36876.00  962.67  2.61
437.3  37730.00  993.40  2.63
438.8  38607.30  1016.44  2.63
440.2  39495.23  1042.07  2.64
441.7  40481.40  1066.13  2.63
443.1  41406.25  1095.08  2.64
444.6  42391.60  1125.35  2.65
446.0  43349.48  1159.35  2.67
447.5  44332.75  1193.53  2.69
448.9  45291.90  1223.41  2.70
450.4  46322.15  1257.51  2.71
451.8  47216.00  1285.39  2.72
453.3  48168.30  1311.73  2.72
454.7  49195.45  1343.85  2.73
456.2  50069.85  1371.12  2.74
457.6  51068.93  1403.86  2.75
459.1  52074.10  1434.02  2.75
460.5  53031.88  1463.61  2.76
462.0  54140.58  1489.81  2.75
463.4  55197.30  1517.18  2.75
464.8  56207.63  1551.62  2.76
466.3  57179.93  1579.35  2.76
467.7  58171.98  1615.54  2.78
469.2  59269.83  1648.79  2.78
470.6  60288.55  1674.49  2.78
472.0  61367.00  1704.28  2.78
473.5  62404.25  1734.01  2.78
474.9  63483.75  1769.44  2.79
476.4  64656.00  1805.62  2.79
477.8  65728.50  1841.91  2.80
479.2  66743.50  1872.85  2.81
480.7  67873.28  1907.67  2.81
482.1  69027.65  1945.66  2.82
483.6  70255.90  1985.57  2.83
485.0  71376.23  2027.05  2.84
486.4  72589.95  2073.03  2.86
487.9  73695.38  2115.75  2.87
489.3  74861.90  2162.19  2.89
490.7  75936.83  2209.03  2.91
492.2  77175.00  2266.60  2.94
493.6  78304.25  2325.30  2.97
495.0  79443.00  2387.64  3.01
496.5  80639.13  2449.75  3.04
497.9  81783.78  2519.63  3.08
499.3  82972.45  2598.17  3.13
500.7  84266.80  2692.81  3.20
502.2  85453.80  2793.47  3.27
503.6  86753.20  2908.60  3.35
505.0  87856.05  3025.43  3.44
506.5  89181.90  3174.51  3.56
507.9  90373.20  3331.81  3.69
509.3  91715.60  3524.09  3.84
510.7  92971.13  3731.19  4.01
512.2  94391.48  3973.87  4.21
513.6  95915.40  4250.61  4.43
515.0  97384.35  4561.75  4.68
516.4  98813.93  4897.80  4.96
517.8  100485.25  5286.52  5.26
519.3  101832.63  5682.28  5.58
520.7  103422.05  6118.57  5.92
522.1  104742.63  6554.94  6.26
523.5  106112.60  7005.07  6.60
524.9  107624.25  7458.87  6.93
526.3  109117.40  7904.80  7.24
527.8  110632.50  8343.72  7.54
529.2  111660.60  8728.85  7.82
530.6  113201.30  9134.05  8.07
532.0  114884.00  9524.80  8.29
533.4  116256.30  9852.86  8.48
534.8  117199.95  10117.00  8.63
536.3  118796.10  10415.83  8.77
537.7  120758.40  10723.92  8.88
539.1  122214.70  10969.48  8.98
540.5  123428.15  11186.76  9.06
541.9  125203.58  11442.16  9.14
543.3  126526.33  11660.77  9.22
544.7  127873.80  11877.71  9.29
546.1  129707.60  12139.42  9.36
547.5  130950.40  12337.49  9.42
549.0  132605.00  12566.61  9.48
550.4  134119.38  12766.39  9.52
551.8  135719.88  12949.56  9.54
553.2  137232.98  13095.94  9.54
554.6  138569.60  13187.20  9.52
556.0  140107.95  13258.25  9.46
557.4  141731.28  13297.22  9.38
558.8  143409.60  13300.64  9.27
560.2  144886.88  13250.75  9.15
561.6  146585.93  13175.41  8.99
563.0  148189.83  13055.44  8.81
564.4  149810.00  12904.76  8.61
565.8  151331.88  12718.83  8.40
567.2  153101.50  12526.92  8.18
568.6  154599.00  12296.21  7.95
570.0  156042.55  12047.62  7.72
571.4  157771.90  11819.08  7.49
572.8  159565.88  11597.97  7.27
574.2  161201.60  11383.68  7.06
575.6  162765.00  11187.00  6.87
577.0  164313.30  11008.35  6.70
578.4  166029.50  10862.80  6.54
579.8  167592.38  10727.49  6.40
581.2  169319.10  10622.76  6.27
582.5  170761.50  10518.19  6.16
583.9  172291.80  10430.75  6.05
585.3  174093.08  10372.71  5.96
586.7  175601.08  10310.35  5.87
588.1  177097.75  10259.37  5.79
589.5  178764.25  10231.90  5.72
590.9  180420.00  10217.84  5.66
592.3  182238.55  10226.94  5.61
593.7  183711.45  10224.02  5.57
595.0  185334.08  10235.82  5.52
596.4  186803.75  10239.38  5.48
597.8  188306.15  10244.32  5.44
599.2  189855.60  10244.96  5.40
600.6  191626.83  10245.53  5.35
602.0  192944.10  10209.39  5.29
603.3  194754.15  10183.15  5.23
604.7  196455.05  10140.34  5.16
606.1  197961.00  10072.69  5.09
607.5  199614.88  9999.74  5.01
608.9  201322.45  9917.69  4.93
610.2  202716.68  9816.66  4.84
611.6  204346.13  9722.72  4.76
613.0  205926.95  9635.81  4.68
614.4  207322.95  9544.80  4.60
615.8  208801.13  9461.96  4.53
617.1  210357.00  9395.12  4.47
618.5  211995.20  9344.86  4.41
619.9  213531.98  9306.09  4.36
621.3  215180.55  9284.76  4.31
622.6  216778.75  9284.49  4.28
624.0  218262.15  9288.54  4.26
625.4  219747.83  9314.83  4.24
626.8  221357.50  9354.19  4.23
628.1  222623.23  9386.70  4.22
629.5  224442.55  9444.75  4.21
630.9  225925.70  9487.62  4.20
632.2  227176.43  9506.65  4.18
633.6  228687.25  9522.80  4.16
635.0  230153.20  9507.18  4.13
636.3  231681.60  9463.26  4.08
637.7  233068.25  9381.84  4.03
639.1  234710.00  9283.33  3.96
640.4  236208.70  9148.58  3.87
641.8  237446.83  8995.00  3.79
643.2  239047.55  8853.19  3.70
644.5  240407.25  8714.46  3.62
645.9  241990.20  8595.59  3.55
647.2  243034.58  8478.75  3.49
648.6  244599.75  8410.89  3.44
650.0  246024.00  8352.82  3.40
651.3  247034.98  8302.65  3.36
652.7  249193.55  8293.61  3.33
654.0  251258.80  8293.73  3.30
655.4  252665.85  8284.03  3.28
656.8  252923.40  8243.78  3.26
658.1  254376.20  8226.05  3.23
659.5  256655.18  8226.33  3.21
660.8  258052.50  8199.86  3.18
662.2  259078.40  8169.81  3.15
663.5  260616.90  8170.61  3.14
664.9  261664.00  8173.63  3.12
666.2  262537.20  8187.78  3.12
667.6  264261.03  8250.47  3.12
668.9  265231.88  8319.66  3.14
670.3  267090.38  8427.06  3.16
671.6  268155.00  8541.94  3.19
673.0  269371.88  8673.42  3.22
674.3  270636.60  8821.90  3.26
675.7  271986.08  8993.99  3.31
677.0  273065.95  9182.12  3.36
678.4  274387.45  9396.49  3.42
679.7  275444.65  9618.84  3.49
681.1  276710.13  9868.58  3.57
682.4  277797.00  10139.90  3.65
683.8  278968.30  10449.30  3.75
685.1  279991.88  10804.16  3.86
686.4  281296.20  11235.74  3.99
687.8  282508.25  11763.26  4.16
689.1  283598.50  12427.37  4.38
690.5  284940.15  13335.50  4.68
691.8  285769.63  14540.25  5.09
693.1  287088.75  16165.20  5.63
694.5  288265.25  18227.73  6.32
695.8  289493.75  20778.33  7.18
697.1  290654.00  23806.90  8.19
698.5  291740.40  27322.58  9.37
699.8  292824.95  31273.36  10.68
701.1  294004.05  35604.93  12.11
702.5  294796.15  40153.17  13.62
703.8  295717.50  44899.71  15.18
705.1  296884.58  49757.44  16.76
706.5  297900.75  54617.16  18.33
707.8  298886.55  59440.78  19.89
709.1  299757.78  64151.42  21.40
710.5  300874.03  68836.69  22.88
711.8  301719.00  73333.44  24.31
713.1  302677.90  77764.14  25.69
714.4  303592.20  82039.79  27.02
715.8  304439.60  86170.60  28.30
717.1  305748.00  90303.37  29.54
718.4  306723.20  94195.63  30.71
719.7  307817.60  97991.00  31.83
721.0  308340.00  101463.43  32.91
722.4  309115.40  104867.81  33.93
723.7  310078.50  108187.62  34.89
725.0  311105.25  111387.13  35.80
726.3  312063.40  114407.16  36.66
727.6  312588.38  117127.90  37.47
729.0  313499.38  119850.59  38.23
730.3  314314.28  122377.22  38.93
731.6  315210.40  124801.87  39.59
732.9  316004.68  127042.93  40.20
734.2  316801.38  129171.14  40.77
735.5  317799.23  131259.64  41.30
736.8  318599.10  133130.35  41.79
738.1  319495.20  134904.80  42.22
739.5  320463.80  136623.29  42.63
740.8  321185.43  138107.06  43.00
742.1  321876.80  139489.38  43.34
743.4  322500.00  140770.00  43.65
744.7  323372.88  142067.08  43.93
746.0  324226.50  143274.34  44.19
747.3  324831.15  144269.24  44.41
748.6  325557.25  145246.68  44.61
749.9  326222.00  146104.65  44.79
751.2  326822.70  146870.35  44.94
752.5  327554.90  147660.83  45.08
753.8  328075.65  148292.25  45.20
755.1  328770.00  148949.30  45.31
756.4  329337.03  149520.02  45.40
757.7  330344.18  150240.18  45.48
759.0  332165.85  151287.28  45.55
760.3  333326.40  152011.70  45.60
761.6  334867.40  152882.11  45.65
762.9  335418.25  153256.10  45.69
764.2  335765.80  153527.27  45.72
765.5  336001.83  153733.13  45.75
766.8  336355.20  153985.68  45.78
768.1  336855.60  154274.00  45.80
769.3  337440.60  154579.83  45.81
770.6  338083.20  154908.48  45.82
771.9  338776.20  155251.76  45.83
773.2  339124.40  155436.18  45.83
774.5  339682.20  155720.19  45.84
775.8  340314.60  156035.64  45.85
777.1  340850.95  156290.08  45.85
778.4  341153.45  156433.39  45.85
779.6  341926.68  156776.44  45.85
780.9  342330.00  156986.86  45.86
782.2  342762.75  157194.56  45.86
783.5  343033.50  157327.13  45.86
784.8  343452.15  157557.44  45.87
786.0  343802.55  157728.77  45.88
787.3  344179.13  157891.79  45.87
788.6  344569.28  158077.50  45.88
789.9  344958.60  158265.76  45.88
791.2  345555.60  158555.24  45.88
792.4  346171.55  158850.31  45.89
793.7  346591.80  159057.80  45.89
795.0  347179.80  159328.64  45.89
796.2  347794.45  159605.19  45.89
797.5  348430.65  159894.40  45.89
798.8  349044.53  160173.11  45.89
800.0  349650.68  160466.15  45.89
801.3  350025.60  160654.63  45.90
802.6  350576.33  160918.02  45.90
803.8  351192.23  161197.17  45.90
805.1  351643.25  161391.90  45.90
806.4  352044.00  161570.85  45.90
807.7  352507.95  161815.59  45.90
808.9  353042.80  162058.71  45.90
810.2  353458.35  162275.53  45.91
811.4  353962.70  162479.85  45.90
812.7  354534.38  162749.17  45.91
814.0  355330.25  163120.17  45.91
815.2  355918.75  163403.14  45.91
816.5  356335.98  163580.09  45.91
817.7  356726.25  163784.94  45.91
819.0  357159.00  164004.30  45.92
820.2  357280.00  164076.42  45.92
821.5  357959.05  164405.55  45.93
822.7  358261.08  164560.40  45.93
824.0  358570.80  164695.32  45.93
825.2  359046.68  164892.36  45.93
826.5  359290.00  165030.27  45.93
827.7  359803.30  165281.93  45.94
829.0  360175.20  165445.04  45.93
830.2  360441.05  165596.28  45.94
831.5  360879.40  165808.32  45.95
832.7  361211.03  165951.48  45.94
834.0  361506.03  166099.32  45.95
835.2  361844.73  166266.14  45.95
836.4  362139.80  166406.27  45.95
837.7  362489.60  166596.35  45.96
838.9  362889.18  166772.35  45.96
840.1  363210.08  166949.16  45.96
841.4  363647.90  167135.35  45.96
842.6  364024.40  167327.15  45.97
843.8  364257.60  167508.94  45.99
845.1  364765.10  167742.32  45.99
846.3  365107.50  167926.27  45.99
847.5  365460.90  168109.52  46.00
848.8  365856.00  168278.46  46.00
850.0  366251.90  168444.97  45.99
851.2  366741.00  168682.73  46.00
852.5  367024.40  168868.95  46.01
853.7  367488.00  169096.93  46.01
854.9  367912.60  169306.65  46.02
856.1  368358.90  169498.27  46.01
857.4  368561.05  169575.42  46.01
858.6  368993.75  169802.18  46.02
859.8  369352.50  169979.32  46.02
861.0  369813.60  170186.19  46.02
862.2  370158.60  170376.93  46.03
863.5  370473.35  170527.60  46.03
864.7  370986.00  170719.25  46.02
865.9  371330.60  170873.80  46.02
867.1  371639.80  170982.84  46.01
868.3  371929.65  171189.79  46.03
869.5  372424.95  171418.58  46.03
870.8  372861.00  171617.91  46.03
872.0  373325.10  171827.93  46.03
873.2  373635.15  171979.12  46.03
874.4  374104.58  172133.91  46.01
875.6  374463.85  172283.61  46.01
876.8  374861.20  172506.51  46.02
878.0  375345.05  172684.31  46.01
879.2  375809.55  172895.93  46.01
880.4  376228.88  173078.26  46.00
881.6  376612.48  173232.15  46.00
882.8  376982.40  173368.53  45.99
884.0  377553.58  173593.59  45.98
885.2  377987.00  173769.62  45.97
886.5  378589.85  174002.15  45.96
887.7  378915.23  174197.52  45.97
888.8  379521.45  174444.78  45.96
890.0  379969.50  174633.65  45.96
891.2  380515.70  174845.98  45.95
892.4  380955.23  175052.34  45.95
893.6  381546.00  175252.39  45.93
894.8  382398.00  175605.55  45.92
896.0  383105.00  175916.37  45.92
897.2  383857.50  176228.06  45.91
898.4  384443.40  176509.39  45.91
899.6  384960.75  176698.30  45.90
900.8  385222.95  176792.70  45.89
902.0  385340.85  176828.07  45.89
903.2  385589.33  176914.35  45.88
904.3  385900.50  177011.44  45.87
905.5  386406.18  177217.67  45.86
906.7  386921.50  177416.71  45.85
907.9  387249.45  177548.14  45.85
909.1  387459.45  177586.97  45.83
910.2  387486.60  177617.20  45.84
911.4  387597.60  177644.33  45.83
912.6  387744.50  177634.33  45.81
913.8  387912.30  177681.06  45.80
915.0  388219.65  177762.20  45.79
916.2  388362.00  177761.44  45.77
917.3  388122.98  177655.23  45.77
918.5  388348.50  177696.78  45.76
919.7  388467.15  177712.77  45.75
920.8  388433.00  177614.98  45.73
922.0  388484.25  177592.80  45.71
923.2  388615.50  177561.80  45.69
924.4  388695.38  177557.53  45.68
925.5  388771.30  177593.08  45.68
926.7  389110.88  177716.54  45.67
927.9  389986.20  178017.75  45.65
929.0  391419.00  178530.79  45.61
930.2  393412.10  179445.26  45.61
931.4  395780.18  180370.63  45.57
932.5  398419.75  181475.74  45.55
933.7  399746.43  182006.81  45.53
934.9  400316.88  182147.92  45.50
936.0  399644.38  181853.63  45.50
937.2  397410.90  180715.52  45.47
938.3  395644.05  179748.33  45.43
939.5  394066.80  178894.35  45.40
940.7  394166.70  178821.84  45.37
941.8  395407.95  179351.18  45.36
943.0  396859.50  179768.97  45.30
944.2  397446.40  179967.65  45.28
945.3  396990.75  179593.70  45.24
946.5  395941.50  179082.44  45.23
947.6  396083.90  178920.19  45.17
948.8  395811.00  178647.13  45.13
949.9  395984.40  178445.84  45.06
951.1  395234.78  178047.10  45.05
952.2  394944.00  177693.71  44.99
953.4  394811.25  177295.47  44.91
954.5  394453.80  176988.24  44.87
955.7  394342.20  176619.12  44.79
956.8  393963.20  176237.52  44.73
958.0  393384.00  175837.25  44.70
959.1  393212.95  175489.36  44.63
960.3  392567.33  175148.96  44.62
961.4  392402.15  174862.61  44.56
962.6  392231.00  174702.40  44.54
963.7  392029.35  174475.14  44.51
964.9  392101.05  174254.38  44.44
966.0  391677.53  174026.65  44.43
967.2  391734.45  173946.55  44.40
968.3  391015.35  173782.88  44.44
969.5  390845.85  173592.11  44.41
970.6  390933.65  173586.97  44.40
971.8  391049.05  173506.81  44.37
972.9  390905.70  173436.53  44.37
974.0  391405.90  173484.33  44.32
975.2  391270.38  173408.46  44.32
976.3  390792.25  173334.89  44.35
977.5  390654.78  173268.98  44.35
978.6  390497.60  173125.18  44.33
979.7  390747.00  173134.09  44.31
980.9  390501.05  173043.54  44.31
982.0  390679.30  173001.41  44.28
983.2  389324.85  172887.29  44.41
984.3  388817.00  172503.72  44.37
985.4  388802.40  172503.51  44.37
986.6  388741.13  172282.53  44.32
987.7  390030.55  172696.76  44.28
988.9  389511.00  172297.47  44.23
990.0  389319.50  172388.66  44.28
993.1  391963.19  172233.58  43.94
996.9  390646.38  172084.46  44.05
1000.7  390583.32  172473.55  44.16
1004.5  390645.33  172824.04  44.24
1008.4  390155.13  172998.98  44.34
1012.2  389870.21  173195.80  44.42
1016.0  389425.80  173322.86  44.51
1019.8  388686.38  173296.20  44.59
1023.7  387460.30  173003.16  44.65
1027.5  385817.60  172465.55  44.70
1031.3  384851.90  172174.20  44.74
1035.1  383805.98  171854.64  44.78
1038.9  383331.48  171729.61  44.80
1042.7  383002.92  171683.30  44.83
1046.5  382879.83  171668.91  44.84
1050.3  382857.76  171688.91  44.84
1054.2  382470.08  171565.42  44.86
1058.0  382053.64  171369.93  44.85
1061.8  381973.87  171363.82  44.86
1065.6  381483.40  171082.74  44.85
1069.4  380684.67  170690.01  44.84
1073.2  379359.74  170060.88  44.83
1077.0  378615.25  169649.83  44.81
1080.8  378661.46  169563.69  44.78
1084.6  378614.83  169420.53  44.75
1088.4  378846.98  169425.97  44.72
1092.2  378378.00  169060.82  44.68
1096.0  377700.76  168620.02  44.64
1099.8  377044.20  168118.54  44.59
1103.6  376123.75  167515.65  44.54
1107.4  374959.57  166787.93  44.48
1111.2  374642.50  166425.56  44.42
1114.9  374073.00  165910.00  44.35
1118.7  373772.03  165454.10  44.27
1122.5  373392.93  164884.57  44.16
1126.3  372416.92  163983.03  44.03
1130.1  372016.93  163130.66  43.85
1133.9  370344.10  161471.70  43.60
1137.7  368769.30  159663.08  43.30
1141.4  366685.69  157439.49  42.94
1145.2  365726.38  155558.55  42.53
1149.0  364412.71  153641.05  42.16
1152.8  362578.95  151701.46  41.84
1156.6  360727.03  150075.93  41.60
1160.3  358916.67  148739.24  41.44
1164.1  356569.27  147397.52  41.34
1167.9  354870.83  146498.36  41.28
1171.7  353548.13  145837.13  41.25
1175.4  352062.40  145159.46  41.23
1179.2  350625.40  144468.67  41.20
1183.0  350266.67  144194.24  41.17
1186.7  350200.67  144046.20  41.13
1190.5  349814.33  143761.41  41.10
1194.3  348862.87  143280.49  41.07
1198.0  347373.68  142643.21  41.06
1201.8  345646.13  141968.64  41.07
1205.6  344558.67  141634.81  41.11
1209.3  343944.37  141576.60  41.16
1213.1  343483.73  141574.91  41.22
1216.8  342877.88  141558.80  41.29
1220.6  341777.33  141328.00  41.35
1224.3  340533.00  141030.91  41.41
1228.1  339034.40  140647.23  41.48
1231.9  337427.40  140162.61  41.54
1235.6  335706.23  139582.00  41.58
1239.4  334076.63  139088.84  41.63
1243.1  332686.86  138610.11  41.66
1246.9  331379.40  138139.72  41.69
1250.6  330278.20  137735.69  41.70
1254.3  329082.69  137272.17  41.71
1258.1  327828.55  136750.63  41.71
1261.8  326347.20  136130.21  41.71
1265.6  325108.67  135561.77  41.70
1269.3  324249.15  135117.11  41.67
1273.1  324593.27  135123.03  41.63
1276.8  324392.00  134875.94  41.58
1280.6  323274.40  134244.07  41.53
1284.3  321276.00  133205.49  41.46
1288.0  319960.83  132397.43  41.38
1291.8  319424.86  131838.25  41.27
1295.5  318649.47  131157.09  41.16
1299.2  317514.43  130261.98  41.03
1302.9  315865.84  129080.92  40.87
1306.7  314088.37  127766.45  40.68
1310.4  312373.14  126365.94  40.45
1314.1  310769.98  124950.57  40.21
1317.9  309337.50  123476.46  39.92
1321.6  307798.36  121850.19  39.59
1325.3  306083.40  120064.35  39.23
1329.0  304749.67  118360.68  38.84
1332.8  302779.40  116298.60  38.41
1336.5  301104.47  114332.07  37.97
1340.2  300952.17  112939.67  37.53
1343.9  300927.29  111585.71  37.08
1347.6  301120.50  110310.79  36.63
1351.4  302591.00  109554.00  36.21
1355.1  304627.77  109003.98  35.78
