/*** Spectra Vista SIG Data ***/
name= 44_20220926_LIST_63_avg.sig
comm= Averaged Ref/Tar of files: HR.092722.0047_moc.sig,HR.092722.0048_moc.sig,HR.092722.0049_moc.sig
data=
337.3  3027.13  184.32  6.09
338.8  3126.50  187.82  6.01
340.3  3326.35  187.40  5.63
341.8  3520.83  187.26  5.32
343.2  3685.20  186.06  5.05
344.7  3881.15  170.60  4.40
346.2  4085.00  171.18  4.19
347.7  4286.43  161.04  3.76
349.2  4460.40  162.00  3.63
350.6  4664.08  164.39  3.52
352.1  4965.78  163.31  3.29
353.6  5239.70  158.63  3.03
355.1  5556.38  163.56  2.94
356.6  5833.95  165.44  2.84
358.0  6124.80  173.17  2.83
359.5  6396.30  173.63  2.71
361.0  6733.13  176.70  2.62
362.5  7113.83  181.22  2.55
364.0  7484.18  185.71  2.48
365.4  7811.80  187.33  2.40
366.9  8177.00  202.58  2.48
368.4  8537.08  207.81  2.43
369.9  8891.23  208.48  2.34
371.3  9345.00  221.23  2.37
372.8  9796.95  225.04  2.30
374.3  10212.50  227.80  2.23
375.8  10618.30  231.00  2.18
377.2  11029.00  243.38  2.21
378.7  11459.40  245.94  2.15
380.2  11862.90  251.07  2.12
381.7  12377.45  254.81  2.06
383.1  12828.20  251.53  1.96
384.6  13352.63  256.91  1.92
386.1  13836.80  265.10  1.92
387.6  14310.45  269.50  1.88
389.0  14766.80  280.76  1.90
390.5  15266.25  290.78  1.90
392.0  15843.55  292.21  1.84
393.4  16421.88  292.78  1.78
394.9  16938.90  300.77  1.78
396.4  17491.50  308.04  1.76
397.9  18040.00  319.70  1.77
399.3  18588.55  320.78  1.73
400.8  19142.40  332.33  1.74
402.2  19787.30  343.70  1.74
403.7  20415.60  348.51  1.71
405.2  21023.40  353.99  1.68
406.6  21599.20  360.15  1.67
408.1  22193.20  372.36  1.68
409.6  22784.10  380.46  1.67
411.0  23463.65  392.43  1.67
412.5  24136.18  406.58  1.68
414.0  24816.75  415.26  1.67
415.4  25499.63  424.00  1.66
416.9  26156.18  436.90  1.67
418.4  26854.65  455.31  1.70
419.8  27591.20  468.00  1.70
421.3  28341.75  482.12  1.70
422.7  29110.20  492.17  1.69
424.2  29868.75  507.85  1.70
425.7  30644.00  526.26  1.72
427.1  31428.45  541.06  1.72
428.6  32224.50  562.43  1.75
430.0  32975.28  573.76  1.74
431.5  33864.83  591.32  1.75
432.9  34720.50  609.72  1.76
434.4  35626.28  626.21  1.76
435.9  36484.00  645.33  1.77
437.3  37345.00  662.62  1.77
438.8  38200.05  682.63  1.79
440.2  39077.50  699.42  1.79
441.7  40039.20  718.49  1.79
443.1  40955.75  735.69  1.80
444.6  41933.10  756.06  1.80
446.0  42882.38  780.97  1.82
447.5  43854.53  802.58  1.83
448.9  44814.60  825.60  1.84
450.4  45830.05  846.07  1.85
451.8  46709.00  864.19  1.85
453.3  47632.23  884.12  1.86
454.7  48655.28  904.68  1.86
456.2  49527.63  923.23  1.86
457.6  50498.10  946.95  1.88
459.1  51487.80  968.28  1.88
460.5  52443.38  987.20  1.88
462.0  53518.43  1006.00  1.88
463.4  54567.10  1029.46  1.89
464.8  55569.38  1046.57  1.88
466.3  56534.78  1063.23  1.88
467.7  57510.45  1083.11  1.88
469.2  58580.15  1105.89  1.89
470.6  59586.05  1126.67  1.89
472.0  60635.10  1147.45  1.89
473.5  61683.88  1167.67  1.89
474.9  62714.25  1190.21  1.90
476.4  63878.40  1216.46  1.90
477.8  64945.50  1238.71  1.91
479.2  65946.00  1259.43  1.91
480.7  67048.20  1283.45  1.91
482.1  68189.55  1310.13  1.92
483.6  69388.90  1334.90  1.92
485.0  70478.78  1359.27  1.93
486.4  71673.30  1388.49  1.94
487.9  72759.38  1412.35  1.94
489.3  73919.50  1441.64  1.95
490.7  74979.70  1471.10  1.96
492.2  76204.80  1509.20  1.98
493.6  77308.05  1543.13  2.00
495.0  78419.25  1585.07  2.02
496.5  79611.88  1628.23  2.05
497.9  80727.18  1675.75  2.08
499.3  81901.18  1726.06  2.11
500.7  83168.05  1785.90  2.15
502.2  84344.20  1856.29  2.20
503.6  85614.40  1936.94  2.26
505.0  86698.70  2021.70  2.33
506.5  88014.68  2124.79  2.41
507.9  89172.38  2244.93  2.52
509.3  90516.80  2386.32  2.64
510.7  91757.25  2546.14  2.77
512.2  93132.15  2736.46  2.94
513.6  94638.25  2961.57  3.13
515.0  96089.88  3216.21  3.35
516.4  97481.48  3508.65  3.60
517.8  99129.25  3844.69  3.88
519.3  100481.43  4207.75  4.19
520.7  102059.20  4615.09  4.52
522.1  103373.08  5040.32  4.88
523.5  104694.80  5489.84  5.24
524.9  106187.40  5953.33  5.61
526.3  107653.70  6420.60  5.96
527.8  109162.35  6887.57  6.31
529.2  110140.80  7332.22  6.66
530.6  111655.15  7786.49  6.97
532.0  113372.00  8230.67  7.26
533.4  114695.18  8622.06  7.52
534.8  115573.28  8957.73  7.75
536.3  117196.50  9322.40  7.95
537.7  119183.40  9691.20  8.13
539.1  120661.75  9991.46  8.28
540.5  121849.60  10260.86  8.42
541.9  123625.73  10571.71  8.55
543.3  124905.83  10835.30  8.67
544.7  126232.20  11097.08  8.79
546.1  128027.63  11401.71  8.91
547.5  129270.40  11648.00  9.01
549.0  130900.00  11915.62  9.10
550.4  132408.75  12160.06  9.18
551.8  134004.30  12379.40  9.24
553.2  135515.08  12556.03  9.27
554.6  136864.00  12670.17  9.26
556.0  138379.50  12751.20  9.21
557.4  140007.00  12792.18  9.14
558.8  141660.45  12793.59  9.03
560.2  143133.50  12735.56  8.90
561.6  144803.25  12658.93  8.74
563.0  146398.60  12544.06  8.57
564.4  148005.95  12401.78  8.38
565.8  149515.00  12221.79  8.17
567.2  151274.00  12019.52  7.95
568.6  152761.13  11769.86  7.70
570.0  154187.78  11486.12  7.45
571.4  155915.50  11207.86  7.19
572.8  157685.75  10937.47  6.94
574.2  159308.80  10664.53  6.69
575.6  160875.00  10406.79  6.47
577.0  162403.60  10174.30  6.26
578.4  164129.88  9973.17  6.08
579.8  165664.58  9789.82  5.91
581.2  167374.50  9635.91  5.76
582.5  168819.30  9485.91  5.62
583.9  170333.00  9356.84  5.49
585.3  172137.38  9261.75  5.38
586.7  173628.98  9166.48  5.28
588.1  175121.38  9083.36  5.19
589.5  176779.75  9030.00  5.11
590.9  178423.60  8990.59  5.04
592.3  180218.00  8978.63  4.98
593.7  181683.45  8965.45  4.93
595.0  183307.73  8968.95  4.89
596.4  184770.60  8970.03  4.85
597.8  186266.45  8971.94  4.82
599.2  187809.60  8973.49  4.78
600.6  189574.78  8968.36  4.73
602.0  190876.65  8926.98  4.68
603.3  192667.45  8890.09  4.61
604.7  194349.10  8823.63  4.54
606.1  195849.60  8730.80  4.46
607.5  197484.35  8620.24  4.37
608.9  199186.85  8496.90  4.27
610.2  200576.25  8345.70  4.16
611.6  202197.38  8202.08  4.06
613.0  203745.00  8054.84  3.95
614.4  205140.45  7906.89  3.85
615.8  206592.75  7772.14  3.76
617.1  208137.30  7655.20  3.68
618.5  209775.20  7557.87  3.60
619.9  211293.23  7480.98  3.54
621.3  212919.30  7419.77  3.48
622.6  214506.50  7382.45  3.44
624.0  215975.55  7360.09  3.41
625.4  217459.28  7355.31  3.38
626.8  219032.45  7372.52  3.37
628.1  220319.28  7384.69  3.35
629.5  222096.00  7420.51  3.34
630.9  223577.20  7452.90  3.33
632.2  224850.85  7464.15  3.32
633.6  226358.25  7473.03  3.30
635.0  227796.80  7446.78  3.27
636.3  229311.50  7396.16  3.23
637.7  230670.50  7310.74  3.17
639.1  232312.50  7210.00  3.10
640.4  233804.90  7076.73  3.03
641.8  235004.80  6924.59  2.95
643.2  236578.13  6775.68  2.86
644.5  237943.50  6618.67  2.78
645.9  239517.90  6480.35  2.71
647.2  240573.90  6340.17  2.64
648.6  242149.50  6242.78  2.58
650.0  243475.20  6163.20  2.53
651.3  244387.28  6086.66  2.49
652.7  246519.75  6039.10  2.45
654.0  248579.50  5982.35  2.41
655.4  249955.63  5914.99  2.37
656.8  250063.20  5832.82  2.33
658.1  251470.60  5763.64  2.29
659.5  253878.45  5693.20  2.24
660.8  255375.00  5601.43  2.19
662.2  256412.80  5497.60  2.14
663.5  257981.05  5417.26  2.10
664.9  258989.90  5346.10  2.06
666.2  259784.40  5287.83  2.04
667.6  261492.73  5268.70  2.01
668.9  262461.30  5253.69  2.00
670.3  264293.50  5263.45  1.99
671.6  265323.00  5282.61  1.99
673.0  266473.50  5320.54  2.00
674.3  267763.60  5365.04  2.00
675.7  269072.18  5426.25  2.02
677.0  270136.63  5499.96  2.04
678.4  271436.10  5592.25  2.06
679.7  272493.30  5701.33  2.09
681.1  273774.15  5829.90  2.13
682.4  274857.70  5983.84  2.18
683.8  276051.10  6164.85  2.23
685.1  277027.13  6401.50  2.31
686.4  278321.40  6714.97  2.41
687.8  279549.00  7115.76  2.55
689.1  280617.00  7658.24  2.73
690.5  281945.25  8403.60  2.98
691.8  282757.98  9428.80  3.33
693.1  284076.30  10833.17  3.81
694.5  285262.25  12638.17  4.43
695.8  286468.00  14882.83  5.20
697.1  287628.25  17571.67  6.11
698.5  288653.20  20680.78  7.16
699.8  289741.15  24180.19  8.35
701.1  290874.90  28039.26  9.64
702.5  291661.70  32119.79  11.01
703.8  292590.00  36407.14  12.44
705.1  293722.65  40832.72  13.90
706.5  294745.88  45321.10  15.38
707.8  295690.50  49834.11  16.85
709.1  296542.98  54324.17  18.32
710.5  297614.58  58861.46  19.78
711.8  298440.90  63315.01  21.22
713.1  299422.10  67772.89  22.63
714.4  300314.10  72177.67  24.03
715.8  301139.20  76508.11  25.41
717.1  302462.55  80902.74  26.75
718.4  303408.00  85130.67  28.06
719.7  304491.30  89307.09  29.33
721.0  304987.50  93222.86  30.57
722.4  305687.80  97093.86  31.76
723.7  306658.35  100902.51  32.90
725.0  307673.78  104597.77  34.00
726.3  308616.83  108110.07  35.03
727.6  309141.80  111320.79  36.01
729.0  310037.70  114491.82  36.93
730.3  310814.48  117451.62  37.79
731.6  311691.60  120282.99  38.59
732.9  312443.60  122907.52  39.34
734.2  313225.00  125376.82  40.03
735.5  314270.48  127790.04  40.66
736.8  315067.80  129959.51  41.25
738.1  315910.20  132005.39  41.79
739.5  316861.73  133961.73  42.28
740.8  317514.18  135670.75  42.73
742.1  318160.55  137270.02  43.14
743.4  318775.00  138747.62  43.53
744.7  319697.33  140227.15  43.86
746.0  320576.10  141614.76  44.18
747.3  321181.08  142772.26  44.45
748.6  321900.75  143900.81  44.70
749.9  322556.00  144916.57  44.93
751.2  323109.40  145822.36  45.13
752.5  323841.60  146751.31  45.32
753.8  324346.93  147505.03  45.48
755.1  324974.00  148269.33  45.62
756.4  325518.70  148940.65  45.75
757.7  326511.15  149762.38  45.87
759.0  328284.55  150896.15  45.97
760.3  329445.60  151704.46  46.05
761.6  330983.80  152663.73  46.12
762.9  331459.25  153117.00  46.19
764.2  331784.60  153468.34  46.26
765.5  332002.13  153743.94  46.31
766.8  332384.00  154058.21  46.35
768.1  332855.20  154415.96  46.39
769.3  333403.70  154776.80  46.42
770.6  334002.50  155175.74  46.46
771.9  334690.83  155579.67  46.48
773.2  335034.80  155824.04  46.51
774.5  335563.80  156145.11  46.53
775.8  336189.05  156496.14  46.55
777.1  336711.65  156790.91  46.57
778.4  336975.10  156980.98  46.59
779.6  337646.28  157364.15  46.61
780.9  338040.00  157611.43  46.63
782.2  338467.25  157856.02  46.64
783.5  338733.00  158013.24  46.65
784.8  339167.48  158252.62  46.66
786.0  339503.85  158443.73  46.67
787.3  339804.10  158628.00  46.68
788.6  340177.43  158831.00  46.69
789.9  340547.20  159055.73  46.71
791.2  341157.98  159353.79  46.71
792.4  341752.90  159652.39  46.72
793.7  342183.00  159874.67  46.72
795.0  342748.73  160162.99  46.73
796.2  343310.98  160450.06  46.74
797.5  343916.40  160773.44  46.75
798.8  344500.50  161062.12  46.75
800.0  345084.28  161363.12  46.76
801.3  345477.00  161562.97  46.77
802.6  346028.63  161831.06  46.77
803.8  346582.53  162121.94  46.78
805.1  347015.38  162332.17  46.78
806.4  347395.80  162538.23  46.79
807.7  347814.00  162774.90  46.80
808.9  348290.90  163022.44  46.81
810.2  348751.90  163258.63  46.81
811.4  349190.80  163489.61  46.82
812.7  349781.25  163780.65  46.82
814.0  350556.85  164161.07  46.83
815.2  351117.50  164455.24  46.84
816.5  351474.35  164638.98  46.84
817.7  351927.05  164870.48  46.85
819.0  352422.95  165110.00  46.85
820.2  352528.00  165201.14  46.86
821.5  353181.50  165528.18  46.87
822.7  353461.93  165697.87  46.88
824.0  353705.40  165852.00  46.89
825.2  354156.30  166073.14  46.89
826.5  354420.68  166227.90  46.90
827.7  355000.80  166482.09  46.90
829.0  355351.43  166671.99  46.90
830.2  355644.40  166820.75  46.91
831.5  356065.00  167052.04  46.92
832.7  356373.15  167203.75  46.92
834.0  356695.60  167377.17  46.92
835.2  357064.95  167549.75  46.92
836.4  357338.30  167707.00  46.93
837.7  357720.00  167927.09  46.94
838.9  358097.65  168151.84  46.96
840.1  358447.95  168347.12  46.97
841.4  358868.30  168559.48  46.97
842.6  359227.00  168781.51  46.98
843.8  359569.60  168963.33  46.99
845.1  360017.10  169232.29  47.01
846.3  360419.70  169441.93  47.01
847.5  360832.50  169661.60  47.02
848.8  361221.00  169867.60  47.03
850.0  361553.15  170079.83  47.04
851.2  362109.15  170366.27  47.05
852.5  362459.10  170566.47  47.06
853.7  362920.50  170812.07  47.07
854.9  363351.70  171029.03  47.07
856.1  363806.30  171264.48  47.08
857.4  364016.78  171384.08  47.08
858.6  364462.85  171651.15  47.10
859.8  364843.13  171851.79  47.10
861.0  365250.60  172056.86  47.11
862.2  365680.88  172292.57  47.12
863.5  366092.03  172489.45  47.12
864.7  366557.40  172732.69  47.12
865.9  366926.60  172909.43  47.12
867.1  367190.80  173073.16  47.13
868.3  367663.20  173281.32  47.13
869.5  368112.90  173519.49  47.14
870.8  368577.00  173778.86  47.15
872.0  369072.23  174003.34  47.15
873.2  369493.20  174207.51  47.15
874.4  369918.90  174429.45  47.15
875.6  370315.55  174608.48  47.15
876.8  370748.05  174849.20  47.16
878.0  371180.90  175057.60  47.16
879.2  371677.05  175288.85  47.16
880.4  372131.25  175516.93  47.17
881.6  372552.88  175730.74  47.17
882.8  372959.20  175920.23  47.17
884.0  373571.13  176176.00  47.16
885.2  374040.50  176385.58  47.16
886.5  374502.75  176616.88  47.16
887.7  374864.10  176817.67  47.17
888.8  375596.63  177099.58  47.15
890.0  376086.60  177336.71  47.15
891.2  376674.00  177574.89  47.14
892.4  377154.23  177841.55  47.15
893.6  377595.65  178082.33  47.16
894.8  378488.00  178463.57  47.15
896.0  379333.50  178801.24  47.14
897.2  380029.00  179143.09  47.14
898.4  380760.60  179434.20  47.13
899.6  381221.25  179654.29  47.13
900.8  381533.08  179784.77  47.12
902.0  381704.55  179879.72  47.13
903.2  381899.48  179955.12  47.12
904.3  382157.10  180060.69  47.12
905.5  382605.83  180298.40  47.12
906.7  383176.00  180519.05  47.11
907.9  383679.80  180697.77  47.10
909.1  383956.20  180789.94  47.09
910.2  383933.85  180829.33  47.10
911.4  384119.78  180858.32  47.08
912.6  384219.55  180901.13  47.08
913.8  384215.55  180941.24  47.09
915.0  384596.10  181046.60  47.07
916.2  384686.25  181071.43  47.07
917.3  384654.15  181002.92  47.06
918.5  384705.70  181024.86  47.06
919.7  384783.75  181037.86  47.05
920.8  384841.33  180977.34  47.03
922.0  384846.00  180937.17  47.02
923.2  384930.00  180960.00  47.01
924.4  385097.63  180968.14  46.99
925.5  385263.80  180987.00  46.98
926.7  385693.88  181141.68  46.97
927.9  386515.80  181369.71  46.92
929.0  387887.40  181905.43  46.90
930.2  389959.80  182836.09  46.89
931.4  392256.00  183826.22  46.86
932.5  394819.10  184937.73  46.84
933.7  395922.63  185393.60  46.83
934.9  396593.75  185539.58  46.78
936.0  396033.63  185148.63  46.75
937.2  393936.45  184011.92  46.71
938.3  391966.75  182957.61  46.68
939.5  390344.40  182075.31  46.64
940.7  390384.90  181984.80  46.62
941.8  391899.45  182508.83  46.57
943.0  393095.25  182988.64  46.55
944.2  393976.05  183137.07  46.48
945.3  393471.00  182674.14  46.43
946.5  392563.80  182074.12  46.38
947.6  392460.60  181818.83  46.33
948.8  392124.53  181496.53  46.29
949.9  392036.40  181288.40  46.24
951.1  391625.33  180797.16  46.17
952.2  391476.00  180355.43  46.07
953.4  391288.00  179833.79  45.96
954.5  391084.20  179451.26  45.89
955.7  390700.80  178989.60  45.81
956.8  390258.90  178574.24  45.76
958.0  389618.50  178001.62  45.69
959.1  389375.63  177570.33  45.60
960.3  388887.73  177168.36  45.56
961.4  388883.90  176873.04  45.48
962.6  388874.50  176752.83  45.45
963.7  388349.48  176470.45  45.44
964.9  388335.68  176219.55  45.38
966.0  387819.90  176005.67  45.38
967.2  387772.20  175923.90  45.37
968.3  387487.80  175705.59  45.34
969.5  387211.38  175546.47  45.34
970.6  387180.23  175489.80  45.33
971.8  387156.53  175491.57  45.33
972.9  387159.00  175321.77  45.28
974.0  387495.10  175458.35  45.28
975.2  387518.00  175338.25  45.25
976.3  387207.00  175301.65  45.27
977.5  387251.20  175257.10  45.26
978.6  387296.80  175281.91  45.26
979.7  386924.48  175229.40  45.29
980.9  386893.65  175173.62  45.28
982.0  386839.70  175158.90  45.28
983.2  386770.23  174930.99  45.23
984.3  385554.20  174689.27  45.31
985.4  385909.53  174729.65  45.28
986.6  385670.50  174762.43  45.31
987.7  385464.98  175106.88  45.43
988.9  385374.60  174976.29  45.40
990.0  386408.70  175063.83  45.31
993.1  385903.93  173020.50  44.84
996.9  384684.43  173074.82  44.99
1000.7  384718.89  173626.62  45.13
1004.5  384829.42  174173.13  45.26
1008.4  384439.71  174542.89  45.40
1012.2  384317.58  174965.31  45.53
1016.0  384038.40  175287.60  45.64
1019.8  383471.55  175444.50  45.75
1023.7  382338.18  175306.76  45.85
1027.5  380722.17  174910.75  45.94
1031.3  379703.15  174724.06  46.02
1035.1  378689.91  174513.65  46.08
1038.9  378179.27  174504.97  46.14
1042.7  377848.67  174563.75  46.20
1046.5  377701.00  174669.59  46.25
1050.3  377627.38  174772.22  46.28
1054.2  377276.08  174736.58  46.32
1058.0  376826.28  174608.81  46.34
1061.8  376755.32  174662.90  46.36
1065.6  376167.50  174420.73  46.37
1069.4  375368.67  174044.15  46.37
1073.2  374080.56  173416.51  46.36
1077.0  373390.90  173025.50  46.34
1080.8  373495.83  172968.60  46.31
1084.6  373508.22  172856.60  46.28
1088.4  373735.51  172872.05  46.26
1092.2  373259.25  172491.43  46.21
1096.0  372558.04  171996.22  46.17
1099.8  371821.67  171455.61  46.11
1103.6  370884.63  170793.60  46.05
1107.4  369741.00  169999.97  45.98
1111.2  369407.20  169571.49  45.90
1114.9  368836.42  168976.75  45.81
1118.7  368544.83  168421.63  45.70
1122.5  368153.93  167694.06  45.55
1126.3  367218.54  166580.31  45.36
1130.1  366791.38  165438.05  45.10
1133.9  365112.30  163406.80  44.76
1137.7  363577.90  161109.63  44.31
1141.4  361536.39  158319.34  43.79
1145.2  360614.48  155859.25  43.22
1149.0  359305.63  153403.75  42.69
1152.8  357472.55  151031.60  42.25
1156.6  355630.92  149083.18  41.92
1160.3  353806.67  147553.86  41.70
1164.1  351407.57  146113.15  41.58
1167.9  349767.71  145184.08  41.51
1171.7  348468.75  144490.50  41.46
1175.4  347024.23  143793.63  41.44
1179.2  345612.45  143089.94  41.40
1183.0  345273.00  142781.00  41.35
1186.7  345228.10  142618.73  41.31
1190.5  344858.53  142348.79  41.28
1194.3  343910.70  141891.92  41.26
1198.0  342420.65  141290.01  41.26
1201.8  340690.63  140649.32  41.28
1205.6  339600.67  140342.66  41.33
1209.3  338990.62  140327.94  41.40
1213.1  338476.80  140382.78  41.47
1216.8  337818.89  140434.25  41.57
1220.6  336685.07  140272.00  41.66
1224.3  335411.75  140038.22  41.75
1228.1  333854.60  139713.26  41.85
1231.9  332271.63  139298.33  41.92
1235.6  330529.35  138777.90  41.99
1239.4  328936.13  138349.16  42.06
1243.1  327555.58  137934.88  42.11
1246.9  326285.73  137531.60  42.15
1250.6  325221.00  137184.88  42.18
1254.3  324040.57  136756.59  42.20
1258.1  322807.80  136272.47  42.21
1261.8  321386.67  135678.57  42.22
1265.6  320211.42  135127.28  42.20
1269.3  319391.68  134693.98  42.17
1273.1  319710.42  134688.84  42.13
1276.8  319488.40  134398.00  42.07
1280.6  318364.40  133692.29  41.99
1284.3  316388.80  132568.23  41.90
1288.0  315137.06  131668.87  41.78
1291.8  314649.81  130998.32  41.63
1295.5  313890.13  130159.12  41.47
1299.2  312726.02  129073.40  41.27
1302.9  311105.30  127676.17  41.04
1306.7  309324.75  126108.38  40.77
1310.4  307596.56  124420.09  40.45
1314.1  305991.95  122672.42  40.09
1317.9  304562.08  120838.90  39.68
1321.6  303043.37  118822.70  39.21
1325.3  301378.88  116619.15  38.70
1329.0  300103.53  114476.53  38.15
1332.8  298144.00  111973.40  37.56
1336.5  296493.93  109571.05  36.96
1340.2  296326.33  107744.00  36.36
1343.9  296303.96  105984.70  35.77
1347.6  296500.95  104344.89  35.19
1351.4  298003.00  103227.78  34.64
1355.1  300039.67  102323.41  34.10
1358.8  301744.00  101213.71  33.54
1362.5  302003.43  99441.59  32.93
