/*** Spectra Vista SIG Data ***/
name= 44_20220825_LIST_63_avg.sig
comm= Averaged Ref/Tar of files: HR.082522.0050_moc.sig,HR.082522.0051_moc.sig,HR.082522.0052_moc.sig
data=
337.3  3324.88  251.43  7.56
338.8  3463.20  243.71  7.04
340.3  3607.45  237.37  6.58
341.8  3795.18  231.67  6.10
343.2  3996.00  242.72  6.07
344.7  4137.05  227.47  5.50
346.2  4330.10  217.87  5.03
347.7  4522.38  220.22  4.87
349.2  4725.00  206.64  4.37
350.6  4957.88  220.35  4.44
352.1  5251.58  214.35  4.08
353.6  5552.00  217.45  3.92
355.1  5859.45  211.03  3.60
356.6  6128.93  218.50  3.57
358.0  6380.00  225.43  3.53
359.5  6674.40  230.72  3.46
361.0  7002.45  231.42  3.30
362.5  7406.58  230.30  3.11
364.0  7770.93  229.40  2.95
365.4  8120.90  232.29  2.86
366.9  8480.88  250.47  2.95
368.4  8864.38  254.57  2.87
369.9  9242.55  266.65  2.88
371.3  9692.10  284.80  2.94
372.8  10115.55  286.74  2.83
374.3  10561.88  290.25  2.75
375.8  10968.65  283.87  2.59
377.2  11405.60  294.11  2.58
378.7  11836.00  308.45  2.61
380.2  12239.50  315.63  2.58
381.7  12782.83  309.89  2.42
383.1  13286.35  316.21  2.38
384.6  13811.20  320.10  2.32
386.1  14323.25  331.51  2.31
387.6  14795.55  330.59  2.23
389.0  15302.80  346.61  2.27
390.5  15823.80  343.38  2.17
392.0  16399.00  356.19  2.17
393.4  16999.93  360.84  2.12
394.9  17565.30  368.88  2.10
396.4  18138.38  382.95  2.11
397.9  18731.88  389.50  2.08
399.3  19297.65  405.20  2.10
400.8  19865.23  412.09  2.07
402.2  20523.80  422.26  2.06
403.7  21161.93  433.35  2.05
405.2  21828.35  435.62  2.00
406.6  22434.40  445.44  1.99
408.1  23052.00  458.03  1.99
409.6  23662.10  474.12  2.00
411.0  24360.35  489.63  2.01
412.5  25052.48  497.02  1.98
414.0  25713.25  505.30  1.97
415.4  26433.75  519.40  1.96
416.9  27139.20  537.13  1.98
418.4  27863.10  557.76  2.00
419.8  28610.40  577.55  2.02
421.3  29375.60  591.79  2.01
422.7  30189.00  607.84  2.01
424.2  30965.63  625.50  2.02
425.7  31768.70  645.48  2.03
427.1  32552.03  666.76  2.05
428.6  33387.00  688.20  2.06
430.0  34174.10  706.14  2.07
431.5  35088.68  726.35  2.07
432.9  35980.40  746.17  2.07
434.4  36901.20  767.82  2.08
435.9  37772.00  793.33  2.10
437.3  38651.25  814.00  2.11
438.8  39530.40  838.03  2.12
440.2  40425.00  858.81  2.12
441.7  41419.40  884.40  2.14
443.1  42373.50  909.83  2.15
444.6  43374.10  934.47  2.15
446.0  44348.55  963.61  2.17
447.5  45340.90  994.36  2.19
448.9  46311.00  1019.96  2.20
450.4  47358.15  1046.36  2.21
451.8  48269.00  1074.67  2.23
453.3  49227.38  1101.79  2.24
454.7  50288.98  1129.54  2.25
456.2  51180.75  1151.46  2.25
457.6  52197.30  1180.59  2.26
459.1  53193.40  1206.36  2.27
460.5  54182.13  1232.28  2.27
462.0  55290.20  1260.53  2.28
463.4  56375.50  1287.80  2.28
464.8  57400.88  1311.65  2.29
466.3  58414.13  1335.18  2.29
467.7  59424.65  1362.46  2.29
469.2  60522.50  1390.61  2.30
470.6  61539.00  1416.24  2.30
472.0  62633.75  1448.79  2.31
473.5  63689.63  1476.53  2.32
474.9  64766.25  1506.70  2.33
476.4  65937.60  1541.76  2.34
477.8  67033.50  1573.73  2.35
479.2  68077.50  1602.73  2.35
480.7  69233.93  1642.43  2.37
482.1  70414.85  1674.27  2.38
483.6  71672.00  1710.88  2.39
485.0  72794.78  1754.37  2.41
486.4  74044.95  1798.38  2.43
487.9  75172.50  1842.75  2.45
489.3  76378.58  1894.62  2.48
490.7  77482.95  1945.66  2.51
492.2  78747.90  2003.12  2.54
493.6  79901.10  2066.63  2.59
495.0  81051.75  2135.25  2.63
496.5  82282.73  2212.99  2.69
497.9  83427.38  2293.21  2.75
499.3  84630.73  2389.09  2.82
500.7  85936.90  2496.36  2.90
502.2  87147.40  2616.32  3.00
503.6  88461.40  2760.37  3.12
505.0  89584.75  2922.19  3.26
506.5  90940.13  3110.63  3.42
507.9  92152.20  3318.82  3.60
509.3  93550.80  3563.84  3.81
510.7  94813.88  3843.45  4.05
512.2  96258.75  4164.94  4.33
513.6  97795.25  4538.43  4.64
515.0  99290.50  4948.40  4.98
516.4  100713.38  5399.73  5.36
517.8  102392.13  5906.13  5.77
519.3  103760.90  6436.97  6.20
520.7  105375.00  7006.27  6.65
522.1  106727.08  7572.59  7.10
523.5  108100.30  8150.96  7.54
524.9  109563.30  8723.40  7.96
526.3  110982.90  9272.01  8.35
527.8  112563.00  9808.92  8.71
529.2  113776.40  10298.88  9.05
530.6  115383.25  10785.48  9.35
532.0  117152.00  11237.33  9.59
533.4  118523.33  11600.29  9.79
534.8  119448.20  11886.63  9.95
536.3  121156.80  12218.88  10.09
537.7  123190.20  12564.72  10.20
539.1  124704.35  12847.58  10.30
540.5  125946.60  13108.79  10.41
541.9  127794.08  13425.07  10.51
543.3  129119.13  13692.45  10.60
544.7  130507.20  13971.84  10.71
546.1  132357.23  14304.22  10.81
547.5  133616.00  14558.51  10.90
549.0  135399.00  14864.67  10.98
550.4  136935.00  15122.92  11.04
551.8  138540.58  15351.06  11.08
553.2  140103.13  15536.52  11.09
554.6  141481.60  15647.15  11.06
556.0  143068.05  15730.62  11.00
557.4  144715.20  15765.59  10.89
558.8  146411.10  15758.22  10.76
560.2  147926.75  15680.08  10.60
561.6  149640.45  15570.78  10.41
563.0  151290.43  15406.63  10.18
564.4  152932.80  15201.85  9.94
565.8  154487.50  14948.67  9.68
567.2  156294.25  14687.37  9.40
568.6  157850.63  14378.20  9.11
570.0  159324.08  14043.61  8.81
571.4  161097.95  13728.52  8.52
572.8  162914.50  13430.10  8.24
574.2  164595.20  13135.36  7.98
575.6  166196.25  12862.50  7.74
577.0  167759.80  12615.32  7.52
578.4  169544.38  12413.92  7.32
579.8  171103.73  12220.11  7.14
581.2  172872.63  12065.78  6.98
582.5  174341.70  11909.04  6.83
583.9  175890.80  11776.40  6.70
585.3  177754.05  11681.73  6.57
586.7  179280.73  11582.48  6.46
588.1  180808.00  11497.73  6.36
589.5  182500.50  11444.77  6.27
590.9  184177.20  11409.65  6.19
592.3  186041.20  11395.40  6.13
593.7  187526.63  11370.32  6.06
595.0  189207.23  11356.11  6.00
596.4  190688.75  11330.39  5.94
597.8  192202.50  11298.54  5.88
599.2  193789.20  11260.48  5.81
600.6  195584.35  11214.32  5.73
602.0  196917.90  11123.06  5.65
603.3  198764.95  11038.73  5.55
604.7  200489.18  10921.77  5.45
606.1  202018.20  10780.56  5.34
607.5  203694.90  10627.56  5.22
608.9  205425.05  10470.06  5.10
610.2  206841.60  10298.61  4.98
611.6  208471.73  10138.28  4.86
613.0  210074.10  9982.06  4.75
614.4  211484.25  9826.10  4.65
615.8  212983.88  9691.50  4.55
617.1  214561.20  9580.48  4.47
618.5  216242.80  9495.68  4.39
619.9  217800.53  9432.60  4.33
621.3  219476.93  9398.76  4.28
622.6  221125.00  9379.77  4.24
624.0  222649.95  9381.24  4.21
625.4  224183.85  9396.64  4.19
626.8  225832.43  9440.34  4.18
628.1  227182.45  9473.24  4.17
629.5  229053.03  9538.23  4.16
630.9  230639.48  9590.83  4.16
632.2  231997.33  9614.64  4.14
633.6  233602.13  9619.68  4.12
635.0  235141.20  9593.01  4.08
636.3  236715.90  9533.45  4.03
637.7  238159.13  9424.20  3.96
639.1  239855.00  9284.33  3.87
640.4  241387.48  9101.45  3.77
641.8  242633.90  8881.60  3.66
643.2  244274.80  8671.23  3.55
644.5  245663.25  8455.83  3.44
645.9  247396.05  8260.68  3.34
647.2  249062.28  8090.34  3.25
648.6  250897.50  7951.50  3.17
650.0  252396.00  7827.84  3.10
651.3  252992.30  7696.59  3.04
652.7  254356.75  7594.21  2.99
654.0  256480.00  7517.31  2.93
655.4  258017.98  7430.72  2.88
656.8  258303.30  7318.48  2.83
658.1  259483.70  7224.65  2.78
659.5  261915.15  7157.78  2.73
660.8  263677.50  7080.00  2.69
662.2  264566.40  7000.75  2.65
663.5  266265.15  6952.15  2.61
664.9  267586.80  6915.83  2.58
666.2  268375.80  6896.80  2.57
667.6  270221.80  6926.70  2.56
668.9  271336.15  6973.74  2.57
670.3  272594.63  7046.63  2.59
671.6  274150.88  7150.80  2.61
673.0  275367.75  7274.70  2.64
674.3  276669.90  7416.76  2.68
675.7  278034.63  7587.91  2.73
677.0  279188.90  7776.29  2.79
678.4  280598.50  8008.29  2.85
679.7  281743.80  8263.78  2.93
681.1  283067.73  8573.93  3.03
682.4  284250.20  8928.40  3.14
683.8  285509.90  9349.77  3.27
685.1  286563.00  9864.80  3.44
686.4  287911.80  10510.96  3.65
687.8  289205.50  11329.70  3.92
689.1  290318.00  12373.97  4.26
690.5  291734.55  13746.74  4.71
691.8  292602.03  15495.76  5.30
693.1  293997.00  17748.54  6.04
694.5  295158.50  20471.97  6.94
695.8  296387.00  23699.43  8.00
697.1  297615.50  27409.20  9.21
698.5  298709.30  31568.13  10.57
699.8  299831.53  36122.79  12.05
701.1  301033.30  41014.54  13.62
702.5  301876.85  46080.17  15.26
703.8  302895.00  51294.00  16.93
705.1  304083.00  56597.71  18.61
706.5  305172.63  61883.28  20.28
707.8  306217.35  67103.64  21.91
709.1  307125.03  72196.07  23.51
710.5  308330.58  77229.62  25.05
711.8  309211.80  82066.97  26.54
713.1  310282.20  86812.41  27.98
714.4  311241.10  91382.43  29.36
715.8  312110.80  95779.99  30.69
717.1  313503.45  100184.62  31.96
718.4  314473.60  104309.33  33.17
719.7  315638.90  108326.50  34.32
721.0  316192.50  111978.00  35.41
722.4  316985.35  115555.22  36.45
723.7  318006.00  119033.30  37.43
725.0  319127.18  122384.73  38.35
726.3  320120.63  125531.41  39.21
727.6  320714.08  128358.67  40.02
729.0  321637.75  131167.68  40.78
730.3  322442.10  133769.11  41.49
731.6  323405.50  136273.25  42.14
732.9  324267.30  138582.45  42.74
734.2  325122.88  140761.13  43.29
735.5  326221.18  142909.67  43.81
736.8  327060.00  144819.64  44.28
738.1  327955.80  146644.03  44.71
739.5  328973.40  148395.82  45.11
740.8  329702.73  149920.80  45.47
742.1  330448.95  151355.43  45.80
743.4  331175.00  152686.67  46.10
744.7  332158.95  154060.93  46.38
746.0  333099.00  155311.00  46.63
747.3  333739.38  156345.73  46.85
748.6  334518.25  157380.57  47.05
749.9  335296.00  158326.13  47.22
751.2  335949.05  159173.31  47.38
752.5  336812.00  160062.41  47.52
753.8  337410.50  160792.36  47.65
755.1  338130.00  161525.87  47.77
756.4  338791.93  162167.12  47.87
757.7  339861.55  162975.70  47.95
759.0  341764.20  164133.53  48.03
760.3  343015.20  164961.28  48.09
761.6  344656.20  165955.63  48.15
762.9  345235.50  166413.53  48.20
764.2  345665.00  166754.89  48.24
765.5  345974.05  167043.33  48.28
766.8  346446.40  167377.92  48.31
768.1  347021.00  167746.45  48.34
769.3  347671.10  168130.43  48.36
770.6  348368.80  168549.68  48.38
771.9  349116.43  168989.89  48.41
773.2  349547.20  169260.21  48.42
774.5  350178.40  169628.51  48.44
775.8  350902.55  170034.21  48.46
777.1  351519.85  170368.15  48.47
778.4  351923.00  170578.69  48.47
779.6  352716.85  171013.87  48.48
780.9  353250.00  171300.00  48.49
782.2  353743.50  171590.10  48.51
783.5  354074.50  171796.33  48.52
784.8  354641.63  172098.03  48.53
786.0  355078.85  172338.41  48.54
787.3  355510.13  172571.13  48.54
788.6  355962.63  172830.97  48.55
789.9  356454.00  173111.49  48.56
791.2  357152.30  173481.42  48.57
792.4  357877.68  173866.18  48.58
793.7  358415.40  174134.24  48.58
795.0  359086.20  174469.35  48.59
796.2  359773.20  174839.55  48.60
797.5  360549.68  175231.61  48.60
798.8  361232.38  175617.76  48.62
800.0  361958.55  175987.15  48.62
801.3  362480.10  176254.64  48.62
802.6  363082.50  176577.90  48.63
803.8  363794.55  176923.26  48.63
805.1  364322.88  177203.72  48.64
806.4  364807.50  177464.72  48.65
807.7  365397.08  177764.76  48.65
808.9  365974.20  178084.59  48.66
810.2  366588.95  178375.77  48.66
811.4  367075.40  178642.83  48.67
812.7  367737.50  178993.75  48.67
814.0  368621.70  179435.95  48.68
815.2  369278.75  179781.07  48.68
816.5  369737.15  180006.95  48.69
817.7  370266.85  180267.09  48.69
819.0  370802.30  180537.65  48.69
820.2  370964.00  180634.67  48.69
821.5  371755.90  181011.10  48.69
822.7  372115.23  181214.70  48.70
824.0  372478.50  181396.80  48.70
825.2  373065.75  181661.13  48.69
826.5  373330.68  181819.65  48.70
827.7  373922.65  182097.99  48.70
829.0  374354.18  182289.97  48.69
830.2  374682.65  182450.72  48.69
831.5  375272.45  182686.42  48.68
832.7  375622.80  182847.91  48.68
834.0  375937.30  183030.64  48.69
835.2  376289.10  183228.21  48.69
836.4  376651.00  183381.73  48.69
837.7  377069.40  183593.47  48.69
838.9  377594.20  183825.66  48.68
840.1  378000.68  184023.45  48.68
841.4  378441.90  184272.55  48.69
842.6  378821.20  184474.48  48.70
843.8  379200.60  184668.13  48.70
845.1  379721.30  184942.51  48.70
846.3  380132.50  185148.07  48.71
847.5  380564.10  185355.24  48.71
848.8  381058.80  185564.80  48.70
850.0  381413.20  185761.43  48.70
851.2  381969.00  186060.78  48.71
852.5  382392.10  186272.81  48.71
853.7  382952.25  186545.40  48.71
854.9  383380.00  186754.53  48.71
856.1  383891.30  186995.81  48.71
857.4  384092.98  187097.52  48.71
858.6  384645.95  187341.27  48.70
859.8  385100.63  187562.25  48.70
861.0  385538.40  187808.40  48.71
862.2  386008.33  188036.02  48.71
863.5  386418.50  188229.38  48.71
864.7  386958.00  188479.28  48.71
865.9  387478.60  188686.93  48.70
867.1  387804.50  188845.22  48.70
868.3  388321.80  189091.06  48.69
869.5  388765.35  189346.91  48.70
870.8  389385.00  189618.00  48.70
872.0  389872.65  189879.27  48.70
873.2  390437.40  190071.22  48.68
874.4  390926.25  190298.16  48.68
875.6  391296.38  190502.70  48.69
876.8  391797.70  190753.38  48.69
878.0  392328.25  190984.79  48.68
879.2  393000.75  191241.08  48.66
880.4  393539.25  191490.10  48.66
881.6  394119.50  191725.89  48.65
882.8  394530.40  191915.20  48.64
884.0  395214.88  192254.22  48.65
885.2  395702.40  192483.96  48.64
886.5  396359.85  192757.11  48.63
887.7  397010.25  193025.60  48.62
888.8  397685.18  193320.45  48.61
890.0  398367.05  193577.97  48.59
891.2  398974.60  193884.04  48.60
892.4  399580.13  194167.75  48.59
893.6  400237.90  194472.84  48.59
894.8  401166.00  194900.47  48.58
896.0  402161.00  195297.53  48.56
897.2  403100.75  195710.23  48.55
898.4  403880.40  196075.00  48.55
899.6  404489.25  196337.60  48.54
900.8  404937.43  196512.20  48.53
902.0  405126.60  196602.62  48.53
903.2  405449.40  196763.06  48.53
904.3  405938.70  196917.52  48.51
905.5  406525.68  197186.00  48.51
906.7  407238.00  197474.87  48.49
907.9  407861.30  197720.23  48.48
909.1  408245.40  197847.99  48.46
910.2  408447.83  197911.86  48.45
911.4  408704.40  198036.15  48.45
912.6  409015.75  198110.29  48.44
913.8  409353.45  198195.09  48.42
915.0  409836.00  198370.62  48.40
916.2  409909.50  198406.00  48.40
917.3  409963.73  198399.66  48.39
918.5  410205.30  198463.21  48.38
919.7  410567.55  198570.34  48.36
920.8  410781.20  198561.98  48.34
922.0  410987.50  198549.63  48.31
923.2  411274.50  198598.40  48.29
924.4  411527.25  198632.70  48.27
925.5  411780.50  198683.51  48.25
926.7  412460.38  198926.35  48.23
927.9  413266.80  199258.80  48.22
929.0  414963.00  199849.32  48.16
930.2  417428.10  200833.80  48.11
931.4  419836.50  201970.98  48.11
932.5  422685.00  203160.15  48.06
933.7  424123.15  203744.81  48.04
934.9  424921.88  203984.08  48.01
936.0  424427.25  203624.42  47.98
937.2  422393.85  202444.62  47.93
938.3  420549.40  201449.18  47.90
939.5  419108.40  200535.84  47.85
940.7  419436.00  200481.24  47.80
941.8  421020.00  201130.61  47.77
943.0  422671.50  201668.20  47.71
944.2  423565.35  201816.07  47.65
945.3  423111.00  201379.10  47.59
946.5  422212.50  200810.52  47.56
947.6  422400.50  200590.97  47.49
948.8  422586.45  200337.28  47.41
949.9  422633.40  200110.96  47.35
951.1  422506.18  199642.69  47.25
952.2  422076.00  199212.80  47.20
953.4  421961.00  198628.40  47.07
954.5  421831.80  198244.80  47.00
955.7  421974.00  197835.12  46.88
956.8  422072.30  197388.35  46.77
958.0  421514.50  196957.80  46.73
959.1  421654.30  196591.43  46.62
960.3  421084.23  196184.01  46.59
961.4  421017.25  195864.89  46.52
962.6  421001.00  195763.87  46.50
963.7  420977.70  195573.09  46.46
964.9  420968.93  195397.86  46.42
966.0  420995.48  195350.13  46.40
967.2  421055.10  195365.34  46.40
968.3  421135.20  195191.10  46.35
969.5  420760.38  195031.52  46.35
970.6  420961.05  194985.62  46.32
971.8  421290.98  195105.33  46.31
972.9  420879.30  195036.55  46.34
974.0  421714.60  195322.73  46.32
975.2  421630.50  195305.43  46.32
976.3  421983.93  195324.42  46.29
977.5  422043.30  195339.99  46.28
978.6  422105.50  195355.49  46.28
979.7  422176.65  195600.02  46.33
980.9  421614.88  195460.96  46.36
982.0  421876.05  195627.62  46.37
983.2  422024.05  195582.09  46.34
984.3  421988.80  195550.48  46.34
985.4  422359.75  195712.64  46.34
986.6  421903.88  195701.17  46.39
987.7  422641.80  196015.35  46.38
988.9  422602.20  195973.44  46.37
990.0  422793.70  196479.00  46.47
993.1  373077.19  171547.84  45.98
996.9  373939.05  172599.44  46.16
1000.7  375197.08  173752.74  46.31
1004.5  375904.00  174617.35  46.45
1008.4  375762.67  175129.27  46.61
1012.2  375964.92  175724.65  46.74
1016.0  376154.40  176313.77  46.87
1019.8  376518.45  176934.45  46.99
1023.7  376722.81  177420.65  47.10
1027.5  376631.47  177735.27  47.19
1031.3  376991.48  178210.50  47.27
1035.1  376939.68  178437.25  47.34
1038.9  376997.87  178672.69  47.39
1042.7  376876.17  178824.23  47.45
1046.5  376736.00  178911.00  47.49
1050.3  376808.16  179070.86  47.52
1054.2  376534.08  179082.58  47.56
1058.0  376066.48  178907.06  47.57
1061.8  375945.54  178917.43  47.59
1065.6  375686.97  178797.01  47.59
1069.4  375811.67  178862.30  47.59
1073.2  375533.82  178704.17  47.59
1077.0  375132.35  178430.00  47.56
1080.8  374583.33  178056.55  47.53
1084.6  373417.57  177367.52  47.50
1088.4  372659.41  176915.96  47.47
1092.2  371796.75  176339.89  47.43
1096.0  371229.03  175863.58  47.37
1099.8  370743.10  175413.06  47.31
1103.6  370128.18  174864.02  47.24
1107.4  369241.35  174163.71  47.17
1111.2  369047.10  173789.80  47.09
1114.9  368397.75  173144.08  47.00
1118.7  367809.75  172419.82  46.88
1122.5  367133.00  171532.15  46.72
1126.3  366018.92  170323.90  46.53
1130.1  365498.19  169121.57  46.27
1133.9  363843.20  167062.40  45.92
1137.7  362421.40  164751.68  45.46
1141.4  360627.69  161968.56  44.91
1145.2  359937.90  159460.49  44.30
1149.0  358834.58  156910.00  43.73
1152.8  357177.95  154433.53  43.24
1156.6  355484.62  152437.63  42.88
1160.3  353685.00  150877.10  42.66
1164.1  351213.70  149398.50  42.54
1167.9  349384.38  148445.84  42.49
1171.7  348067.13  147862.13  42.48
1175.4  346883.63  147362.19  42.48
1179.2  345870.13  146904.87  42.47
1183.0  345604.33  146702.91  42.45
1186.7  345016.00  146349.00  42.42
1190.5  343927.87  145785.61  42.39
1194.3  342666.90  145208.71  42.38
1198.0  341439.18  144720.28  42.39
1201.8  339992.35  144182.53  42.41
1205.6  338752.00  143810.71  42.45
1209.3  337779.70  143633.59  42.52
1213.1  336786.15  143463.73  42.60
1216.8  335740.72  143352.09  42.70
1220.6  334611.20  143181.87  42.79
1224.3  333343.17  142935.95  42.88
1228.1  332050.40  142703.63  42.98
1231.9  330825.73  142432.02  43.05
1235.6  329343.38  142029.25  43.12
1239.4  327949.00  141683.04  43.20
1243.1  326691.18  141303.18  43.25
1246.9  325448.92  140899.66  43.29
1250.6  324467.80  140564.03  43.32
1254.3  323385.98  140158.44  43.34
1258.1  322367.38  139747.98  43.35
1261.8  321054.80  139179.39  43.35
1265.6  319592.82  138492.76  43.33
1269.3  318122.30  137745.32  43.30
1273.1  318032.98  137557.34  43.25
1276.8  318356.80  137478.86  43.18
1280.6  318315.30  137204.10  43.10
1284.3  317012.00  136342.57  43.01
1288.0  315543.10  135327.89  42.89
1291.8  314178.80  134255.94  42.73
1295.5  312712.40  133088.48  42.56
1299.2  311405.63  131911.90  42.36
1302.9  309965.89  130561.48  42.12
1306.7  308409.27  129054.33  41.85
1310.4  306903.18  127404.90  41.51
1314.1  305535.45  125702.71  41.14
1317.9  304288.33  123891.43  40.72
1321.6  302891.45  121876.23  40.24
1325.3  301257.08  119601.08  39.70
1329.0  299889.57  117345.43  39.13
1332.8  297789.80  114666.20  38.51
1336.5  295944.33  112074.78  37.87
1340.2  295613.50  110053.67  37.23
1343.9  295254.58  108035.65  36.59
1347.6  294832.35  106022.31  35.96
1351.4  295337.00  104410.21  35.35
