/*** Spectra Vista SIG Data ***/
name= 49_20220722_ACSA_40_avg.sig
comm= Averaged Ref/Tar of files: HR.072222.0024_moc.sig,HR.072222.0025_moc.sig,HR.072222.0026_moc.sig
data=
337.3  3275.25  281.68  8.60
338.8  3367.00  273.03  8.11
340.3  3560.60  274.85  7.72
341.8  3749.45  263.90  7.04
343.2  3951.60  276.55  7.00
344.7  4094.40  269.71  6.59
346.2  4248.40  271.55  6.39
347.7  4443.73  259.92  5.85
349.2  4649.40  267.12  5.75
350.6  4884.43  263.02  5.38
352.1  5180.13  262.66  5.07
353.6  5447.90  267.69  4.91
355.1  5724.75  280.30  4.90
356.6  5997.83  292.79  4.88
358.0  6252.40  299.56  4.79
359.5  6519.90  303.11  4.65
361.0  6852.83  306.09  4.47
362.5  7201.65  313.38  4.35
364.0  7570.20  322.80  4.26
365.4  7896.10  336.13  4.26
366.9  8232.25  352.02  4.28
368.4  8564.35  362.63  4.23
369.9  8918.25  369.60  4.14
371.3  9345.00  384.99  4.12
372.8  9717.30  396.48  4.08
374.3  10158.75  406.45  4.00
375.8  10537.45  416.31  3.95
377.2  10921.40  425.28  3.89
378.7  11298.00  436.55  3.86
380.2  11728.40  439.11  3.74
381.7  12215.30  449.90  3.68
383.1  12693.45  462.51  3.64
384.6  13190.78  476.82  3.61
386.1  13620.60  491.60  3.61
387.6  14040.95  510.25  3.63
389.0  14525.60  517.11  3.56
390.5  15000.75  528.47  3.52
392.0  15526.15  534.04  3.44
393.4  16080.30  552.52  3.44
394.9  16625.70  564.76  3.40
396.4  17103.38  586.01  3.43
397.9  17655.63  599.38  3.39
399.3  18183.35  606.35  3.33
400.8  18743.60  622.41  3.32
402.2  19345.40  638.30  3.30
403.7  19934.10  653.01  3.28
405.2  20502.55  675.08  3.29
406.6  21065.60  693.79  3.29
408.1  21628.20  707.27  3.27
409.6  22213.40  730.83  3.29
411.0  22865.85  748.67  3.27
412.5  23511.43  765.17  3.25
414.0  24124.00  786.67  3.26
415.4  24823.88  809.76  3.26
416.9  25443.00  832.68  3.27
418.4  26107.65  863.32  3.31
419.8  26790.40  887.81  3.31
421.3  27503.98  912.64  3.32
422.7  28257.60  941.92  3.33
424.2  29008.13  968.46  3.34
425.7  29747.50  1000.05  3.36
427.1  30463.13  1026.67  3.37
428.6  31217.00  1059.02  3.39
430.0  31928.20  1088.27  3.41
431.5  32775.30  1123.78  3.43
432.9  33607.10  1157.49  3.44
434.4  34451.63  1187.20  3.45
435.9  35252.00  1222.93  3.47
437.3  36066.25  1253.48  3.48
438.8  36869.70  1284.32  3.48
440.2  37703.05  1314.90  3.49
441.7  38632.20  1353.78  3.50
443.1  39498.25  1384.81  3.51
444.6  40413.50  1422.78  3.52
446.0  41312.40  1456.91  3.53
447.5  42225.98  1490.44  3.53
448.9  43124.70  1528.34  3.54
450.4  44094.75  1568.55  3.56
451.8  44915.00  1601.85  3.57
453.3  45788.65  1637.24  3.58
454.7  46771.25  1671.84  3.57
456.2  47596.78  1706.40  3.59
457.6  48533.40  1744.97  3.60
459.1  49462.40  1776.41  3.59
460.5  50356.88  1809.83  3.59
462.0  51367.95  1847.64  3.60
463.4  52347.70  1883.03  3.60
464.8  53293.88  1916.87  3.60
466.3  54248.70  1952.01  3.60
467.7  55202.15  1989.00  3.60
469.2  56229.63  2027.60  3.61
470.6  57155.40  2062.54  3.61
472.0  58143.83  2098.92  3.61
473.5  59099.00  2133.28  3.61
474.9  60092.25  2168.17  3.61
476.4  61200.00  2211.02  3.61
477.8  62234.00  2250.68  3.62
479.2  63220.00  2290.45  3.62
480.7  64283.48  2327.58  3.62
482.1  65342.90  2370.63  3.63
483.6  66484.45  2413.56  3.63
485.0  67540.35  2454.13  3.63
486.4  68661.45  2502.88  3.65
487.9  69717.38  2545.03  3.65
489.3  70827.25  2595.25  3.66
490.7  71872.73  2643.21  3.68
492.2  73044.30  2694.16  3.69
493.6  74114.35  2750.57  3.71
495.0  75157.88  2809.67  3.74
496.5  76295.33  2873.23  3.77
497.9  77351.93  2932.76  3.79
499.3  78467.23  3005.16  3.83
500.7  79652.05  3083.76  3.87
502.2  80752.60  3166.95  3.92
503.6  81949.80  3256.50  3.97
505.0  82962.95  3347.45  4.03
506.5  84202.73  3461.85  4.11
507.9  85362.35  3585.96  4.20
509.3  86698.40  3727.35  4.30
510.7  87896.25  3873.81  4.41
512.2  89238.38  4046.66  4.53
513.6  90648.95  4241.86  4.68
515.0  91993.08  4457.44  4.85
516.4  93299.85  4691.52  5.03
517.8  94835.25  4963.12  5.23
519.3  96075.95  5239.92  5.45
520.7  97563.20  5560.86  5.70
522.1  98803.25  5873.23  5.94
523.5  100121.70  6214.23  6.21
524.9  101486.25  6556.50  6.46
526.3  102803.40  6895.93  6.71
527.8  104202.45  7241.43  6.95
529.2  105328.10  7569.20  7.19
530.6  106828.85  7916.12  7.41
532.0  108472.00  8248.80  7.60
533.4  109699.58  8531.56  7.78
534.8  110547.78  8763.26  7.93
536.3  112165.50  9033.93  8.05
537.7  114093.00  9313.92  8.16
539.1  115472.93  9537.91  8.26
540.5  116595.80  9729.51  8.34
541.9  118244.55  9961.65  8.42
543.3  119454.00  10159.76  8.51
544.7  120680.40  10355.76  8.58
546.1  122367.58  10586.90  8.65
547.5  123558.40  10770.99  8.72
549.0  125235.00  10984.49  8.77
550.4  126650.00  11161.31  8.81
551.8  128099.78  11326.30  8.84
553.2  129565.28  11460.85  8.85
554.6  130842.40  11552.92  8.83
556.0  132283.35  11627.29  8.79
557.4  133801.68  11674.72  8.73
558.8  135346.95  11698.46  8.64
560.2  136721.75  11681.66  8.54
561.6  138298.05  11649.59  8.42
563.0  139799.35  11585.15  8.29
564.4  141306.70  11498.29  8.14
565.8  142757.50  11382.51  7.97
567.2  144404.75  11262.72  7.80
568.6  145822.88  11111.76  7.62
570.0  147196.70  10937.79  7.43
571.4  148832.45  10781.22  7.24
572.8  150487.88  10629.78  7.06
574.2  152017.60  10480.00  6.89
575.6  153472.50  10338.43  6.74
577.0  154923.00  10218.21  6.60
578.4  156554.13  10126.13  6.47
579.8  157987.80  10035.93  6.35
581.2  159619.25  9971.48  6.25
582.5  160968.60  9899.98  6.15
583.9  162415.20  9848.39  6.06
585.3  164099.93  9825.52  5.99
586.7  165488.05  9795.22  5.92
588.1  166900.63  9774.83  5.86
589.5  168474.25  9775.03  5.80
590.9  170028.80  9783.72  5.75
592.3  171734.20  9810.27  5.71
593.7  173102.48  9837.25  5.68
595.0  174638.03  9876.96  5.66
596.4  176003.45  9899.23  5.62
597.8  177414.68  9929.78  5.60
599.2  178886.40  9953.05  5.56
600.6  180540.43  9984.10  5.53
602.0  181774.50  9980.02  5.49
603.3  183467.00  9986.22  5.44
604.7  185036.43  9970.51  5.39
606.1  186451.80  9936.79  5.33
607.5  188015.35  9895.77  5.26
608.9  189604.75  9852.40  5.20
610.2  190908.90  9790.20  5.13
611.6  192413.40  9731.72  5.06
613.0  193890.10  9674.07  4.99
614.4  195188.25  9609.65  4.92
615.8  196574.63  9555.56  4.86
617.1  198053.10  9522.80  4.81
618.5  199563.20  9501.32  4.76
619.9  200994.98  9482.63  4.72
621.3  202532.63  9484.33  4.68
622.6  204029.75  9492.76  4.65
624.0  205407.75  9506.90  4.63
625.4  206784.60  9533.98  4.61
626.8  208283.08  9578.05  4.60
628.1  209513.43  9618.18  4.59
629.5  211288.65  9685.54  4.58
630.9  212790.88  9740.36  4.58
632.2  214105.68  9777.60  4.57
633.6  215655.13  9818.66  4.55
635.0  217098.40  9838.07  4.53
636.3  218533.60  9844.85  4.50
637.7  219828.50  9823.00  4.47
639.1  221375.00  9794.67  4.42
640.4  222775.70  9746.84  4.38
641.8  223917.65  9677.45  4.32
643.2  225420.65  9619.17  4.27
644.5  226701.50  9553.27  4.21
645.9  228337.20  9506.50  4.16
647.2  230082.65  9475.01  4.12
648.6  231822.00  9455.79  4.08
650.0  233193.60  9434.88  4.05
651.3  233613.88  9383.47  4.02
652.7  234718.15  9353.03  3.98
654.0  236717.30  9361.52  3.95
655.4  238135.40  9344.69  3.92
656.8  238350.00  9278.46  3.89
658.1  239530.40  9243.87  3.86
659.5  241800.83  9245.86  3.82
660.8  243517.50  9222.00  3.79
662.2  244361.60  9171.20  3.75
663.5  245865.00  9150.69  3.72
664.9  247144.30  9137.61  3.70
666.2  247840.80  9109.19  3.68
667.6  249481.88  9142.19  3.66
668.9  250568.10  9165.74  3.66
670.3  251674.00  9204.86  3.66
671.6  253154.25  9272.27  3.66
673.0  254238.38  9347.71  3.68
674.3  255431.80  9443.23  3.70
675.7  256688.10  9539.34  3.72
677.0  257758.58  9646.11  3.74
678.4  259036.03  9773.23  3.77
679.7  260071.20  9917.96  3.81
681.1  261323.85  10087.22  3.86
682.4  262393.30  10270.40  3.91
683.8  263608.80  10480.03  3.98
685.1  264548.63  10713.98  4.05
686.4  265800.60  10993.44  4.14
687.8  267022.25  11335.21  4.25
689.1  268023.50  11751.39  4.38
690.5  269362.20  12290.37  4.56
691.8  270127.03  12977.71  4.80
693.1  271392.30  13910.98  5.13
694.5  272499.50  15109.90  5.54
695.8  273659.75  16632.63  6.08
697.1  274820.00  18533.23  6.74
698.5  275827.70  20840.33  7.56
699.8  276884.43  23573.36  8.51
701.1  277972.83  26715.47  9.61
702.5  278718.00  30175.77  10.83
703.8  279652.50  33955.71  12.14
705.1  280738.58  37989.23  13.53
706.5  281746.00  42188.60  14.97
707.8  282705.15  46528.87  16.46
709.1  283549.83  50925.66  17.96
710.5  284643.75  55426.38  19.47
711.8  285462.30  59907.99  20.99
713.1  286443.50  64435.53  22.50
714.4  287335.50  68915.92  23.98
715.8  288116.00  73366.58  25.46
717.1  289365.45  77892.09  26.92
718.4  290304.00  82269.87  28.34
719.7  291365.90  86617.79  29.73
721.0  291892.50  90720.00  31.08
722.4  292631.35  94769.70  32.39
723.7  293544.00  98763.49  33.65
725.0  294561.45  102667.22  34.85
726.3  295423.98  106397.54  36.02
727.6  295994.60  109851.73  37.11
729.0  296901.68  113277.88  38.15
730.3  297621.15  116483.26  39.14
731.6  298496.10  119587.61  40.06
732.9  299293.23  122493.44  40.93
734.2  300088.25  125264.62  41.74
735.5  301072.95  127965.24  42.50
736.8  301819.50  130408.68  43.21
738.1  302597.90  132742.88  43.87
739.5  303517.13  134983.99  44.47
740.8  304248.73  136982.61  45.02
742.1  304955.48  138895.73  45.55
743.4  305700.00  140698.57  46.03
744.7  306656.68  142490.02  46.47
746.0  307470.15  144101.47  46.87
747.3  308010.18  145468.68  47.23
748.6  308742.50  146811.78  47.55
749.9  309478.00  148077.18  47.85
751.2  310191.30  149268.68  48.12
752.5  311080.40  150455.64  48.37
753.8  311674.48  151435.65  48.59
755.1  312364.00  152373.37  48.78
756.4  312946.80  153189.66  48.95
757.7  313916.93  154127.59  49.10
759.0  315644.10  155404.36  49.23
760.3  316747.20  156346.83  49.36
761.6  318269.00  157436.03  49.47
762.9  318806.50  157990.60  49.56
764.2  319195.40  158441.51  49.64
765.5  319516.58  158810.74  49.70
766.8  319953.60  159233.46  49.77
768.1  320470.40  159677.81  49.83
769.3  321071.80  160128.26  49.87
770.6  321732.45  160592.18  49.91
771.9  322462.88  161084.26  49.95
773.2  322851.20  161394.77  49.99
774.5  323466.00  161802.46  50.02
775.8  324129.75  162228.22  50.05
777.1  324731.00  162601.48  50.07
778.4  325087.40  162850.84  50.09
779.6  325845.45  163308.59  50.12
780.9  326340.00  163611.43  50.14
782.2  326790.75  163914.09  50.16
783.5  327112.50  164128.34  50.17
784.8  327638.93  164456.95  50.19
786.0  328071.80  164709.33  50.21
787.3  328473.10  164961.37  50.22
788.6  328911.38  165222.67  50.23
789.9  329373.80  165510.45  50.25
791.2  330049.90  165868.80  50.26
792.4  330739.25  166244.88  50.26
793.7  331194.40  166528.58  50.28
795.0  331823.25  166870.65  50.29
796.2  332495.88  167231.82  50.30
797.5  333221.10  167621.21  50.30
798.8  333897.78  167997.08  50.31
800.0  334595.83  168353.38  50.32
801.3  335080.20  168628.26  50.32
802.6  335686.28  168959.28  50.33
803.8  336322.23  169316.19  50.34
805.1  336781.38  169598.45  50.36
806.4  337261.20  169851.25  50.36
807.7  337810.50  170145.24  50.37
808.9  338397.60  170443.72  50.37
810.2  338903.95  170722.66  50.37
811.4  339406.40  171014.66  50.39
812.7  340071.88  171347.74  50.39
814.0  340886.60  171784.40  50.39
815.2  341515.00  172120.54  50.40
816.5  341920.20  172356.38  50.41
817.7  342414.35  172620.21  50.41
819.0  342907.40  172902.03  50.42
820.2  343068.00  173022.25  50.43
821.5  343760.35  173396.79  50.44
822.7  344090.00  173617.98  50.46
824.0  344387.70  173793.14  50.46
825.2  344887.88  174057.43  50.47
826.5  345249.33  174259.25  50.47
827.7  345780.00  174556.70  50.48
829.0  346191.13  174785.39  50.49
830.2  346446.70  174954.10  50.50
831.5  346887.55  175210.73  50.51
832.7  347257.58  175389.58  50.51
834.0  347540.28  175586.18  50.52
835.2  347925.60  175810.68  50.53
836.4  348162.10  175993.01  50.55
837.7  348560.20  176226.40  50.56
838.9  349010.28  176462.40  50.56
840.1  349371.90  176690.04  50.57
841.4  349764.30  176965.50  50.60
842.6  350094.60  177187.27  50.61
843.8  350428.00  177408.43  50.63
845.1  350936.55  177700.68  50.64
846.3  351344.60  177931.49  50.64
847.5  351758.40  178171.36  50.65
848.8  352136.40  178391.29  50.66
850.0  352406.25  178607.39  50.68
851.2  352908.90  178908.45  50.70
852.5  353264.20  179137.35  50.71
853.7  353785.50  179415.13  50.71
854.9  354229.90  179653.50  50.72
856.1  354634.15  179913.14  50.73
857.4  354860.40  180041.14  50.74
858.6  355263.75  180312.82  50.75
859.8  355685.63  180520.36  50.75
861.0  356124.60  180780.38  50.76
862.2  356512.20  181021.93  50.78
863.5  356970.25  181222.00  50.77
864.7  357409.80  181516.60  50.79
865.9  357825.00  181728.61  50.79
867.1  358144.50  181896.31  50.79
868.3  358531.50  182130.72  50.80
869.5  359034.90  182392.87  50.80
870.8  359550.00  182664.51  50.80
872.0  360102.53  182937.69  50.80
873.2  360505.95  183144.90  50.80
874.4  360915.75  183378.45  50.81
875.6  361221.20  183541.76  50.81
876.8  361715.25  183811.33  50.82
878.0  362199.40  184048.43  50.81
879.2  362750.85  184307.92  50.81
880.4  363267.00  184565.95  50.81
881.6  363672.50  184793.96  50.81
882.8  364142.40  184992.20  50.80
884.0  364653.90  185288.64  50.81
885.2  365182.80  185548.14  50.81
886.5  365884.30  185853.89  50.80
887.7  366311.73  186089.39  50.80
888.8  366925.50  186390.51  50.80
890.0  367488.75  186645.10  50.79
891.2  368147.30  186946.67  50.78
892.4  368697.00  187240.88  50.78
893.6  369213.20  187509.95  50.79
894.8  370081.50  187957.42  50.79
896.0  370996.50  188382.17  50.78
897.2  371767.50  188765.20  50.78
898.4  372576.60  189110.81  50.76
899.6  373119.00  189390.84  50.76
900.8  373520.78  189570.21  50.75
902.0  373683.30  189692.63  50.76
903.2  374085.68  189852.60  50.75
904.3  374450.10  190038.89  50.75
905.5  375116.90  190321.95  50.74
906.7  375685.00  190615.14  50.74
907.9  376310.20  190870.45  50.72
909.1  376599.38  191028.33  50.72
910.2  376709.93  191113.14  50.73
911.4  377044.20  191247.25  50.72
912.6  377291.20  191328.96  50.71
913.8  377684.63  191440.01  50.69
915.0  378098.70  191623.32  50.68
916.2  378348.75  191708.77  50.67
917.3  378487.35  191731.19  50.66
918.5  378591.00  191809.53  50.66
919.7  378864.00  191965.28  50.67
920.8  379121.25  191984.21  50.64
922.0  379186.50  192012.33  50.64
923.2  379470.00  192069.80  50.62
924.4  379701.00  192154.11  50.61
925.5  379932.40  192237.72  50.60
926.7  380710.75  192499.14  50.56
927.9  381454.80  192885.38  50.57
929.0  382884.30  193565.31  50.55
930.2  385156.60  194529.60  50.51
931.4  387506.03  195658.11  50.49
932.5  390122.60  196817.64  50.45
933.7  391620.85  197484.10  50.43
934.9  392223.13  197718.75  50.41
936.0  391930.50  197522.09  50.40
937.2  389965.65  196485.27  50.39
938.3  388456.60  195536.85  50.34
939.5  386960.40  194679.91  50.31
940.7  387290.70  194708.67  50.27
941.8  388917.23  195333.23  50.22
943.0  390048.00  195966.34  50.24
944.2  391053.65  196253.08  50.19
945.3  390692.25  195920.40  50.15
946.5  390124.35  195388.33  50.08
947.6  390553.60  195356.71  50.02
948.8  390378.30  195144.80  49.99
949.9  390457.20  195061.28  49.96
951.1  390021.13  194707.87  49.92
952.2  390048.00  194347.89  49.83
953.4  389837.25  194001.79  49.76
954.5  390031.20  193739.97  49.67
955.7  390058.20  193498.08  49.61
956.8  390041.00  193113.36  49.51
958.0  389397.00  192823.13  49.52
959.1  389375.63  192532.68  49.45
960.3  389117.70  192193.39  49.39
961.4  389118.45  191960.19  49.33
962.6  389593.75  191982.67  49.28
963.7  389330.78  191736.67  49.25
964.9  389088.75  191630.09  49.25
966.0  389105.78  191553.74  49.23
967.2  388828.80  191481.08  49.25
968.3  388573.20  191314.67  49.24
969.5  388609.25  191202.67  49.20
970.6  388623.85  191207.44  49.20
971.8  388953.08  191278.39  49.18
972.9  389032.35  191224.43  49.15
974.0  389124.60  191343.65  49.17
975.2  388882.50  191231.43  49.17
976.3  388641.10  191186.02  49.19
977.5  388763.90  191154.86  49.17
978.6  388897.20  191095.38  49.14
979.7  389048.10  191110.07  49.12
980.9  389148.28  191037.60  49.09
982.0  388759.50  191038.39  49.14
983.2  388813.93  191066.49  49.14
984.3  388273.20  191127.57  49.23
985.4  388223.83  191062.00  49.21
986.6  388741.13  190928.54  49.11
987.7  389378.33  191406.30  49.16
988.9  389511.00  191193.60  49.09
990.0  390047.20  191835.58  49.18
993.1  339711.93  166421.64  48.99
996.9  340247.10  167112.86  49.12
1000.7  341208.64  167996.41  49.24
1004.5  341757.08  168612.22  49.34
1008.4  341470.17  168901.70  49.46
1012.2  341510.17  169236.42  49.56
1016.0  341552.40  169618.63  49.66
1019.8  341672.10  169981.35  49.75
1023.7  341626.77  170211.74  49.82
1027.5  341358.15  170317.68  49.89
1031.3  341568.08  170600.15  49.95
1035.1  341463.79  170719.88  50.00
1038.9  341457.42  170829.50  50.03
1042.7  341347.50  170891.40  50.06
1046.5  341224.00  170910.69  50.09
1050.3  341266.76  170982.22  50.10
1054.2  340949.00  170925.00  50.13
1058.0  340508.23  170723.02  50.14
1061.8  340375.43  170699.71  50.15
1065.6  340157.53  170567.88  50.14
1069.4  340194.47  170559.22  50.14
1073.2  339854.84  170336.28  50.12
1077.0  339402.60  170044.44  50.10
1080.8  338907.29  169706.10  50.07
1084.6  337943.20  169109.73  50.04
1088.4  337297.57  168717.11  50.02
1092.2  336550.50  168216.75  49.98
1096.0  336038.98  167790.42  49.93
1099.8  335576.15  167404.90  49.89
1103.6  334967.27  166907.29  49.83
1107.4  334071.54  166228.80  49.76
1111.2  333923.50  165926.96  49.69
1114.9  333331.83  165361.67  49.61
1118.7  332771.18  164750.14  49.51
1122.5  332125.73  164021.00  49.39
1126.3  331123.16  163019.52  49.23
1130.1  330661.19  162097.62  49.02
1133.9  329214.90  160432.00  48.73
1137.7  327880.60  158631.42  48.38
1141.4  326248.54  156447.85  47.95
1145.2  325582.93  154556.22  47.47
1149.0  324572.50  152582.09  47.01
1152.8  323078.00  150554.63  46.60
1156.6  321567.40  148860.25  46.29
1160.3  319959.00  147460.00  46.09
1164.1  317771.70  146057.76  45.96
1167.9  316106.25  145105.36  45.90
1171.7  314944.88  144466.88  45.87
1175.4  313866.07  143934.23  45.86
1179.2  312911.15  143437.97  45.84
1183.0  312613.00  143217.14  45.81
1186.7  312116.93  142904.90  45.79
1190.5  311168.40  142388.68  45.76
1194.3  310074.73  141839.27  45.74
1198.0  308936.38  141335.66  45.75
1201.8  307601.40  140778.03  45.77
1205.6  306480.33  140409.67  45.81
1209.3  305591.33  140246.17  45.89
1213.1  304750.50  140070.04  45.96
1216.8  303833.38  139924.45  46.05
1220.6  302825.60  139708.80  46.14
1224.3  301691.83  139424.24  46.21
1228.1  300583.60  139175.60  46.30
1231.9  299434.48  138844.45  46.37
1235.6  298093.88  138396.02  46.43
1239.4  296863.88  138003.27  46.49
1243.1  295719.61  137595.94  46.53
1246.9  294595.85  137165.17  46.56
1250.6  293676.27  136800.59  46.58
1254.3  292708.63  136387.59  46.60
1258.1  291802.47  135983.05  46.60
1261.8  290627.87  135424.06  46.60
1265.6  289315.78  134763.98  46.58
1269.3  287978.88  134053.25  46.55
1273.1  287922.07  133898.75  46.51
1276.8  288180.80  133849.77  46.45
1280.6  288053.33  133601.10  46.38
1284.3  286786.80  132797.83  46.31
1288.0  285447.29  131905.53  46.21
1291.8  284245.41  131014.56  46.09
1295.5  282978.67  130046.19  45.96
1299.2  281816.13  129077.94  45.80
1302.9  280481.75  127945.97  45.62
1306.7  279082.77  126702.45  45.40
1310.4  277704.39  125348.99  45.14
1314.1  276456.40  123970.18  44.84
1317.9  275316.46  122529.20  44.50
1321.6  274042.48  120908.30  44.12
1325.3  272527.50  119068.20  43.69
1329.0  271309.73  117275.57  43.23
1332.8  269407.60  115077.60  42.72
1336.5  267731.53  112962.43  42.19
1340.2  267388.33  111399.17  41.66
1343.9  266997.50  109810.69  41.13
1347.6  266450.70  108147.79  40.59
1351.4  266693.00  106876.93  40.07
1355.1  267103.10  105683.96  39.57
1358.8  267296.00  104345.14  39.04
