/*** Spectra Vista SIG Data ***/
name= 43_20220722_QUPA_14_avg.sig
comm= Averaged Ref/Tar of files: HR.072222.0004_moc.sig,HR.072222.0005_moc.sig,HR.072222.0006_moc.sig
data=
337.3  3209.08  245.76  7.66
338.8  3334.93  238.21  7.14
340.3  3498.13  232.02  6.63
341.8  3688.48  239.51  6.49
343.2  3907.20  236.80  6.06
344.7  4037.53  219.34  5.43
346.2  4248.40  217.87  5.13
347.7  4430.62  224.71  5.07
349.2  4611.60  223.20  4.84
350.6  4823.22  220.35  4.57
352.1  5120.58  224.56  4.39
353.6  5390.07  228.03  4.23
355.1  5679.85  234.12  4.12
356.6  5965.05  234.11  3.92
358.0  6209.87  243.05  3.91
359.5  6489.00  241.32  3.72
361.0  6802.95  242.25  3.56
362.5  7143.10  248.14  3.47
364.0  7493.73  256.71  3.43
365.4  7868.00  267.62  3.40
366.9  8195.42  281.51  3.44
368.4  8527.98  285.74  3.35
369.9  8864.20  293.42  3.31
371.3  9273.80  305.14  3.29
372.8  9681.90  316.07  3.26
374.3  10087.08  319.94  3.17
375.8  10510.50  325.97  3.10
377.2  10903.47  338.17  3.10
378.7  11298.00  340.73  3.02
380.2  11674.60  343.30  2.94
381.7  12197.28  357.76  2.93
383.1  12666.50  359.33  2.84
384.6  13145.82  369.94  2.81
386.1  13602.58  375.77  2.76
387.6  14031.97  382.43  2.73
389.0  14507.73  390.51  2.69
390.5  14974.20  402.04  2.68
392.0  15517.33  415.64  2.68
393.4  16062.78  422.90  2.63
394.9  16617.00  437.48  2.63
396.4  17146.50  446.04  2.60
397.9  17647.08  453.93  2.57
399.3  18166.47  460.67  2.54
400.8  18710.37  472.39  2.52
402.2  19345.40  486.33  2.51
403.7  19934.10  504.43  2.53
405.2  20534.12  518.60  2.53
406.6  21081.07  525.87  2.49
408.1  21635.73  544.55  2.52
409.6  22213.40  560.25  2.52
411.0  22872.97  569.33  2.49
412.5  23504.48  587.07  2.50
414.0  24137.58  603.49  2.50
415.4  24804.00  620.86  2.50
416.9  25455.85  644.33  2.53
418.4  26132.55  659.85  2.53
419.8  26826.80  679.47  2.53
421.3  27521.80  699.42  2.54
422.7  28269.20  724.17  2.56
424.2  29013.75  744.11  2.56
425.7  29742.07  765.32  2.57
427.1  30478.95  783.72  2.57
428.6  31248.00  807.48  2.58
430.0  31968.67  828.12  2.59
431.5  32795.20  851.44  2.60
432.9  33636.40  872.03  2.59
434.4  34494.60  894.97  2.59
435.9  35289.33  921.33  2.61
437.3  36107.50  942.86  2.61
438.8  36914.95  967.06  2.62
440.2  37747.97  990.73  2.62
441.7  38681.33  1018.40  2.63
443.1  39546.83  1043.60  2.64
444.6  40479.00  1069.21  2.64
446.0  41372.95  1097.31  2.65
447.5  42290.60  1125.09  2.66
448.9  43189.20  1159.77  2.69
450.4  44150.87  1191.40  2.70
451.8  44997.33  1217.05  2.70
453.3  45884.53  1246.48  2.72
454.7  46850.30  1278.60  2.73
456.2  47680.53  1302.35  2.73
457.6  48604.20  1333.82  2.74
459.1  49542.35  1360.42  2.75
460.5  50441.58  1389.73  2.76
462.0  51467.13  1422.06  2.76
463.4  52452.73  1452.20  2.77
464.8  53400.25  1478.68  2.77
466.3  54351.55  1506.69  2.77
467.7  55295.98  1534.84  2.78
469.2  56318.77  1568.36  2.78
470.6  57258.43  1599.03  2.79
472.0  58261.12  1630.02  2.80
473.5  59221.42  1660.02  2.80
474.9  60201.50  1689.64  2.81
476.4  61315.20  1725.26  2.81
477.8  62340.33  1757.95  2.82
479.2  63316.67  1793.86  2.83
480.7  64375.15  1829.36  2.84
482.1  65448.87  1870.24  2.86
483.6  66595.23  1912.91  2.87
485.0  67636.85  1952.05  2.89
486.4  68773.00  1994.04  2.90
487.9  69819.75  2044.71  2.93
489.3  70935.23  2095.16  2.95
490.7  71965.98  2154.06  2.99
492.2  73137.40  2214.80  3.03
493.6  74187.60  2277.03  3.07
495.0  75250.50  2342.79  3.11
496.5  76378.48  2419.28  3.17
497.9  77444.87  2508.73  3.24
499.3  78560.17  2602.37  3.31
500.7  79754.60  2712.34  3.40
502.2  80854.80  2832.40  3.50
503.6  82042.27  2974.23  3.63
505.0  83055.73  3128.13  3.77
506.5  84306.15  3311.01  3.93
507.9  85441.42  3525.53  4.13
509.3  86757.60  3771.88  4.35
510.7  87954.75  4046.25  4.60
512.2  89281.80  4365.93  4.89
513.6  90682.43  4724.57  5.21
515.0  92035.75  5129.13  5.57
516.4  93347.10  5567.40  5.96
517.8  94891.75  6052.22  6.38
519.3  96151.02  6557.61  6.82
520.7  97619.40  7103.95  7.28
522.1  98849.83  7647.65  7.74
523.5  100154.13  8193.06  8.18
524.9  101528.10  8736.69  8.61
526.3  102870.37  9249.60  8.99
527.8  104276.70  9745.84  9.35
529.2  105323.13  10201.53  9.69
530.6  106824.03  10679.24  10.00
532.0  108472.00  11122.67  10.25
533.4  109695.05  11479.28  10.46
534.8  110516.92  11761.43  10.64
536.3  112135.40  12096.52  10.79
537.7  114097.20  12457.20  10.92
539.1  115493.47  12738.18  11.03
540.5  116619.90  12980.72  11.13
541.9  118299.50  13283.32  11.23
543.3  119515.73  13531.72  11.32
544.7  120764.00  13776.63  11.41
546.1  122446.50  14074.42  11.49
547.5  123685.33  14308.27  11.57
549.0  125370.67  14570.29  11.62
550.4  126763.33  14783.93  11.66
551.8  128215.55  14968.56  11.67
553.2  129673.52  15112.93  11.65
554.6  130949.87  15192.92  11.60
556.0  132397.20  15248.02  11.52
557.4  133922.13  15265.27  11.40
558.8  135460.80  15240.13  11.25
560.2  136825.50  15148.49  11.07
561.6  138402.30  15037.81  10.87
563.0  139904.10  14876.49  10.63
564.4  141405.17  14676.56  10.38
565.8  142835.42  14428.75  10.10
567.2  144480.00  14171.57  9.81
568.6  145884.50  13867.18  9.51
570.0  147247.92  13540.01  9.20
571.4  148880.33  13235.79  8.89
572.8  150536.08  12943.14  8.60
574.2  152066.13  12657.07  8.32
575.6  153510.00  12390.00  8.07
577.0  154960.67  12151.27  7.84
578.4  156580.67  11954.58  7.63
579.8  158010.75  11771.16  7.45
581.2  159626.97  11627.92  7.28
582.5  160960.80  11487.17  7.14
583.9  162399.47  11374.08  7.00
585.3  164088.00  11296.95  6.88
586.7  165480.03  11216.46  6.78
588.1  166880.42  11157.31  6.69
589.5  168429.33  11130.00  6.61
590.9  169970.93  11111.58  6.54
592.3  171684.00  11122.89  6.48
593.7  173030.65  11125.03  6.43
595.0  174573.90  11139.43  6.38
596.4  175938.70  11140.70  6.33
597.8  177331.87  11131.18  6.28
599.2  178789.60  11108.11  6.21
600.6  180447.15  11080.06  6.14
602.0  181658.15  10998.27  6.05
603.3  183349.57  10918.72  5.96
604.7  184913.35  10808.46  5.85
606.1  186318.40  10665.43  5.72
607.5  187857.53  10512.71  5.60
608.9  189440.83  10352.84  5.46
610.2  190748.25  10183.05  5.34
611.6  192260.60  10022.05  5.21
613.0  193716.70  9868.66  5.09
614.4  195018.50  9716.63  4.98
615.8  196374.75  9589.82  4.88
617.1  197813.00  9486.40  4.80
618.5  199346.13  9405.75  4.72
619.9  200761.15  9347.31  4.66
621.3  202296.45  9314.91  4.60
622.6  203780.67  9303.95  4.57
624.0  205134.80  9300.90  4.53
625.4  206512.90  9321.40  4.51
626.8  208001.73  9357.83  4.50
628.1  209226.78  9398.14  4.49
629.5  210958.15  9468.04  4.49
630.9  212438.60  9532.99  4.49
632.2  213715.25  9581.98  4.48
633.6  215204.17  9624.25  4.47
635.0  216639.73  9641.83  4.45
636.3  218060.73  9633.63  4.42
637.7  219342.00  9586.03  4.37
639.1  220896.67  9513.33  4.31
640.4  222269.02  9396.37  4.23
641.8  223406.67  9250.32  4.14
643.2  224891.92  9098.33  4.05
644.5  226178.33  8921.64  3.94
645.9  227722.20  8764.63  3.85
647.2  229230.63  8627.35  3.76
648.6  230850.00  8499.21  3.68
650.0  232128.00  8378.74  3.61
651.3  232632.40  8240.91  3.54
652.7  233988.23  8142.14  3.48
654.0  236007.40  8065.16  3.42
655.4  237361.05  7975.59  3.36
656.8  237457.13  7845.55  3.30
658.1  238667.80  7746.10  3.25
659.5  241055.85  7686.25  3.19
660.8  242760.00  7622.14  3.14
662.2  243622.40  7539.20  3.09
663.5  245141.43  7499.36  3.06
664.9  246297.13  7480.32  3.04
666.2  246967.60  7457.08  3.02
667.6  248566.55  7492.69  3.01
668.9  249667.10  7542.66  3.02
670.3  250928.17  7609.63  3.03
671.6  252254.50  7697.39  3.05
673.0  253360.75  7802.75  3.08
674.3  254547.80  7928.64  3.11
675.7  255790.38  8068.94  3.15
677.0  256840.87  8218.47  3.20
678.4  258088.95  8403.06  3.26
679.7  259131.47  8596.04  3.32
681.1  260352.55  8825.80  3.39
682.4  261428.27  9092.57  3.48
683.8  262606.93  9412.50  3.58
685.1  263538.25  9800.32  3.72
686.4  264742.40  10296.57  3.89
687.8  265932.00  10938.52  4.11
689.1  266955.50  11777.67  4.41
690.5  268229.80  12914.04  4.81
691.8  268980.80  14394.70  5.35
693.1  270259.80  16355.46  6.05
694.5  271346.83  18780.67  6.92
695.8  272469.17  21714.33  7.97
697.1  273606.67  25139.83  9.19
698.5  274594.33  29034.38  10.57
699.8  275652.42  33334.41  12.09
701.1  276755.93  37981.71  13.72
702.5  277485.27  42814.93  15.43
703.8  278370.00  47798.57  17.17
705.1  279460.35  52852.52  18.91
706.5  280448.25  57868.14  20.63
707.8  281386.50  62784.34  22.31
709.1  282217.77  67544.82  23.93
710.5  283304.25  72205.43  25.49
711.8  284102.00  76618.55  26.97
713.1  285038.60  80891.66  28.38
714.4  285886.00  84948.14  29.71
715.8  286673.93  88794.35  30.97
717.1  287942.50  92588.60  32.16
718.4  288855.47  96078.93  33.26
719.7  289882.55  99435.82  34.30
721.0  290355.00  102435.00  35.28
722.4  291060.37  105319.24  36.18
723.7  291973.60  108105.21  37.03
725.0  292970.70  110759.49  37.81
726.3  293879.48  113222.87  38.53
727.6  294396.85  115396.68  39.20
729.0  295258.72  117561.58  39.82
730.3  295978.70  119537.03  40.39
731.6  296829.30  121433.88  40.91
732.9  297578.63  123182.38  41.39
734.2  298358.50  124831.40  41.84
735.5  299316.42  126461.44  42.25
736.8  300057.80  127903.26  42.63
738.1  300837.27  129276.24  42.97
739.5  301752.35  130607.16  43.28
740.8  302413.10  131764.08  43.57
742.1  303113.87  132876.58  43.84
743.4  303783.33  133921.43  44.08
744.7  304701.42  135009.93  44.31
746.0  305518.20  135989.47  44.51
747.3  306061.77  136782.40  44.69
748.6  306768.33  137598.19  44.85
749.9  307458.67  138344.76  45.00
751.2  308134.17  139060.72  45.13
752.5  308970.97  139800.39  45.25
753.8  309545.02  140385.32  45.35
755.1  310214.67  140974.47  45.44
756.4  310747.58  141477.17  45.53
757.7  311700.55  142123.65  45.60
759.0  313423.72  143098.59  45.66
760.3  314547.20  143774.40  45.71
761.6  316025.73  144607.73  45.76
762.9  316541.67  144977.35  45.80
764.2  316899.93  145249.75  45.83
765.5  317165.40  145476.86  45.87
766.8  317569.07  145750.55  45.90
768.1  318059.20  146055.05  45.92
769.3  318638.60  146371.20  45.94
770.6  319263.53  146726.85  45.96
771.9  319936.52  147094.97  45.98
773.2  320314.13  147309.45  45.99
774.5  320872.93  147616.86  46.00
775.8  321542.87  147945.55  46.01
777.1  322088.07  148237.47  46.02
778.4  322399.92  148416.90  46.04
779.6  323110.75  148783.53  46.05
780.9  323560.00  149014.29  46.05
782.2  323997.67  149247.74  46.06
783.5  324276.00  149412.24  46.08
784.8  324772.20  149668.59  46.08
786.0  325164.47  149861.17  46.09
787.3  325514.45  150045.82  46.09
788.6  325930.43  150250.37  46.10
789.9  326357.73  150475.20  46.11
791.2  326987.85  150778.82  46.11
792.4  327595.63  151091.45  46.12
793.7  328032.53  151314.72  46.13
795.0  328621.15  151603.65  46.13
796.2  329267.32  151910.11  46.14
797.5  329910.65  152231.09  46.14
798.8  330527.92  152527.61  46.15
800.0  331182.92  152831.70  46.15
801.3  331638.67  153053.68  46.15
802.6  332202.15  153315.47  46.15
803.8  332815.38  153617.72  46.16
805.1  333282.25  153850.42  46.16
806.4  333705.20  154058.26  46.17
807.7  334219.50  154314.06  46.17
808.9  334710.33  154564.73  46.18
810.2  335225.80  154798.70  46.18
811.4  335717.20  155022.78  46.18
812.7  336320.83  155311.31  46.18
814.0  337128.23  155680.25  46.18
815.2  337701.83  155978.00  46.19
816.5  338115.45  156175.93  46.19
817.7  338543.57  156390.26  46.20
819.0  339025.87  156626.91  46.20
820.2  339210.67  156707.05  46.20
821.5  339875.80  157031.93  46.20
822.7  340226.53  157194.80  46.20
824.0  340516.80  157353.94  46.21
825.2  340929.00  157574.31  46.22
826.5  341230.95  157718.40  46.22
827.7  341809.93  157956.51  46.21
829.0  342179.43  158147.43  46.22
830.2  342490.70  158277.68  46.21
831.5  342959.13  158507.43  46.22
832.7  343200.55  158638.65  46.22
834.0  343454.00  158790.82  46.23
835.2  343828.65  158960.66  46.23
836.4  344107.50  159094.78  46.23
837.7  344495.20  159286.06  46.24
838.9  344916.37  159497.20  46.24
840.1  345263.40  159681.92  46.25
841.4  345648.53  159878.16  46.25
842.6  345990.80  160056.46  46.26
843.8  346326.00  160201.24  46.26
845.1  346801.83  160442.83  46.26
846.3  347137.60  160627.27  46.27
847.5  347536.00  160816.60  46.27
848.8  347892.80  161009.60  46.28
850.0  348208.70  161183.53  46.29
851.2  348721.20  161422.84  46.29
852.5  349063.27  161595.09  46.29
853.7  349566.00  161807.57  46.29
854.9  349977.47  162007.95  46.29
856.1  350371.67  162197.53  46.29
857.4  350519.60  162269.70  46.29
858.6  350938.80  162484.74  46.30
859.8  351315.00  162667.86  46.30
861.0  351748.80  162884.06  46.31
862.2  352200.32  163073.12  46.30
863.5  352517.10  163247.97  46.31
864.7  353029.60  163460.63  46.30
865.9  353347.60  163619.09  46.31
867.1  353646.07  163751.45  46.30
868.3  353990.60  163921.50  46.31
869.5  354495.90  164117.27  46.30
870.8  354960.00  164358.43  46.30
872.0  355385.70  164591.78  46.31
873.2  355843.00  164747.64  46.30
874.4  356229.90  164937.41  46.30
875.6  356541.07  165096.26  46.30
876.8  357064.43  165309.46  46.30
878.0  357518.13  165485.11  46.29
879.2  357929.60  165693.57  46.29
880.4  358416.75  165904.04  46.29
881.6  358879.92  166097.24  46.28
882.8  359291.73  166259.66  46.27
884.0  359863.42  166512.58  46.27
885.2  360330.07  166713.52  46.27
886.5  360849.47  166944.92  46.26
887.7  361240.32  167146.42  46.27
888.8  361874.95  167407.05  46.26
890.0  362404.00  167625.06  46.25
891.2  363056.27  167865.78  46.24
892.4  363629.00  168112.80  46.23
893.6  364138.77  168346.39  46.23
894.8  364933.33  168725.81  46.23
896.0  365703.17  169065.29  46.23
897.2  366461.33  169384.74  46.22
898.4  367257.00  169710.83  46.21
899.6  367786.75  169929.61  46.20
900.8  368144.10  170075.63  46.20
902.0  368407.10  170172.73  46.19
903.2  368695.60  170270.56  46.18
904.3  368981.80  170403.34  46.18
905.5  369602.67  170664.46  46.18
906.7  370161.33  170898.57  46.17
907.9  370629.47  171101.93  46.17
909.1  370955.25  171225.52  46.16
910.2  371143.95  171276.39  46.15
911.4  371367.75  171355.69  46.14
912.6  371618.87  171431.80  46.13
913.8  371728.75  171505.73  46.14
915.0  372267.70  171657.50  46.11
916.2  372391.50  171716.07  46.11
917.3  372491.85  171716.02  46.10
918.5  372693.13  171793.95  46.10
919.7  372900.40  171879.47  46.09
920.8  373090.78  171868.30  46.07
922.0  373077.83  171876.83  46.07
923.2  373373.00  171938.00  46.05
924.4  373612.50  171993.53  46.04
925.5  373852.73  172074.61  46.03
926.7  374541.17  172287.31  46.00
927.9  375285.20  172611.08  45.99
929.0  376507.80  173146.50  45.99
930.2  378652.27  174015.93  45.96
931.4  380917.35  175026.73  45.95
932.5  383547.50  176126.20  45.92
933.7  384929.20  176638.32  45.89
934.9  385586.25  176860.00  45.87
936.0  385146.67  176614.13  45.86
937.2  383182.20  175676.39  45.85
938.3  381547.73  174870.74  45.83
939.5  380136.00  174130.97  45.81
940.7  380472.00  174142.89  45.77
941.8  381958.70  174723.30  45.74
943.0  383356.00  175272.36  45.72
944.2  384052.07  175465.77  45.69
945.3  383591.00  175193.57  45.67
946.5  382931.10  174782.57  45.64
947.6  383179.87  174753.85  45.61
948.8  383134.70  174585.54  45.57
949.9  383219.20  174482.80  45.53
951.1  382869.07  174093.90  45.47
952.2  382704.00  173846.86  45.43
953.4  382445.33  173537.33  45.38
954.5  382590.00  173333.83  45.31
955.7  382561.20  173175.60  45.27
956.8  382487.13  172867.33  45.20
958.0  382013.67  172495.76  45.15
959.1  381926.70  172281.92  45.11
960.3  381451.87  171977.50  45.08
961.4  381378.30  171824.63  45.05
962.6  381522.17  171775.17  45.02
963.7  381398.60  171634.04  45.00
964.9  381390.65  171509.84  44.97
966.0  381304.80  171450.00  44.96
967.2  381256.50  171420.77  44.96
968.3  381156.30  171312.30  44.95
969.5  380781.15  171126.52  44.94
970.6  380924.52  171117.68  44.92
971.8  381068.22  171157.03  44.92
972.9  381122.65  171099.30  44.89
974.0  381303.00  171206.13  44.90
975.2  381150.33  171179.77  44.91
976.3  380992.57  171101.79  44.91
977.5  380948.28  171079.17  44.91
978.6  380895.20  171052.28  44.91
979.7  381403.05  171103.50  44.86
980.9  381482.55  171093.83  44.85
982.0  381080.30  171136.46  44.91
983.2  380809.43  170989.57  44.90
984.3  380297.47  170960.36  44.95
985.4  380316.63  170927.59  44.94
986.6  380348.08  170726.75  44.89
987.7  381769.03  171317.77  44.87
988.9  381468.00  171299.48  44.91
990.0  381799.93  171737.20  44.98
993.1  341757.91  152392.04  44.59
996.9  341841.58  152881.43  44.72
1000.7  342595.93  153565.06  44.82
1004.5  342966.33  154068.32  44.92
1008.4  342717.17  154271.72  45.01
1012.2  342601.71  154537.89  45.11
1016.0  342559.80  154833.00  45.20
1019.8  342521.03  155093.40  45.28
1023.7  342233.83  155203.10  45.35
1027.5  341645.22  155164.66  45.42
1031.3  341602.40  155301.01  45.46
1035.1  341295.50  155304.36  45.50
1038.9  341162.07  155354.10  45.54
1042.7  340990.92  155373.08  45.57
1046.5  340838.00  155374.19  45.59
1050.3  340825.64  155417.10  45.60
1054.2  340516.17  155338.58  45.62
1058.0  340082.75  155145.12  45.62
1061.8  339955.54  155134.04  45.63
1065.6  339646.97  154993.45  45.63
1069.4  339485.67  154914.99  45.63
1073.2  338905.78  154651.26  45.63
1077.0  338351.73  154397.13  45.63
1080.8  338001.04  154135.86  45.60
1084.6  337278.43  153707.87  45.57
1088.4  336849.19  153442.47  45.55
1092.2  336141.00  153019.29  45.52
1096.0  335576.71  152659.44  45.49
1099.8  335065.25  152325.24  45.46
1103.6  334378.92  151882.35  45.42
1107.4  333488.62  151302.75  45.37
1111.2  333231.00  151020.40  45.32
1114.9  332646.42  150564.50  45.26
1118.7  332090.55  150079.76  45.19
1122.5  331507.80  149493.81  45.10
1126.3  330536.68  148658.30  44.97
1130.1  330106.97  147929.06  44.81
1133.9  328619.20  146520.00  44.59
1137.7  327289.50  145017.76  44.31
1141.4  325592.26  143177.94  43.97
1145.2  324881.29  141640.44  43.60
1149.0  323828.75  140051.67  43.25
1152.8  322316.95  138402.38  42.94
1156.6  320762.75  137013.43  42.71
1160.3  319180.33  135832.14  42.56
1164.1  316972.00  134612.71  42.47
1167.9  315387.50  133776.49  42.42
1171.7  314212.50  133191.00  42.39
1175.4  313045.90  132659.45  42.38
1179.2  312021.00  132150.46  42.35
1183.0  311737.33  131921.38  42.32
1186.7  311315.67  131626.57  42.28
1190.5  310493.67  131180.79  42.25
1194.3  309452.83  130707.59  42.24
1198.0  308274.45  130226.41  42.24
1201.8  306858.08  129657.12  42.25
1205.6  305765.67  129265.33  42.28
1209.3  304974.87  129061.70  42.32
1213.1  304208.63  128873.36  42.36
1216.8  303371.57  128714.90  42.43
1220.6  302353.33  128485.87  42.50
1224.3  301189.75  128189.05  42.56
1228.1  299982.20  127929.14  42.65
1231.9  298768.60  127589.81  42.71
1235.6  297378.53  127154.81  42.76
1239.4  296118.88  126785.70  42.82
1243.1  294928.77  126400.67  42.86
1246.9  293795.42  126000.68  42.89
1250.6  292887.20  125661.43  42.90
1254.3  291877.12  125272.16  42.92
1258.1  290921.63  124889.58  42.93
1261.8  289702.13  124370.15  42.93
1265.6  288439.43  123788.73  42.92
1269.3  287251.10  123201.91  42.89
1273.1  287290.95  123117.58  42.85
1276.8  287410.00  123060.91  42.82
1280.6  287054.97  122796.76  42.78
1284.3  285655.20  122053.49  42.73
1288.0  284342.86  121309.01  42.66
1291.8  283352.12  120615.26  42.57
1295.5  282220.40  119838.40  42.46
1299.2  281100.25  119021.60  42.34
1302.9  279716.94  118034.68  42.20
1306.7  278260.38  116949.12  42.03
1310.4  276841.53  115789.22  41.83
1314.1  275543.40  114620.63  41.60
1317.9  274343.13  113408.54  41.34
1321.6  273055.02  112038.54  41.03
1325.3  271537.88  110483.48  40.69
1329.0  270331.60  108987.63  40.32
1332.8  268437.40  107118.00  39.90
1336.5  266800.27  105342.18  39.48
1340.2  266463.17  104056.33  39.05
1343.9  266100.21  102749.67  38.61
1347.6  265539.15  101349.79  38.17
1351.4  265825.00  100300.50  37.73
