/*** Spectra Vista SIG Data ***/
name= 9_20220720_QUPA_34_avg.sig
comm= Averaged Ref/Tar of files: 8_20220720_QUPA_34_1_avg.sig,9_20220720_QUPA_34_2_avg.sig
data=
337.3  3209.08  230.17  7.17
338.8  3334.93  225.39  6.76
340.3  3498.13  223.32  6.38
341.8  3688.48  217.09  5.89
343.2  3862.80  210.16  5.44
344.7  4009.10  201.88  5.04
346.2  4166.70  196.66  4.72
347.7  4391.29  196.25  4.47
349.2  4573.80  192.24  4.20
350.6  4798.73  192.02  4.00
352.1  5084.86  183.39  3.61
353.6  5355.37  185.40  3.46
355.1  5612.50  187.94  3.35
356.6  5899.50  187.60  3.18
358.0  6156.70  193.22  3.14
359.5  6437.50  191.14  2.97
361.0  6733.13  193.80  2.88
362.5  7065.03  197.12  2.79
364.0  7407.71  193.49  2.61
365.4  7755.60  202.19  2.61
366.9  8094.13  210.22  2.60
368.4  8409.79  214.95  2.56
369.9  8756.10  221.22  2.53
371.3  9149.20  231.40  2.53
372.8  9531.45  240.34  2.52
374.3  9925.83  244.95  2.47
375.8  10312.87  243.07  2.36
377.2  10688.27  246.46  2.31
378.7  11073.84  249.02  2.25
380.2  11432.50  247.23  2.16
381.7  11909.02  252.75  2.12
383.1  12334.12  258.46  2.10
384.6  12813.13  261.27  2.04
386.1  13233.24  266.13  2.01
387.6  13645.68  272.71  2.00
389.0  14078.94  282.29  2.01
390.5  14505.15  283.96  1.96
392.0  15014.78  289.19  1.93
393.4  15546.05  294.03  1.89
394.9  16051.50  302.88  1.89
396.4  16551.38  308.16  1.86
397.9  17049.17  311.77  1.83
399.3  17550.23  324.64  1.85
400.8  18062.32  332.22  1.84
402.2  18658.00  337.86  1.81
403.7  19219.88  344.05  1.79
405.2  19784.41  351.97  1.78
406.6  20315.47  363.03  1.79
408.1  20867.34  373.12  1.79
409.6  21423.20  381.72  1.78
411.0  22054.55  393.15  1.78
412.5  22657.60  403.12  1.78
414.0  23281.84  415.26  1.78
415.4  23942.75  428.26  1.79
416.9  24562.78  439.38  1.79
418.4  25198.80  452.56  1.80
419.8  25868.27  469.82  1.82
421.3  26535.49  484.33  1.83
422.7  27271.60  496.48  1.82
424.2  28012.50  514.69  1.84
425.7  28715.17  529.21  1.84
427.1  29413.40  542.88  1.85
428.6  30157.84  559.92  1.86
430.0  30845.72  575.86  1.87
431.5  31660.90  596.22  1.88
432.9  32479.05  611.47  1.88
434.4  33315.18  630.44  1.89
435.9  34090.00  645.20  1.89
437.3  34870.00  662.42  1.90
438.8  35643.43  679.40  1.91
440.2  36445.39  698.33  1.92
441.7  37345.80  720.16  1.93
443.1  38190.92  740.68  1.94
444.6  39094.77  762.67  1.95
446.0  39958.68  784.19  1.96
447.5  40843.00  805.78  1.97
448.9  41718.60  828.37  1.99
450.4  42644.35  853.28  2.00
451.8  43446.00  874.66  2.01
453.3  44302.46  901.00  2.03
454.7  45247.34  921.37  2.04
456.2  46053.86  942.44  2.05
457.6  46962.53  963.58  2.05
459.1  47867.84  986.18  2.06
460.5  48725.13  1005.48  2.06
462.0  49699.87  1028.42  2.07
463.4  50653.47  1053.34  2.08
464.8  51568.75  1074.78  2.08
466.3  52490.90  1098.76  2.09
467.7  53414.63  1120.91  2.10
469.2  54404.57  1141.15  2.10
470.6  55305.49  1162.47  2.10
472.0  56262.47  1182.70  2.10
473.5  57187.42  1208.16  2.11
474.9  58130.50  1232.76  2.12
476.4  59198.40  1260.07  2.13
477.8  60204.00  1287.81  2.14
479.2  61156.17  1309.56  2.14
480.7  62170.13  1335.77  2.15
482.1  63223.57  1362.77  2.16
483.6  64321.77  1391.19  2.16
485.0  65320.85  1425.10  2.18
486.4  66425.60  1459.92  2.20
487.9  67431.00  1499.00  2.22
489.3  68515.43  1535.61  2.24
490.7  69511.82  1577.96  2.27
492.2  70653.10  1623.65  2.30
493.6  71667.80  1671.08  2.33
495.0  72696.00  1726.45  2.37
496.5  73781.01  1788.40  2.42
497.9  74788.69  1855.48  2.48
499.3  75864.86  1930.74  2.54
500.7  77024.82  2022.26  2.63
502.2  78075.93  2120.83  2.72
503.6  79229.34  2236.37  2.82
505.0  80194.10  2363.25  2.95
506.5  81405.33  2520.61  3.10
507.9  82506.07  2703.80  3.28
509.3  83792.67  2917.57  3.48
510.7  84961.50  3158.65  3.72
512.2  86237.23  3433.54  3.98
513.6  87592.40  3750.75  4.28
515.0  88892.03  4108.79  4.62
516.4  90153.00  4506.37  5.00
517.8  91647.71  4959.29  5.41
519.3  92848.08  5431.41  5.85
520.7  94280.19  5950.51  6.31
522.1  95458.57  6472.16  6.78
523.5  96711.57  7010.83  7.25
524.9  97989.45  7549.48  7.70
526.3  99268.52  8070.92  8.13
527.8  100727.55  8598.37  8.54
529.2  101831.57  9089.22  8.93
530.6  103081.49  9565.90  9.28
532.0  104668.67  10035.20  9.59
533.4  105939.30  10440.41  9.86
534.8  106756.61  10765.28  10.08
536.3  108295.50  11130.12  10.28
537.7  110128.20  11499.30  10.44
539.1  111500.17  11810.40  10.59
540.5  112663.49  12085.29  10.73
541.9  114350.95  12410.69  10.85
543.3  115560.94  12681.13  10.97
544.7  116880.40  12961.58  11.09
546.1  118515.29  13276.69  11.20
547.5  119634.67  13517.60  11.30
549.0  121220.00  13793.84  11.38
550.4  122548.75  14021.76  11.44
551.8  123924.86  14217.63  11.47
553.2  125357.82  14378.53  11.47
554.6  126602.67  14469.52  11.43
556.0  127991.55  14524.80  11.35
557.4  129447.97  14544.78  11.24
558.8  130930.95  14525.83  11.09
560.2  132250.13  14448.37  10.93
561.6  133763.18  14356.37  10.73
563.0  135214.80  14215.23  10.51
564.4  136647.12  14041.75  10.28
565.8  138022.29  13826.62  10.02
567.2  139624.59  13599.88  9.74
568.6  140990.75  13318.15  9.45
570.0  142283.56  13001.82  9.14
571.4  143845.22  12696.61  8.83
572.8  145437.13  12396.22  8.52
574.2  146932.80  12102.24  8.24
575.6  148357.50  11825.46  7.97
577.0  149725.00  11569.05  7.73
578.4  151298.88  11355.78  7.51
579.8  152671.05  11156.38  7.31
581.2  154240.73  10994.54  7.13
582.5  155524.20  10838.33  6.97
583.9  156896.74  10709.46  6.83
585.3  158534.93  10617.00  6.70
586.7  159864.36  10523.60  6.58
588.1  161226.13  10452.79  6.48
589.5  162712.67  10408.01  6.40
590.9  164192.53  10383.82  6.32
592.3  165844.07  10390.45  6.27
593.7  167145.23  10389.15  6.22
595.0  168627.38  10408.53  6.17
596.4  169938.54  10414.52  6.13
597.8  171282.50  10413.62  6.08
599.2  172691.20  10402.36  6.02
600.6  174282.12  10383.86  5.96
602.0  175446.85  10310.66  5.88
603.3  177075.92  10236.58  5.78
604.7  178586.39  10121.98  5.67
606.1  179929.00  9973.39  5.54
607.5  181414.90  9808.84  5.41
608.9  182949.73  9634.62  5.27
610.2  184199.40  9438.73  5.12
611.6  185647.23  9249.93  4.98
613.0  187040.80  9063.25  4.85
614.4  188296.40  8882.99  4.72
615.8  189608.25  8721.24  4.60
617.1  191002.00  8586.76  4.50
618.5  192474.00  8476.10  4.40
619.9  193840.93  8387.22  4.33
621.3  195296.63  8326.79  4.26
622.6  196730.09  8288.67  4.21
624.0  198038.10  8265.53  4.17
625.4  199349.43  8259.46  4.14
626.8  200761.17  8281.54  4.13
628.1  201968.80  8305.89  4.11
629.5  203659.61  8363.38  4.11
630.9  205107.93  8414.02  4.10
632.2  206382.05  8451.45  4.10
633.6  207863.25  8487.80  4.08
635.0  209260.94  8504.67  4.06
636.3  210644.80  8492.16  4.03
637.7  211864.96  8437.39  3.98
639.1  213342.50  8359.34  3.92
640.4  214686.44  8245.47  3.84
641.8  215759.74  8090.35  3.75
643.2  217177.22  7928.77  3.65
644.5  218403.83  7750.34  3.55
645.9  219924.00  7576.98  3.45
647.2  221371.74  7417.55  3.35
648.6  223074.00  7282.96  3.26
650.0  224402.40  7145.18  3.18
651.3  224757.78  6986.52  3.11
652.7  225782.44  6845.19  3.03
654.0  227503.87  6722.02  2.95
655.4  229048.18  6589.03  2.88
656.8  229292.70  6422.27  2.80
658.1  230299.07  6269.31  2.72
659.5  232394.58  6135.14  2.64
660.8  233977.50  6001.72  2.57
662.2  234826.67  5864.96  2.50
663.5  236421.72  5764.28  2.44
664.9  237678.14  5683.60  2.39
666.2  238472.40  5620.09  2.36
667.6  240172.35  5598.37  2.33
668.9  241205.21  5596.07  2.32
670.3  242269.05  5606.11  2.31
671.6  243647.88  5647.57  2.32
673.0  244702.50  5710.57  2.33
674.3  245803.57  5784.31  2.35
675.7  247011.89  5879.42  2.38
677.0  248045.55  5986.50  2.41
678.4  249286.29  6117.50  2.45
679.7  250292.10  6273.45  2.51
681.1  251478.40  6455.26  2.57
682.4  252536.70  6667.46  2.64
683.8  253685.90  6925.30  2.73
685.1  254562.88  7245.73  2.85
686.4  255773.60  7660.90  3.00
687.8  256972.67  8199.45  3.19
689.1  257892.34  8913.46  3.46
690.5  259081.20  9869.76  3.81
691.8  259863.44  11138.08  4.29
693.1  261056.35  12817.21  4.91
694.5  262095.17  14927.58  5.70
695.8  263194.75  17496.92  6.65
697.1  264301.92  20524.40  7.77
698.5  265249.50  23992.17  9.05
699.8  266227.18  27864.12  10.47
701.1  267300.46  32085.45  12.00
702.5  267999.23  36527.03  13.63
703.8  268912.50  41160.00  15.31
705.1  269952.15  45901.62  17.00
706.5  270901.58  50669.47  18.70
707.8  271805.80  55403.10  20.38
709.1  272610.58  60059.25  22.03
710.5  273667.29  64669.68  23.63
711.8  274453.54  69111.95  25.18
713.1  275360.40  73466.08  26.68
714.4  276185.50  77660.28  28.12
715.8  276928.84  81688.83  29.50
717.1  278138.30  85698.84  30.81
718.4  279014.40  89446.83  32.06
719.7  280031.01  93087.17  33.24
721.0  280515.00  96395.57  34.36
722.4  281213.54  99603.14  35.42
723.7  282090.65  102704.38  36.41
725.0  283062.60  105682.51  37.34
726.3  283958.22  108460.70  38.20
727.6  284445.15  110938.09  39.00
729.0  285255.78  113383.67  39.75
730.3  285985.85  115650.08  40.44
731.6  286813.07  117819.50  41.08
732.9  287554.87  119823.47  41.67
734.2  288299.46  121704.06  42.21
735.5  289247.72  123557.56  42.72
736.8  289993.20  125206.54  43.18
738.1  290719.60  126756.61  43.60
739.5  291598.85  128258.74  43.98
740.8  292239.66  129570.54  44.34
742.1  292923.09  130831.82  44.66
743.4  293633.34  132024.88  44.96
744.7  294539.11  133240.61  45.24
746.0  295344.40  134336.41  45.48
747.3  295834.75  135215.77  45.71
748.6  296519.84  136120.26  45.91
749.9  297240.67  136973.32  46.08
751.2  297935.67  137772.90  46.24
752.5  298789.90  138601.85  46.39
753.8  299393.15  139269.43  46.52
755.1  300040.00  139911.33  46.63
756.4  300565.39  140466.00  46.73
757.7  301470.46  141152.79  46.82
759.0  303108.55  142156.48  46.90
760.3  304207.20  142878.18  46.97
761.6  305660.60  143748.43  47.03
762.9  306180.50  144144.16  47.08
764.2  306525.50  144453.13  47.13
765.5  306787.80  144707.81  47.17
766.8  307178.67  145004.24  47.21
768.1  307674.60  145327.39  47.23
769.3  308242.20  145676.27  47.26
770.6  308866.14  146040.21  47.28
771.9  309549.34  146429.24  47.30
773.2  309929.20  146674.78  47.33
774.5  310510.20  146996.24  47.34
775.8  311118.40  147339.56  47.36
777.1  311652.37  147641.00  47.37
778.4  311973.66  147838.21  47.39
779.6  312697.09  148219.33  47.40
780.9  313150.00  148474.29  47.41
782.2  313581.59  148709.29  47.42
783.5  313895.84  148881.40  47.43
784.8  314394.45  149153.66  47.44
786.0  314770.75  149360.40  47.45
787.3  315127.70  149563.66  47.46
788.6  315513.05  149786.03  47.47
789.9  315957.14  150013.36  47.48
791.2  316563.85  150328.82  47.49
792.4  317208.51  150649.27  47.49
793.7  317667.40  150883.39  47.50
795.0  318236.88  151176.17  47.50
796.2  318851.51  151488.82  47.51
797.5  319516.30  151830.44  47.52
798.8  320171.77  152156.07  47.52
800.0  320801.49  152467.65  47.53
801.3  321277.97  152692.86  47.53
802.6  321859.80  152973.70  47.53
803.8  322431.17  153270.76  47.54
805.1  322910.30  153502.66  47.54
806.4  323380.10  153749.83  47.54
807.7  323882.55  153986.30  47.54
808.9  324414.55  154247.19  47.55
810.2  324903.25  154489.27  47.55
811.4  325398.13  154732.35  47.55
812.7  326002.08  155038.35  47.56
814.0  326785.87  155413.76  47.56
815.2  327347.84  155709.41  47.57
816.5  327743.99  155904.77  47.57
817.7  328202.44  156116.84  47.57
819.0  328699.25  156368.90  47.57
820.2  328885.33  156453.32  47.57
821.5  329531.89  156778.49  47.58
822.7  329873.65  156955.71  47.58
824.0  330189.30  157117.67  47.58
825.2  330635.93  157338.78  47.59
826.5  330972.28  157481.36  47.58
827.7  331484.56  157728.51  47.58
829.0  331882.22  157914.02  47.58
830.2  332188.62  158073.05  47.59
831.5  332628.24  158285.34  47.59
832.7  332930.68  158426.47  47.59
834.0  333212.45  158568.16  47.59
835.2  333551.26  158739.31  47.59
836.4  333846.52  158888.75  47.59
837.7  334233.33  159085.78  47.60
838.9  334654.06  159296.05  47.60
840.1  335010.83  159465.83  47.60
841.4  335406.54  159675.76  47.61
842.6  335798.74  159860.77  47.61
843.8  336110.07  160034.09  47.61
845.1  336554.07  160264.50  47.62
846.3  336920.60  160470.15  47.63
847.5  337304.80  160664.93  47.63
848.8  337695.80  160855.99  47.63
850.0  338038.52  161008.42  47.63
851.2  338548.05  161259.99  47.63
852.5  338903.87  161455.16  47.64
853.7  339365.25  161685.77  47.64
854.9  339776.04  161891.18  47.65
856.1  340195.27  162091.69  47.65
857.4  340436.29  162209.95  47.65
858.6  340870.13  162418.39  47.65
859.8  341278.75  162598.15  47.64
861.0  341663.40  162806.17  47.65
862.2  342131.36  163025.75  47.65
863.5  342437.66  163182.64  47.65
864.7  342914.00  163414.30  47.65
865.9  343291.80  163597.42  47.66
867.1  343635.82  163747.56  47.65
868.3  344035.55  163939.32  47.65
869.5  344484.89  164159.78  47.65
870.8  344989.50  164403.97  47.65
872.0  345488.10  164624.93  47.65
873.2  345839.80  164807.93  47.65
874.4  346305.38  165013.00  47.65
875.6  346648.97  165172.62  47.65
876.8  347117.60  165383.58  47.64
878.0  347611.27  165604.87  47.64
879.2  348121.80  165824.63  47.63
880.4  348632.63  166041.02  47.63
881.6  349097.41  166257.94  47.63
882.8  349447.74  166456.54  47.63
884.0  350022.73  166704.70  47.63
885.2  350507.67  166917.32  47.62
886.5  351075.97  167181.86  47.62
887.7  351547.63  167385.63  47.61
888.8  352199.80  167673.48  47.61
890.0  352727.57  167902.41  47.60
891.2  353280.23  168160.27  47.60
892.4  353904.78  168413.72  47.59
893.6  354471.65  168681.78  47.59
894.8  355321.25  169067.47  47.58
896.0  356109.00  169420.70  47.58
897.2  356890.08  169780.06  47.57
898.4  357606.70  170093.24  47.56
899.6  358195.63  170348.08  47.56
900.8  358620.71  170525.94  47.55
902.0  358852.90  170616.83  47.55
903.2  359181.58  170744.97  47.54
904.3  359439.80  170891.46  47.54
905.5  360101.79  171167.45  47.53
906.7  360740.84  171427.70  47.52
907.9  361263.94  171676.59  47.52
909.1  361652.18  171798.27  47.50
910.2  361827.85  171897.84  47.51
911.4  362093.55  171992.44  47.50
912.6  362259.52  172089.34  47.50
913.8  362569.03  172194.62  47.49
915.0  363063.05  172357.22  47.47
916.2  363350.00  172442.17  47.46
917.3  363370.13  172429.97  47.45
918.5  363629.50  172536.76  47.45
919.7  363911.15  172671.28  47.45
920.8  364045.09  172694.33  47.44
922.0  364229.25  172727.05  47.42
923.2  364500.50  172802.50  47.41
924.4  364710.38  172870.57  47.40
925.5  365107.37  172968.52  47.37
926.7  365713.92  173199.87  47.36
927.9  366512.80  173531.71  47.35
929.0  367825.95  174127.50  47.34
930.2  369796.37  175020.89  47.33
931.4  372081.38  176020.51  47.31
932.5  374571.97  177113.96  47.28
933.7  376007.00  177713.38  47.26
934.9  376629.17  177914.50  47.24
936.0  376338.63  177715.33  47.22
937.2  374468.50  176762.85  47.20
938.3  373023.09  176004.97  47.18
939.5  371732.40  175316.98  47.16
940.7  371991.60  175356.83  47.14
941.8  373479.83  175931.23  47.11
943.0  374811.75  176473.34  47.08
944.2  375650.17  176750.41  47.05
945.3  375316.50  176511.50  47.03
946.5  374674.50  176085.40  47.00
947.6  374916.20  176083.30  46.97
948.8  374985.65  175914.16  46.91
949.9  375125.80  175823.24  46.87
951.1  374914.91  175537.68  46.82
952.2  374748.00  175301.09  46.78
953.4  374569.84  175044.34  46.73
954.5  374657.40  174879.23  46.68
955.7  374707.20  174689.28  46.62
956.8  374570.10  174420.65  46.57
958.0  374335.00  174128.54  46.52
959.1  374252.05  173912.51  46.47
960.3  374092.67  173637.70  46.42
961.4  374107.25  173510.04  46.38
962.6  374249.75  173507.08  46.36
963.7  374120.63  173366.51  46.34
964.9  373943.58  173275.39  46.34
966.0  373932.45  173189.00  46.32
967.2  374036.40  173193.09  46.30
968.3  373829.85  173054.11  46.29
969.5  373884.97  172997.02  46.27
970.6  373898.88  172993.02  46.27
971.8  374081.63  173101.87  46.27
972.9  373941.48  173041.04  46.27
974.0  374350.47  173104.12  46.24
975.2  374100.42  173023.48  46.25
976.3  374180.59  172984.90  46.23
977.5  374267.19  173061.89  46.24
978.6  374093.50  173048.97  46.26
979.7  374465.88  173144.21  46.24
980.9  374418.06  173122.99  46.24
982.0  374201.02  173104.26  46.26
983.2  374167.41  173064.90  46.25
984.3  374134.40  172998.32  46.24
985.4  374530.88  173043.52  46.20
986.6  374411.54  173069.20  46.22
987.7  375464.19  173498.06  46.21
988.9  375263.40  173485.87  46.23
990.0  375978.33  174010.40  46.28
993.1  319724.24  146849.89  45.93
996.9  319761.57  147290.87  46.06
1000.7  320430.93  147943.87  46.17
1004.5  320796.75  148429.27  46.27
1008.4  320582.92  148649.08  46.37
1012.2  320604.77  148941.20  46.46
1016.0  320659.80  149248.50  46.54
1019.8  320711.74  149555.18  46.63
1023.7  320512.23  149674.46  46.70
1027.5  319917.86  149636.07  46.77
1031.3  319891.84  149759.98  46.82
1035.1  319552.22  149736.31  46.86
1038.9  319388.21  149765.89  46.89
1042.7  319158.29  149751.11  46.92
1046.5  319012.92  149751.92  46.94
1050.3  319021.88  149808.62  46.96
1054.2  318735.38  149729.42  46.98
1058.0  318261.54  149527.00  46.98
1061.8  318166.60  149521.31  46.99
1065.6  317842.77  149364.35  46.99
1069.4  317690.07  149307.88  47.00
1073.2  317195.88  149060.67  46.99
1077.0  316688.69  148806.05  46.99
1080.8  316371.88  148584.01  46.96
1084.6  315718.84  148195.49  46.94
1088.4  315386.98  147980.84  46.92
1092.2  314759.25  147593.41  46.89
1096.0  314254.66  147262.89  46.86
1099.8  313791.94  146914.16  46.82
1103.6  313114.27  146457.13  46.77
1107.4  312239.62  145889.87  46.72
1111.2  311943.55  145609.01  46.68
1114.9  311261.42  145126.21  46.63
1118.7  310691.70  144609.48  46.54
1122.5  310081.63  144020.68  46.45
1126.3  309116.71  143214.29  46.33
1130.1  308690.13  142498.04  46.16
1133.9  307381.20  141171.65  45.93
1137.7  306202.65  139736.41  45.64
1141.4  304692.16  138010.62  45.30
1145.2  304045.29  136558.97  44.91
1149.0  303065.73  135040.21  44.56
1152.8  301719.50  133490.63  44.24
1156.6  300329.52  132176.83  44.01
1160.3  298874.17  131054.12  43.85
1164.1  296870.45  129871.63  43.75
1167.9  295406.25  129060.12  43.69
1171.7  294320.25  128489.63  43.66
1175.4  293244.74  127956.04  43.63
1179.2  292238.59  127432.01  43.61
1183.0  291857.34  127159.31  43.57
1186.7  291437.19  126861.05  43.53
1190.5  290682.10  126431.07  43.49
1194.3  289793.88  125985.76  43.47
1198.0  288759.08  125545.65  43.48
1201.8  287452.79  125004.10  43.49
1205.6  286402.67  124620.00  43.51
1209.3  285622.22  124413.04  43.56
1213.1  284917.88  124242.65  43.61
1216.8  284195.68  124123.73  43.68
1220.6  283288.13  123927.47  43.75
1224.3  282261.21  123668.86  43.81
1228.1  281154.50  123407.56  43.89
1231.9  280000.44  123078.16  43.96
1235.6  278647.66  122643.53  44.01
1239.4  277419.38  122266.48  44.07
1243.1  276307.21  121889.46  44.11
1246.9  275267.21  121508.64  44.14
1250.6  274442.77  121201.15  44.16
1254.3  273522.01  120844.19  44.18
1258.1  272679.58  120495.49  44.19
1261.8  271563.00  120014.72  44.19
1265.6  270379.75  119462.22  44.18
1269.3  269285.22  118921.10  44.16
1273.1  269312.43  118843.30  44.13
1276.8  269476.60  118813.32  44.09
1280.6  269149.83  118558.97  44.05
1284.3  267787.40  117826.98  44.00
1288.0  266525.75  117093.14  43.93
1291.8  265543.13  116400.55  43.83
1295.5  264506.00  115666.78  43.73
1299.2  263449.96  114878.63  43.61
1302.9  262173.18  113931.92  43.46
1306.7  260788.62  112872.67  43.28
1310.4  259460.93  111752.24  43.07
1314.1  258219.23  110614.30  42.84
1317.9  257134.90  109441.34  42.56
1321.6  255918.82  108133.20  42.25
1325.3  254508.72  106646.78  41.90
1329.0  253313.61  105194.10  41.53
1332.8  251528.20  103394.50  41.11
1336.5  249999.30  101679.27  40.67
1340.2  249613.00  100431.50  40.23
1343.9  249059.27  99101.85  39.79
1347.6  248111.55  97626.35  39.35
1351.4  247798.50  96435.47  38.92
1355.1  247505.14  95275.72  38.49
1358.8  247288.00  94104.00  38.05
