/*** Spectra Vista SIG Data ***/
name= 54_20220722_LIST_63_avg.sig
comm= Averaged Ref/Tar of files: HR.072222.0037_moc.sig,HR.072222.0038_moc.sig,HR.072222.0039_moc.sig
data=
337.3  3027.13  231.58  7.65
338.8  3174.60  224.47  7.07
340.3  3326.35  231.13  6.95
341.8  3520.83  237.77  6.75
343.2  3640.80  230.88  6.34
344.7  3795.85  221.78  5.84
346.2  3962.45  206.97  5.22
347.7  4129.13  209.73  5.08
349.2  4309.20  206.64  4.80
350.6  4553.90  210.56  4.62
352.1  4822.88  200.06  4.15
353.6  5066.20  203.57  4.02
355.1  5320.65  206.54  3.88
356.6  5538.98  201.02  3.63
358.0  5805.80  204.16  3.52
359.5  6056.40  206.00  3.40
361.0  6344.10  211.47  3.33
362.5  6674.70  214.68  3.22
364.0  6996.70  221.75  3.17
365.4  7334.10  228.55  3.12
366.9  7679.75  228.37  2.97
368.4  7991.58  232.75  2.91
369.9  8296.68  241.42  2.91
371.3  8704.20  249.20  2.86
372.8  9106.65  265.50  2.92
374.3  9486.88  261.58  2.76
375.8  9890.65  269.50  2.72
377.2  10248.90  276.17  2.69
378.7  10625.50  269.00  2.53
380.2  11002.10  269.00  2.44
381.7  11512.65  277.46  2.41
383.1  11965.80  287.47  2.40
384.6  12462.45  298.52  2.40
386.1  12917.95  299.08  2.32
387.6  13367.20  305.43  2.28
389.0  13855.60  300.16  2.17
390.5  14310.45  304.44  2.13
392.0  14864.90  306.82  2.06
393.4  15397.15  329.31  2.14
394.9  15921.00  341.04  2.14
396.4  16430.63  345.00  2.10
397.9  16938.13  355.33  2.10
399.3  17448.93  351.17  2.01
400.8  17970.93  352.27  1.96
402.2  18559.80  366.61  1.98
403.7  19139.63  375.57  1.96
405.2  19697.60  385.11  1.96
406.6  20230.40  395.95  1.96
408.1  20792.00  403.79  1.94
409.6  21357.35  409.73  1.92
411.0  21969.15  424.15  1.93
412.5  22574.30  430.38  1.91
414.0  23186.75  448.25  1.93
415.4  23850.00  461.10  1.93
416.9  24459.98  470.31  1.92
418.4  25117.88  480.57  1.91
419.8  25771.20  495.04  1.92
421.3  26434.48  515.74  1.95
422.7  27178.80  535.92  1.97
424.2  27894.38  551.25  1.98
425.7  28590.20  573.76  2.01
427.1  29292.08  588.69  2.01
428.6  30023.50  609.67  2.03
430.0  30714.20  625.21  2.04
431.5  31521.60  650.73  2.06
432.9  32347.20  671.95  2.08
434.4  33162.38  697.15  2.10
435.9  33922.00  718.67  2.12
437.3  34691.25  738.83  2.13
438.8  35471.48  762.01  2.15
440.2  36274.70  779.75  2.15
441.7  37171.60  805.79  2.17
443.1  38014.25  832.10  2.19
444.6  38907.00  861.11  2.21
446.0  39781.35  887.49  2.23
447.5  40649.13  913.37  2.25
448.9  41512.20  942.56  2.27
450.4  42437.15  973.84  2.29
451.8  43251.00  1001.87  2.32
453.3  44088.90  1030.31  2.34
454.7  45045.33  1059.27  2.35
456.2  45851.08  1082.69  2.36
457.6  46741.28  1109.79  2.37
459.1  47650.20  1129.96  2.37
460.5  48497.75  1155.60  2.38
462.0  49487.98  1181.18  2.39
463.4  50443.40  1209.25  2.40
464.8  51365.25  1232.10  2.40
466.3  52285.20  1256.64  2.40
467.7  53203.50  1278.01  2.40
469.2  54202.83  1304.28  2.41
470.6  55104.10  1326.32  2.41
472.0  56060.73  1356.83  2.42
473.5  56994.38  1380.48  2.42
474.9  57940.50  1409.80  2.43
476.4  59011.20  1445.76  2.45
477.8  60001.00  1473.20  2.46
479.2  60958.00  1498.33  2.46
480.7  61981.95  1524.70  2.46
482.1  63030.90  1560.60  2.48
483.6  64129.10  1593.35  2.48
485.0  65137.50  1630.85  2.50
486.4  66246.15  1668.40  2.52
487.9  67260.38  1708.20  2.54
489.3  68338.73  1751.29  2.56
490.7  69340.03  1792.52  2.59
492.2  70486.50  1842.40  2.61
493.6  71506.65  1896.69  2.65
495.0  72540.00  1951.95  2.69
496.5  73639.15  2017.32  2.74
497.9  74666.40  2087.76  2.80
499.3  75752.35  2162.12  2.85
500.7  76912.50  2250.24  2.93
502.2  77964.00  2353.52  3.02
503.6  79132.00  2468.37  3.12
505.0  80120.85  2603.79  3.25
506.5  81321.60  2761.94  3.40
507.9  82441.83  2941.28  3.57
509.3  83708.80  3145.49  3.76
510.7  84898.13  3377.40  3.98
512.2  86198.63  3645.77  4.23
513.6  87535.00  3960.60  4.52
515.0  88863.58  4311.12  4.85
516.4  90124.65  4704.21  5.22
517.8  91614.75  5160.33  5.63
519.3  92824.63  5635.63  6.07
520.7  94261.45  6157.65  6.53
522.1  95463.23  6693.09  7.01
523.5  96730.10  7252.09  7.50
524.9  98068.50  7819.44  7.97
526.3  99359.40  8372.75  8.43
527.8  100712.70  8919.90  8.86
529.2  101737.20  9436.67  9.28
530.6  103245.25  9983.99  9.67
532.0  104832.00  10490.67  10.01
533.4  106007.18  10905.25  10.29
534.8  106791.88  11248.30  10.53
536.3  108321.30  11634.08  10.74
537.7  110224.80  12045.60  10.93
539.1  111590.55  12366.08  11.08
540.5  112643.40  12636.43  11.22
541.9  114252.83  12950.93  11.34
543.3  115414.33  13218.65  11.45
544.7  116576.40  13485.44  11.57
546.1  118207.10  13805.11  11.68
547.5  119380.80  14061.23  11.78
549.0  120967.00  14351.33  11.86
550.4  122336.25  14593.08  11.93
551.8  123752.95  14812.18  11.97
553.2  125155.30  14989.03  11.98
554.6  126380.80  15098.03  11.95
556.0  127791.45  15175.86  11.88
557.4  129269.00  15206.66  11.76
558.8  130751.55  15192.42  11.62
560.2  132063.38  15111.53  11.44
561.6  133585.95  15012.00  11.24
563.0  135043.70  14866.12  11.01
564.4  136506.45  14688.41  10.76
565.8  137901.88  14467.00  10.49
567.2  139492.00  14225.83  10.20
568.6  140863.88  13931.60  9.89
570.0  142170.15  13604.61  9.57
571.4  143749.45  13290.94  9.25
572.8  145359.25  12982.13  8.93
574.2  146843.20  12678.40  8.63
575.6  148252.50  12391.50  8.36
577.0  149645.90  12133.19  8.11
578.4  151230.63  11913.42  7.88
579.8  152606.03  11704.50  7.67
581.2  154179.00  11531.79  7.48
582.5  155469.60  11361.48  7.31
583.9  156869.20  11217.87  7.15
585.3  158507.10  11107.74  7.01
586.7  159860.35  10995.66  6.88
588.1  161238.25  10904.42  6.76
589.5  162741.25  10840.43  6.66
590.9  164238.00  10794.61  6.57
592.3  165885.90  10781.29  6.50
593.7  167208.60  10765.30  6.44
595.0  168700.05  10767.87  6.38
596.4  170020.55  10764.04  6.33
597.8  171387.10  10756.37  6.28
599.2  172801.20  10753.60  6.22
600.6  174410.93  10752.39  6.16
602.0  175612.43  10705.99  6.10
603.3  177247.55  10657.53  6.01
604.7  178773.28  10586.27  5.92
606.1  180131.40  10476.96  5.82
607.5  181637.70  10356.49  5.70
608.9  183197.95  10220.91  5.58
610.2  184473.45  10054.80  5.45
611.6  185938.50  9901.44  5.33
613.0  187358.70  9735.45  5.20
614.4  188626.20  9570.02  5.07
615.8  189949.50  9422.40  4.96
617.1  191364.60  9292.36  4.86
618.5  192873.60  9187.84  4.76
619.9  194263.80  9098.28  4.68
621.3  195748.88  9038.97  4.62
622.6  197213.00  9001.57  4.56
624.0  198532.50  8973.36  4.52
625.4  199887.60  8968.19  4.49
626.8  201339.78  8983.82  4.46
628.1  202536.68  8999.47  4.44
629.5  204249.00  9046.89  4.43
630.9  205711.83  9078.63  4.41
632.2  206959.20  9087.28  4.39
633.6  208428.38  9085.38  4.36
635.0  209840.00  9044.91  4.31
636.3  211250.30  8972.93  4.25
637.7  212496.25  8854.30  4.17
639.1  214025.00  8724.33  4.08
640.4  215369.88  8564.13  3.98
641.8  216466.80  8368.24  3.87
643.2  217940.28  8188.16  3.76
644.5  219182.50  7983.77  3.64
645.9  220754.25  7808.04  3.54
647.2  222433.58  7665.61  3.45
648.6  224147.25  7543.80  3.37
650.0  225439.20  7439.04  3.30
651.3  225853.38  7337.48  3.25
652.7  227019.45  7265.36  3.20
654.0  229000.00  7215.03  3.15
655.4  230369.13  7127.06  3.09
656.8  230450.40  6997.65  3.04
658.1  231517.30  6879.61  2.97
659.5  233831.85  6799.59  2.91
660.8  235575.00  6711.00  2.85
662.2  236364.80  6573.65  2.78
663.5  237824.55  6470.75  2.72
664.9  239033.60  6376.59  2.67
666.2  239693.40  6301.84  2.63
667.6  241266.28  6271.84  2.60
668.9  242369.00  6270.96  2.59
670.3  243440.00  6267.98  2.57
671.6  244857.38  6310.05  2.58
673.0  245919.38  6372.00  2.59
674.3  247078.00  6444.36  2.61
675.7  248321.68  6548.92  2.64
677.0  249345.03  6663.30  2.67
678.4  250578.43  6810.13  2.72
679.7  251591.58  6980.46  2.77
681.1  252780.83  7169.96  2.84
682.4  253862.70  7399.08  2.91
683.8  255034.00  7679.01  3.01
685.1  255942.00  8006.30  3.13
686.4  257142.60  8427.12  3.28
687.8  258322.50  8962.30  3.47
689.1  259301.50  9662.43  3.73
690.5  260578.65  10599.86  4.07
691.8  261316.83  11818.85  4.52
693.1  262558.80  13448.06  5.12
694.5  263649.75  15488.20  5.87
695.8  264764.50  17975.53  6.79
697.1  265879.25  20917.87  7.87
698.5  266883.90  24298.08  9.10
699.8  267882.45  28089.79  10.49
701.1  268970.85  32231.76  11.98
702.5  269698.00  36603.16  13.57
703.8  270585.00  41172.00  15.22
705.1  271678.88  45872.58  16.88
706.5  272661.75  50630.15  18.57
707.8  273564.00  55389.26  20.25
709.1  274396.58  60104.85  21.90
710.5  275490.50  64846.68  23.54
711.8  276274.70  69471.93  25.15
713.1  277211.30  74092.49  26.73
714.4  278058.70  78614.93  28.27
715.8  278816.90  83033.31  29.78
717.1  280045.50  87513.66  31.25
718.4  280918.40  91774.29  32.67
719.7  281971.35  95971.25  34.04
721.0  282487.50  99870.00  35.35
722.4  283205.45  103705.95  36.62
723.7  284098.95  107469.72  37.83
725.0  285085.13  111110.10  38.97
726.3  285997.25  114563.24  40.06
727.6  286522.23  117700.92  41.08
729.0  287364.88  120802.52  42.04
730.3  288088.80  123687.23  42.93
731.6  288935.15  126454.56  43.77
732.9  289680.65  129024.19  44.54
734.2  290457.75  131439.18  45.25
735.5  291404.18  133803.93  45.92
736.8  292126.20  135911.60  46.52
738.1  292942.30  137903.00  47.08
739.5  293847.13  139815.31  47.58
740.8  294507.68  141488.34  48.04
742.1  295194.13  143090.49  48.47
743.4  295900.00  144580.00  48.86
744.7  296813.25  146082.13  49.22
746.0  297634.35  147438.98  49.54
747.3  298157.53  148545.29  49.82
748.6  298828.75  149648.70  50.08
749.9  299520.00  150678.67  50.31
751.2  300202.00  151624.67  50.51
752.5  301064.95  152600.94  50.69
753.8  301635.60  153387.06  50.85
755.1  302302.00  154152.27  50.99
756.4  302842.53  154804.07  51.12
757.7  303799.83  155608.65  51.22
759.0  305468.80  156748.57  51.31
760.3  306583.20  157562.24  51.39
761.6  308054.60  158528.91  51.46
762.9  308561.25  158984.17  51.52
764.2  308946.50  159337.67  51.57
765.5  309220.05  159616.86  51.62
766.8  309672.00  159957.76  51.65
768.1  310168.00  160322.88  51.69
769.3  310730.70  160694.43  51.72
770.6  311335.05  161088.89  51.74
771.9  312066.30  161521.64  51.76
773.2  312428.40  161770.19  51.78
774.5  313027.00  162131.49  51.79
775.8  313686.05  162506.28  51.81
777.1  314237.00  162824.13  51.82
778.4  314582.68  163038.04  51.83
779.6  315322.80  163447.87  51.84
780.9  315780.00  163720.00  51.85
782.2  316233.50  163979.20  51.85
783.5  316529.00  164171.33  51.87
784.8  317035.13  164445.21  51.87
786.0  317418.50  164671.36  51.88
787.3  317834.55  164908.02  51.88
788.6  318250.00  165142.05  51.89
789.9  318715.60  165400.67  51.90
791.2  319332.73  165737.26  51.90
792.4  319989.40  166084.08  51.90
793.7  320439.60  166336.45  51.91
795.0  321033.08  166662.54  51.91
796.2  321680.78  167008.87  51.92
797.5  322386.90  167379.13  51.92
798.8  323013.25  167727.36  51.93
800.0  323643.60  168067.30  51.93
801.3  324105.80  168331.89  51.94
802.6  324683.78  168641.43  51.94
803.8  325281.25  168967.81  51.95
805.1  325794.88  169232.23  51.94
806.4  326212.20  169473.88  51.95
807.7  326768.18  169741.44  51.95
808.9  327296.85  170040.12  51.95
810.2  327829.95  170307.57  51.95
811.4  328298.70  170564.01  51.95
812.7  328900.00  170885.00  51.96
814.0  329693.80  171315.68  51.96
815.2  330284.25  171625.90  51.96
816.5  330675.05  171856.33  51.97
817.7  331144.80  172085.60  51.97
819.0  331653.85  172351.67  51.97
820.2  331804.00  172456.53  51.98
821.5  332463.90  172795.50  51.97
822.7  332816.53  172998.79  51.98
824.0  333188.10  173165.40  51.97
825.2  333616.73  173408.04  51.98
826.5  333903.33  173562.28  51.98
827.7  334446.10  173824.89  51.97
829.0  334838.20  174013.22  51.97
830.2  335122.65  174169.49  51.97
831.5  335603.80  174421.70  51.97
832.7  335901.30  174564.11  51.97
834.0  336212.50  174720.15  51.97
835.2  336580.20  174901.25  51.96
836.4  336851.90  175052.02  51.97
837.7  337232.40  175261.12  51.97
838.9  337664.83  175513.01  51.98
840.1  337998.83  175724.28  51.99
841.4  338441.20  175965.15  51.99
842.6  338765.80  176151.28  52.00
843.8  339118.20  176346.93  52.00
845.1  339660.05  176609.77  52.00
846.3  339985.70  176830.23  52.01
847.5  340370.10  177048.48  52.02
848.8  340765.20  177267.12  52.02
850.0  341066.60  177458.21  52.03
851.2  341678.25  177736.14  52.02
852.5  342011.70  177939.53  52.03
853.7  342497.25  178176.00  52.02
854.9  342860.70  178417.12  52.04
856.1  343319.60  178658.31  52.04
857.4  343533.63  178777.66  52.04
858.6  344005.15  179020.89  52.04
859.8  344446.88  179237.25  52.04
861.0  344892.60  179468.64  52.04
862.2  345353.43  179687.08  52.03
863.5  345621.90  179897.68  52.05
864.7  346156.80  180164.16  52.05
865.9  346521.40  180368.27  52.05
867.1  346873.70  180500.87  52.04
868.3  347304.00  180727.82  52.04
869.5  347838.70  180964.89  52.03
870.8  348381.00  181243.80  52.02
872.0  348813.08  181517.86  52.04
873.2  349252.35  181724.80  52.03
874.4  349622.33  181926.81  52.04
875.6  350052.70  182099.73  52.02
876.8  350585.55  182333.52  52.01
878.0  351013.35  182558.51  52.01
879.2  351510.45  182843.84  52.02
880.4  351977.63  183083.00  52.02
881.6  352424.03  183324.77  52.02
882.8  352928.80  183469.33  51.98
884.0  353572.30  183723.69  51.96
885.2  354044.90  183994.60  51.97
886.5  354511.50  184286.75  51.98
887.7  354968.58  184515.24  51.98
888.8  355607.40  184837.96  51.98
890.0  356209.85  185084.90  51.96
891.2  356809.60  185326.11  51.94
892.4  357484.05  185602.83  51.92
893.6  358036.60  185865.57  51.91
894.8  358840.25  186311.50  51.92
896.0  359682.00  186722.33  51.91
897.2  360483.50  187086.03  51.90
898.4  361221.30  187427.24  51.89
899.6  361796.63  187667.50  51.87
900.8  362134.88  187825.18  51.87
902.0  362346.60  187932.54  51.87
903.2  362690.55  188081.06  51.86
904.3  363109.80  188285.68  51.85
905.5  363715.85  188527.17  51.83
906.7  364335.00  188788.33  51.82
907.9  364910.35  188984.18  51.79
909.1  365155.43  189128.79  51.79
910.2  365341.13  189211.57  51.79
911.4  365531.40  189321.60  51.79
912.6  365987.05  189407.31  51.75
913.8  366224.70  189487.19  51.74
915.0  366728.25  189640.78  51.71
916.2  366941.25  189668.70  51.69
917.3  366796.13  189646.23  51.70
918.5  367012.10  189720.49  51.69
919.7  367419.15  189835.42  51.67
920.8  367548.08  189800.07  51.64
922.0  367732.75  189817.83  51.62
923.2  368004.00  189826.00  51.58
924.4  368215.88  189868.95  51.56
925.5  368568.10  189891.37  51.52
926.7  369178.38  190080.12  51.49
927.9  369886.80  190409.28  51.48
929.0  371406.60  191000.70  51.43
930.2  373448.80  191927.87  51.39
931.4  375707.70  192981.78  51.36
932.5  378381.35  194122.00  51.30
933.7  379512.15  194652.66  51.29
934.9  380244.38  194832.75  51.24
936.0  379949.38  194520.95  51.20
937.2  378218.70  193377.96  51.13
938.3  376588.95  192423.08  51.10
939.5  375285.60  191511.84  51.03
940.7  375429.60  191427.84  50.99
941.8  376988.33  191914.95  50.91
943.0  378217.50  192418.90  50.88
944.2  379181.40  192610.51  50.80
945.3  378836.25  192215.40  50.74
946.5  378114.75  191628.18  50.68
947.6  378348.80  191462.80  50.60
948.8  378348.75  191127.56  50.52
949.9  378613.20  190846.32  50.41
951.1  378390.68  190338.33  50.30
952.2  378216.00  189883.20  50.20
953.4  378024.00  189371.23  50.10
954.5  377816.40  189006.48  50.03
955.7  378063.00  188553.12  49.87
956.8  377838.60  188091.28  49.78
958.0  377436.00  187595.73  49.70
959.1  377186.48  187231.36  49.64
960.3  376929.03  186831.69  49.57
961.4  376921.85  186545.43  49.49
962.6  377126.75  186397.63  49.43
963.7  376819.20  186218.03  49.42
964.9  377039.55  186026.26  49.34
966.0  376761.38  185954.67  49.36
967.2  377206.20  185926.38  49.29
968.3  376905.15  185784.30  49.29
969.5  376587.53  185600.52  49.28
970.6  376497.40  185553.93  49.28
971.8  376976.08  185643.50  49.25
972.9  376855.58  185544.91  49.24
974.0  377066.30  185676.09  49.24
975.2  376943.13  185662.97  49.25
976.3  376809.78  185668.15  49.27
977.5  376662.30  185759.56  49.32
978.6  376494.10  185806.44  49.35
979.7  376306.35  185916.29  49.41
980.9  376522.38  185781.10  49.34
982.0  376280.80  185836.64  49.39
983.2  376040.80  185704.21  49.38
984.3  375222.00  185834.59  49.53
985.4  375495.18  185992.58  49.53
986.6  375230.38  186120.82  49.60
987.7  376333.83  186623.31  49.59
988.9  376412.40  186689.52  49.60
990.0  376948.60  187067.41  49.63
993.1  331685.38  162206.01  48.90
996.9  331997.43  163072.21  49.12
1000.7  332884.94  164086.80  49.29
1004.5  333349.92  164918.66  49.47
1008.4  333000.96  165413.07  49.67
1012.2  332967.67  165975.35  49.85
1016.0  332880.00  166540.12  50.03
1019.8  332899.88  167093.85  50.19
1023.7  332710.48  167479.94  50.34
1027.5  332315.55  167708.45  50.47
1031.3  332403.30  168089.52  50.57
1035.1  332308.73  168282.05  50.64
1038.9  332301.57  168480.77  50.70
1042.7  332173.58  168626.87  50.76
1046.5  332056.50  168723.36  50.81
1050.3  332097.83  168871.16  50.85
1054.2  331828.58  168866.83  50.89
1058.0  331360.34  168708.49  50.91
1061.8  331257.96  168728.83  50.94
1065.6  331057.43  168607.13  50.93
1069.4  331009.60  168584.71  50.93
1073.2  330571.78  168336.46  50.92
1077.0  330124.88  168058.50  50.91
1080.8  329663.54  167733.93  50.88
1084.6  328787.55  167158.60  50.84
1088.4  328240.39  166765.61  50.81
1092.2  327570.75  166231.93  50.75
1096.0  327053.67  165759.75  50.68
1099.8  326663.78  165292.37  50.60
1103.6  326057.97  164725.99  50.52
1107.4  325216.63  164004.17  50.43
1111.2  325004.10  163592.24  50.34
1114.9  324421.42  162937.25  50.22
1118.7  323950.28  162229.89  50.08
1122.5  323340.33  161334.33  49.90
1126.3  322379.23  160121.38  49.67
1130.1  321978.33  158900.46  49.35
1133.9  320564.30  156820.80  48.92
1137.7  319296.80  154471.68  48.38
1141.4  317666.38  151655.54  47.74
1145.2  317012.98  149118.56  47.04
1149.0  316019.38  146575.42  46.38
1152.8  314534.60  144147.08  45.83
1156.6  313057.62  142210.57  45.43
1160.3  311539.67  140709.24  45.17
1164.1  309411.20  139310.51  45.02
1167.9  307840.63  138407.29  44.96
1171.7  306699.75  137831.63  44.94
1175.4  305594.10  137349.46  44.95
1179.2  304642.13  136892.35  44.94
1183.0  304377.00  136691.91  44.91
1186.7  303939.30  136393.77  44.88
1190.5  303048.33  135903.93  44.85
1194.3  302059.13  135396.51  44.82
1198.0  300970.45  134928.36  44.83
1201.8  299582.50  134406.67  44.86
1205.6  298485.00  134060.62  44.91
1209.3  297687.35  133924.24  44.99
1213.1  296882.48  133778.10  45.06
1216.8  296087.46  133668.93  45.15
1220.6  295146.13  133510.67  45.24
1224.3  294080.25  133284.47  45.32
1228.1  292978.80  133089.54  45.43
1231.9  291843.50  132824.40  45.51
1235.6  290526.23  132455.39  45.59
1239.4  289339.38  132141.71  45.67
1243.1  288234.20  131805.19  45.73
1246.9  287155.46  131442.59  45.77
1250.6  286269.80  131136.22  45.81
1254.3  285295.82  130766.69  45.84
1258.1  284403.47  130393.53  45.85
1261.8  283239.47  129872.15  45.85
1265.6  281944.13  129250.58  45.84
1269.3  280684.20  128579.23  45.81
1273.1  280664.23  128396.65  45.75
1276.8  280866.40  128269.08  45.67
1280.6  280655.60  127933.56  45.58
1284.3  279324.80  127039.09  45.48
1288.0  278024.85  126072.45  45.35
1291.8  276936.66  125077.08  45.16
1295.5  275783.20  123980.06  44.96
1299.2  274689.19  122825.97  44.71
1302.9  273395.57  121464.05  44.43
1306.7  271991.65  119968.22  44.11
1310.4  270678.19  118333.80  43.72
1314.1  269426.30  116640.10  43.29
1317.9  268335.83  114848.99  42.80
1321.6  267069.50  112856.72  42.26
1325.3  265600.13  110629.20  41.65
1329.0  264416.95  108430.88  41.01
1332.8  262554.60  105842.00  40.31
1336.5  260968.40  103348.79  39.60
1340.2  260654.33  101387.00  38.90
1343.9  260321.04  99432.08  38.20
1347.6  259838.10  97482.88  37.52
1351.4  260152.00  95907.36  36.87
1355.1  260670.30  94444.59  36.23
