/*** Spectra Vista SIG Data ***/
name= 3_20221020_TITO_08_avg.sig
comm= Averaged Ref/Tar of files: HR.102022.0008_moc.sig,HR.102022.0009_moc.sig,HR.102022.0010_moc.sig
data=
337.3  666.39  71.13  10.67
338.8  673.40  72.15  10.71
340.3  696.06  64.03  9.20
341.8  718.54  62.49  8.70
343.2  761.14  56.24  7.39
344.7  779.89  58.29  7.47
346.2  805.33  66.73  8.29
347.7  831.44  64.23  7.73
349.2  842.40  56.70  6.73
350.6  881.40  51.42  5.83
352.1  918.64  51.21  5.57
353.6  961.69  50.89  5.29
355.1  1019.87  56.13  5.50
356.6  1086.26  60.09  5.53
358.0  1130.17  60.61  5.36
359.5  1165.37  56.65  4.86
361.0  1214.10  54.86  4.52
362.5  1271.37  56.60  4.45
364.0  1335.44  60.22  4.51
365.4  1413.03  61.82  4.37
366.9  1483.86  63.54  4.28
368.4  1566.36  63.64  4.06
369.9  1636.94  70.27  4.29
371.3  1731.69  72.98  4.21
372.8  1820.57  75.23  4.13
374.3  1896.61  74.35  3.92
375.8  1978.90  77.26  3.90
377.2  2059.77  79.80  3.87
378.7  2136.63  78.91  3.69
380.2  2221.17  80.70  3.63
381.7  2324.15  81.98  3.53
383.1  2417.80  81.75  3.38
384.6  2520.24  81.83  3.25
386.1  2609.84  86.48  3.31
387.6  2718.10  90.73  3.34
389.0  2817.83  95.59  3.39
390.5  2920.50  95.58  3.27
392.0  3045.53  96.10  3.16
393.4  3160.51  97.22  3.08
394.9  3273.69  100.05  3.06
396.4  3385.93  104.36  3.08
397.9  3499.64  105.92  3.03
399.3  3639.56  111.43  3.06
400.8  3760.11  112.16  2.98
402.2  3906.96  115.39  2.95
403.7  4044.60  117.97  2.92
405.2  4180.33  123.90  2.96
406.6  4308.57  126.83  2.94
408.1  4442.51  131.08  2.95
409.6  4590.69  133.90  2.92
411.0  4751.90  137.35  2.89
412.5  4902.80  142.31  2.90
414.0  5058.82  145.34  2.87
415.4  5218.61  150.39  2.88
416.9  5374.97  153.56  2.86
418.4  5549.14  157.49  2.84
419.8  5730.40  161.98  2.83
421.3  5907.71  168.74  2.86
422.7  6094.97  175.16  2.87
424.2  6287.14  178.87  2.85
425.7  6468.77  185.82  2.87
427.1  6660.06  189.37  2.84
428.6  6873.14  194.27  2.83
430.0  7062.88  201.83  2.86
431.5  7283.40  207.96  2.86
432.9  7504.99  215.36  2.87
434.4  7731.41  219.17  2.83
435.9  7956.00  223.53  2.81
437.3  8179.29  231.46  2.83
438.8  8404.86  238.47  2.84
440.2  8631.70  245.69  2.85
441.7  8889.94  252.81  2.84
443.1  9131.14  258.38  2.83
444.6  9390.83  266.37  2.84
446.0  9645.99  275.07  2.85
447.5  9904.24  285.21  2.88
448.9  10165.20  291.97  2.87
450.4  10441.40  300.44  2.88
451.8  10693.43  305.50  2.86
453.3  10956.85  314.24  2.87
454.7  11240.16  323.23  2.88
456.2  11486.86  331.95  2.89
457.6  11761.65  341.61  2.90
459.1  12045.80  350.89  2.91
460.5  12320.29  357.11  2.90
462.0  12624.62  363.82  2.88
463.4  12924.97  373.10  2.89
464.8  13216.93  381.10  2.88
466.3  13504.07  391.30  2.90
467.7  13793.50  401.14  2.91
469.2  14107.17  410.05  2.91
470.6  14411.29  417.75  2.90
472.0  14726.47  426.00  2.89
473.5  15037.07  436.00  2.90
474.9  15353.36  446.03  2.91
476.4  15687.77  457.44  2.92
477.8  16016.29  469.32  2.93
479.2  16327.00  478.50  2.93
480.7  16666.93  488.77  2.93
482.1  17017.97  495.64  2.91
483.6  17381.29  506.71  2.92
485.0  17717.40  518.21  2.92
486.4  18083.57  532.05  2.94
487.9  18423.32  544.54  2.96
489.3  18784.89  555.62  2.96
490.7  19129.88  567.40  2.97
492.2  19509.00  581.14  2.98
493.6  19865.40  597.23  3.01
495.0  20224.29  611.81  3.03
496.5  20603.70  627.11  3.04
497.9  20968.48  642.77  3.07
499.3  21350.03  659.89  3.09
500.7  21753.16  681.72  3.13
502.2  22129.43  704.21  3.18
503.6  22538.23  728.05  3.23
505.0  22904.23  754.96  3.30
506.5  23336.06  787.02  3.37
507.9  23728.47  820.32  3.46
509.3  24170.51  859.88  3.56
510.7  24590.89  900.90  3.66
512.2  25045.89  950.04  3.79
513.6  25534.80  1005.94  3.94
515.0  26007.36  1069.72  4.11
516.4  26470.80  1142.04  4.31
517.8  27002.96  1222.76  4.53
519.3  27466.36  1309.92  4.77
520.7  27995.63  1406.41  5.02
522.1  28445.11  1502.32  5.28
523.5  28915.97  1606.84  5.56
524.9  29430.51  1717.25  5.83
526.3  29934.10  1829.63  6.11
527.8  30442.50  1943.87  6.39
529.2  30830.23  2054.21  6.66
530.6  31364.76  2171.84  6.92
532.0  31948.00  2289.93  7.17
533.4  32432.61  2395.08  7.38
534.8  32798.00  2486.74  7.58
536.3  33355.71  2588.60  7.76
537.7  34023.60  2694.30  7.92
539.1  34545.21  2785.04  8.06
540.5  35003.53  2867.90  8.19
541.9  35624.42  2962.98  8.32
543.3  36114.00  3045.77  8.43
544.7  36607.03  3129.68  8.55
546.1  37236.49  3225.40  8.66
547.5  37708.80  3303.63  8.76
549.0  38311.43  3390.20  8.85
550.4  38866.25  3467.65  8.92
551.8  39441.69  3540.26  8.98
553.2  39996.54  3605.15  9.01
554.6  40500.57  3654.21  9.02
556.0  41059.93  3696.33  9.00
557.4  41662.85  3730.08  8.95
558.8  42284.19  3753.60  8.88
560.2  42857.64  3764.40  8.78
561.6  43490.12  3767.94  8.66
563.0  44093.76  3760.87  8.53
564.4  44713.91  3745.60  8.38
565.8  45320.18  3719.46  8.21
567.2  46006.93  3691.19  8.02
568.6  46619.57  3648.93  7.83
570.0  47205.04  3598.34  7.62
571.4  47874.91  3548.89  7.41
572.8  48555.86  3502.90  7.21
574.2  49196.80  3456.69  7.03
575.6  49824.64  3413.25  6.85
577.0  50439.97  3375.31  6.69
578.4  51122.50  3347.28  6.55
579.8  51742.41  3319.72  6.42
581.2  52421.52  3302.35  6.30
582.5  53017.71  3281.07  6.19
583.9  53639.43  3267.42  6.09
585.3  54354.15  3260.70  6.00
586.7  54974.86  3252.76  5.92
588.1  55591.39  3249.10  5.84
589.5  56273.00  3251.15  5.78
590.9  56940.80  3256.24  5.72
592.3  57665.46  3270.12  5.67
593.7  58283.27  3279.45  5.63
595.0  58958.36  3294.32  5.59
596.4  59584.80  3307.43  5.55
597.8  60212.24  3321.05  5.52
599.2  60867.09  3336.08  5.48
600.6  61588.15  3349.46  5.44
602.0  62161.59  3350.88  5.39
603.3  62902.97  3358.60  5.34
604.7  63604.38  3358.13  5.28
606.1  64244.91  3348.80  5.21
607.5  64942.22  3336.43  5.14
608.9  65657.66  3321.89  5.06
610.2  66270.15  3298.52  4.98
611.6  66963.24  3279.47  4.90
613.0  67646.64  3259.92  4.82
614.4  68268.60  3238.35  4.74
615.8  68913.00  3217.99  4.67
617.1  69589.80  3203.13  4.60
618.5  70300.00  3193.35  4.54
619.9  70966.24  3184.50  4.49
621.3  71675.16  3185.85  4.44
622.6  72372.14  3191.83  4.41
624.0  73034.36  3201.76  4.38
625.4  73681.46  3217.56  4.37
626.8  74374.30  3241.27  4.36
628.1  74973.41  3261.23  4.35
629.5  75736.44  3292.33  4.35
630.9  76402.94  3315.86  4.34
632.2  77008.30  3331.63  4.33
633.6  77703.46  3345.08  4.30
635.0  78377.94  3348.84  4.27
636.3  79070.89  3338.90  4.22
637.7  79701.61  3318.05  4.16
639.1  80435.00  3292.92  4.09
640.4  81113.10  3255.74  4.01
641.8  81699.61  3212.07  3.93
643.2  82410.30  3170.00  3.85
644.5  83063.57  3125.62  3.76
645.9  83763.00  3085.46  3.68
647.2  84246.10  3045.64  3.62
648.6  84934.29  3023.33  3.56
650.0  85579.20  3007.44  3.51
651.3  86128.51  2995.40  3.48
652.7  87096.07  3000.34  3.44
654.0  87981.80  3003.72  3.41
655.4  88627.29  3000.99  3.39
656.8  88847.80  2978.24  3.35
658.1  89548.26  2969.92  3.32
659.5  90551.55  2965.60  3.28
660.8  91189.29  2948.25  3.23
662.2  91712.00  2922.45  3.19
663.5  92435.11  2905.34  3.14
664.9  92971.54  2884.79  3.10
666.2  93430.29  2870.46  3.07
667.6  94217.88  2876.95  3.05
668.9  94733.71  2877.19  3.04
670.3  95637.14  2893.83  3.03
671.6  96148.93  2902.06  3.02
673.0  96762.11  2920.50  3.02
674.3  97404.17  2942.98  3.02
675.7  98063.46  2975.71  3.03
677.0  98634.24  3005.68  3.05
678.4  99282.41  3049.73  3.07
679.7  99855.06  3098.19  3.10
681.1  100498.01  3155.99  3.14
682.4  101091.71  3222.18  3.19
683.8  101710.51  3305.42  3.25
685.1  102268.07  3407.25  3.33
686.4  102938.23  3541.64  3.44
687.8  103576.93  3723.91  3.60
689.1  104155.43  3966.44  3.81
690.5  104827.89  4300.89  4.10
691.8  105349.96  4751.97  4.51
693.1  106099.07  5363.52  5.06
694.5  106762.50  6136.43  5.75
695.8  107438.50  7067.67  6.58
697.1  108088.50  8153.60  7.54
698.5  108674.63  9382.67  8.63
699.8  109287.02  10739.64  9.83
701.1  109941.36  12198.40  11.10
702.5  110430.57  13711.15  12.42
703.8  110982.86  15278.25  13.77
705.1  111618.84  16879.30  15.12
706.5  112213.82  18481.75  16.47
707.8  112784.49  20085.20  17.81
709.1  113302.56  21670.14  19.13
710.5  113927.66  23262.65  20.42
711.8  114437.23  24822.87  21.69
713.1  115010.66  26382.39  22.94
714.4  115545.86  27919.60  24.16
715.8  116061.94  29434.51  25.36
717.1  116750.01  30971.89  26.53
718.4  117305.60  32453.12  27.67
719.7  117910.27  33917.77  28.77
721.0  118305.00  35288.25  29.83
722.4  118799.84  36645.26  30.85
723.7  119371.97  37979.52  31.82
725.0  119949.04  39280.92  32.75
726.3  120509.48  40516.66  33.62
727.6  120894.24  41650.30  34.45
729.0  121423.90  42774.23  35.23
730.3  121920.66  43828.09  35.95
731.6  122450.27  44842.33  36.62
732.9  122938.55  45785.81  37.24
734.2  123433.36  46677.54  37.82
735.5  124010.36  47556.57  38.35
736.8  124506.26  48353.53  38.84
738.1  125031.14  49114.50  39.28
739.5  125592.58  49848.05  39.69
740.8  126046.25  50497.64  40.06
742.1  126494.07  51114.13  40.41
743.4  126935.71  51692.50  40.72
744.7  127464.62  52274.21  41.01
746.0  127981.29  52813.35  41.27
747.3  128376.16  53276.63  41.50
748.6  128853.00  53739.39  41.71
749.9  129294.29  54167.53  41.89
751.2  129733.89  54568.95  42.06
752.5  130234.47  54980.38  42.22
753.8  130628.30  55330.28  42.36
755.1  131077.14  55684.20  42.48
756.4  131485.45  55999.50  42.59
757.7  132073.60  56366.33  42.68
759.0  132975.74  56855.80  42.76
760.3  133614.17  57229.04  42.83
761.6  134413.60  57659.93  42.90
762.9  134797.07  57905.73  42.96
764.2  135114.86  58117.45  43.01
765.5  135387.53  58299.23  43.06
766.8  135712.46  58499.95  43.11
768.1  136068.40  58709.98  43.15
769.3  136480.40  58931.37  43.18
770.6  136907.09  59166.43  43.22
771.9  137365.20  59403.23  43.24
773.2  137675.09  59579.41  43.28
774.5  138072.63  59785.44  43.30
775.8  138496.49  59996.46  43.32
777.1  138887.26  60193.78  43.34
778.4  139171.84  60347.74  43.36
779.6  139631.06  60579.55  43.39
780.9  139988.57  60754.00  43.40
782.2  140334.07  60930.56  43.42
783.5  140605.00  61067.10  43.43
784.8  140958.32  61243.11  43.45
786.0  141260.80  61398.73  43.46
787.3  141574.55  61550.42  43.48
788.6  141894.04  61709.74  43.49
789.9  142232.00  61878.74  43.51
791.2  142631.96  62076.01  43.52
792.4  143064.39  62275.49  43.53
793.7  143400.51  62436.85  43.54
795.0  143814.24  62628.12  43.55
796.2  144224.15  62821.13  43.56
797.5  144654.43  63022.40  43.57
798.8  145096.81  63220.66  43.57
800.0  145513.23  63420.64  43.58
801.3  145844.00  63574.51  43.59
802.6  146238.94  63761.93  43.60
803.8  146639.44  63957.11  43.62
805.1  147006.25  64118.02  43.62
806.4  147359.91  64278.51  43.62
807.7  147754.99  64455.89  43.62
808.9  148143.54  64641.42  43.63
810.2  148504.60  64810.59  43.64
811.4  148851.20  64975.37  43.65
812.7  149267.86  65166.56  43.66
814.0  149786.00  65391.47  43.66
815.2  150216.50  65593.43  43.67
816.5  150571.47  65755.95  43.67
817.7  150942.19  65920.44  43.67
819.0  151305.31  66096.14  43.68
820.2  151523.43  66199.47  43.69
821.5  151988.60  66413.90  43.70
822.7  152318.04  66560.29  43.70
824.0  152624.06  66700.35  43.70
825.2  152992.22  66873.94  43.71
826.5  153292.56  67009.16  43.71
827.7  153707.44  67201.38  43.72
829.0  154026.69  67350.94  43.73
830.2  154354.64  67497.61  43.73
831.5  154762.90  67670.74  43.73
832.7  155088.45  67815.13  43.73
834.0  155411.46  67968.37  43.73
835.2  155714.11  68124.93  43.75
836.4  155995.40  68255.99  43.76
837.7  156359.26  68425.69  43.76
838.9  156743.45  68590.41  43.76
840.1  157094.10  68753.88  43.77
841.4  157450.43  68921.07  43.77
842.6  157794.00  69078.71  43.78
843.8  158136.29  69233.95  43.78
845.1  158549.29  69421.70  43.79
846.3  158904.40  69601.81  43.80
847.5  159297.00  69775.16  43.80
848.8  159655.89  69941.12  43.81
850.0  160026.00  70105.35  43.81
851.2  160419.73  70283.57  43.81
852.5  160731.63  70444.94  43.83
853.7  161186.14  70630.95  43.82
854.9  161567.29  70808.52  43.83
856.1  161942.49  70982.62  43.83
857.4  162237.40  71103.21  43.83
858.6  162641.66  71297.60  43.84
859.8  162991.61  71470.13  43.85
861.0  163345.37  71632.08  43.85
862.2  163756.80  71821.29  43.86
863.5  164130.39  71973.44  43.85
864.7  164532.34  72161.98  43.86
865.9  164898.34  72311.23  43.85
867.1  165206.20  72454.44  43.86
868.3  165568.20  72629.45  43.87
869.5  165976.10  72808.09  43.87
870.8  166420.29  72991.20  43.86
872.0  166845.26  73172.65  43.86
873.2  167196.34  73330.75  43.86
874.4  167562.39  73494.14  43.86
875.6  167914.98  73648.28  43.86
876.8  168305.03  73816.26  43.86
878.0  168712.23  73996.68  43.86
879.2  169101.90  74167.36  43.86
880.4  169543.71  74342.62  43.85
881.6  169874.93  74502.12  43.86
882.8  170197.26  74654.61  43.86
884.0  170602.22  74844.09  43.87
885.2  170989.94  75009.81  43.87
886.5  171455.11  75202.64  43.86
887.7  171870.59  75362.93  43.85
888.8  172327.20  75563.53  43.85
890.0  172696.60  75735.04  43.85
891.2  173130.83  75918.86  43.85
892.4  173542.80  76099.19  43.85
893.6  173953.04  76273.87  43.85
894.8  174581.50  76515.44  43.83
896.0  175048.64  76750.03  43.84
897.2  175592.86  76976.36  43.84
898.4  176014.46  77181.94  43.85
899.6  176439.11  77341.86  43.83
900.8  176752.54  77469.81  43.83
902.0  176986.97  77577.97  43.83
903.2  177298.84  77707.52  43.83
904.3  177544.11  77826.02  43.83
905.5  177977.74  78000.32  43.83
906.7  178389.57  78175.02  43.82
907.9  178745.70  78328.87  43.82
909.1  179032.76  78429.98  43.81
910.2  179227.78  78523.67  43.81
911.4  179476.33  78642.82  43.82
912.6  179685.63  78740.09  43.82
913.8  179873.29  78831.14  43.83
915.0  180177.90  78960.07  43.82
916.2  180419.57  79037.08  43.81
917.3  180635.85  79093.49  43.79
918.5  180801.83  79187.53  43.80
919.7  181012.80  79298.34  43.81
920.8  181104.04  79349.41  43.81
922.0  181219.50  79412.67  43.82
923.2  181467.00  79479.40  43.80
924.4  181706.14  79556.40  43.78
925.5  181949.06  79638.96  43.77
926.7  182402.71  79820.17  43.76
927.9  182857.03  80050.56  43.78
929.0  183685.24  80368.43  43.75
930.2  184708.77  80838.86  43.77
931.4  185971.37  81357.37  43.75
932.5  187367.99  81938.27  43.73
933.7  188185.59  82243.57  43.70
934.9  188561.25  82421.35  43.71
936.0  188462.39  82363.40  43.70
937.2  187525.76  81947.39  43.70
938.3  186730.43  81580.35  43.69
939.5  186168.34  81244.20  43.64
940.7  186437.83  81308.70  43.61
941.8  187203.54  81631.10  43.61
943.0  187905.21  81971.03  43.62
944.2  188338.24  82155.97  43.62
945.3  188214.00  82047.23  43.59
946.5  187971.69  81877.95  43.56
947.6  188139.17  81899.29  43.53
948.8  188204.25  81852.68  43.49
949.9  188376.00  81868.36  43.46
951.1  188207.04  81787.46  43.46
952.2  188262.86  81715.60  43.41
953.4  188123.79  81601.23  43.38
954.5  188216.23  81579.42  43.34
955.7  188251.20  81510.24  43.30
956.8  188203.34  81443.76  43.27
958.0  188085.14  81334.80  43.24
959.1  188061.17  81276.05  43.22
960.3  187988.14  81150.51  43.17
961.4  187975.07  81130.85  43.16
962.6  188032.50  81147.39  43.16
963.7  187918.95  81096.27  43.15
964.9  187981.86  81106.18  43.15
966.0  187958.19  81027.27  43.11
967.2  187999.33  81058.83  43.12
968.3  187929.26  81016.07  43.11
969.5  187874.40  80974.24  43.10
970.6  187918.73  80996.99  43.10
971.8  187867.80  80994.46  43.11
972.9  187870.24  80939.13  43.08
974.0  187904.63  80975.29  43.09
975.2  188008.61  80903.48  43.03
976.3  187867.10  80919.10  43.07
977.5  187898.95  80929.45  43.07
978.6  187704.06  80900.22  43.10
979.7  187728.45  80839.33  43.06
980.9  187584.80  80760.67  43.05
982.0  187317.63  80631.60  43.05
983.2  186998.55  80555.84  43.08
984.3  186911.83  80536.78  43.09
985.4  186797.07  80518.36  43.10
986.6  186518.54  80348.02  43.08
987.7  186909.05  80441.08  43.04
988.9  186728.91  80292.12  43.00
990.0  186914.94  80386.59  43.01
993.1  197935.77  84735.19  42.81
996.9  197114.08  84562.63  42.90
1000.7  197078.31  84718.87  42.99
1004.5  197280.50  84935.42  43.05
1008.4  197303.11  85107.75  43.14
1012.2  197331.75  85258.90  43.21
1016.0  197246.00  85370.58  43.28
1019.8  196977.55  85377.60  43.34
1023.7  196411.36  85213.19  43.39
1027.5  195635.93  84960.97  43.43
1031.3  195263.48  84854.83  43.46
1035.1  194993.94  84795.44  43.49
1038.9  195062.27  84890.15  43.52
1042.7  195278.00  85051.61  43.55
1046.5  195616.22  85212.72  43.56
1050.3  195960.83  85390.73  43.58
1054.2  196155.94  85518.60  43.60
1058.0  196350.43  85613.33  43.60
1061.8  196705.34  85800.16  43.62
1065.6  196658.27  85775.20  43.62
1069.4  196455.73  85685.06  43.62
1073.2  195982.27  85457.52  43.60
1077.0  195943.15  85421.13  43.59
1080.8  196495.14  85619.48  43.57
1084.6  197073.10  85839.51  43.56
1088.4  197723.41  86123.87  43.56
1092.2  197886.00  86152.95  43.54
1096.0  197869.39  86102.95  43.52
1099.8  197812.91  86007.18  43.48
1103.6  197610.89  85871.09  43.45
1107.4  197306.23  85662.22  43.42
1111.2  197464.07  85676.10  43.39
1114.9  197527.94  85624.99  43.35
1118.7  197744.25  85609.01  43.29
1122.5  197935.69  85556.90  43.22
1126.3  197822.61  85354.65  43.15
1130.1  197972.69  85176.47  43.02
1133.9  197392.53  84553.14  42.84
1137.7  196862.00  83902.79  42.62
1141.4  196060.44  83070.33  42.37
1145.2  195805.82  82414.36  42.09
1149.0  195407.92  81785.23  41.85
1152.8  194746.97  81076.38  41.63
1156.6  194058.82  80462.56  41.46
1160.3  193450.00  79966.63  41.34
1164.1  192541.91  79417.48  41.25
1167.9  192002.08  79076.88  41.19
1171.7  191551.50  78808.28  41.14
1175.4  190966.04  78504.01  41.11
1179.2  190398.40  78190.31  41.07
1183.0  190500.89  78140.23  41.02
1186.7  190890.00  78241.33  40.99
1190.5  191127.91  78280.70  40.96
1194.3  190946.33  78161.31  40.93
1198.0  190345.28  77906.29  40.93
1201.8  189630.47  77616.65  40.93
1205.6  189342.00  77536.87  40.95
1209.3  189402.04  77637.37  40.99
1213.1  189526.20  77752.56  41.02
1216.8  189540.76  77868.59  41.08
1220.6  189207.82  77817.23  41.13
1224.3  188769.94  77720.49  41.17
1228.1  188205.87  77598.06  41.23
1231.9  187497.72  77386.09  41.27
1235.6  186731.45  77127.91  41.30
1239.4  186113.42  76954.78  41.35
1243.1  185559.66  76776.01  41.38
1246.9  185045.63  76603.29  41.40
1250.6  184677.47  76478.49  41.41
1254.3  184229.22  76311.24  41.42
1258.1  183718.34  76114.57  41.43
1261.8  183108.89  75864.72  41.43
1265.6  182716.11  75702.89  41.43
1269.3  182643.32  75646.29  41.42
1273.1  183112.41  75790.47  41.39
1276.8  183056.80  75689.28  41.35
1280.6  182390.13  75340.68  41.31
1284.3  181351.20  74838.12  41.27
1288.0  180932.17  74557.37  41.21
1291.8  181062.10  74474.54  41.13
1295.5  180972.98  74294.00  41.05
1299.2  180570.19  73945.12  40.95
1302.9  179828.81  73423.16  40.83
1306.7  179000.27  72827.48  40.69
1310.4  178181.97  72180.34  40.51
1314.1  177436.48  71554.86  40.33
1317.9  176791.81  70905.82  40.11
1321.6  176071.42  70185.50  39.86
1325.3  175270.20  69384.89  39.59
1329.0  174729.26  68669.55  39.30
1332.8  173824.93  67767.70  38.99
1336.5  173093.47  66930.59  38.67
1340.2  173223.56  66439.10  38.35
1343.9  173364.86  65946.38  38.04
1347.6  173575.60  65467.83  37.72
1351.4  174530.00  65310.80  37.42
1355.1  175819.36  65280.31  37.13
1358.8  177013.33  65168.00  36.82
1362.5  177353.48  64664.41  36.46
1366.2  176487.20  63593.86  36.03
1369.9  174826.08  62072.84  35.51
1373.6  173280.41  60375.19  34.84
1377.3  172525.60  58624.89  33.98
1381.0  172422.89  56675.48  32.87
1384.8  171556.67  54011.75  31.48
1388.4  169828.24  50787.05  29.90
1392.2  168660.56  47524.64  28.18
1395.9  167995.42  44350.79  26.40
1399.6  167143.06  41284.13  24.70
1403.3  166492.04  38551.19  23.15
1407.0  165676.87  36139.83  21.81
1410.7  164806.95  34107.23  20.70
1414.3  163849.00  32430.75  19.79
1418.1  163019.36  31123.13  19.09
1421.7  162314.83  30106.49  18.55
1425.4  161629.87  29306.62  18.13
