/*** Spectra Vista SIG Data ***/
name= 9_20220926_TITO_09_avg.sig
comm= Averaged Ref/Tar of files: HR.092622.0023_moc.sig,HR.092622.0024_moc.sig,HR.092622.0025_moc.sig
data=
337.3  6217.05  523.34  8.42
338.8  6445.40  502.07  7.79
340.3  6900.33  505.94  7.33
341.8  7076.55  476.96  6.74
343.2  7550.13  495.73  6.57
344.7  7900.50  503.80  6.38
346.2  8225.00  490.37  5.96
347.7  8548.20  497.51  5.82
349.2  8920.80  489.60  5.49
350.6  9350.40  482.82  5.16
352.1  9834.25  490.53  4.99
353.6  10320.00  474.39  4.60
355.1  10777.05  486.58  4.51
356.6  11388.13  505.73  4.44
358.0  11905.10  516.25  4.34
359.5  12438.90  516.83  4.15
361.0  13105.30  527.49  4.02
362.5  13726.65  548.19  3.99
364.0  14483.20  561.44  3.88
365.4  15103.73  572.22  3.79
366.9  15764.93  595.41  3.78
368.4  16409.15  609.84  3.72
369.9  17172.00  633.98  3.69
371.3  18016.08  672.32  3.73
372.8  18753.95  701.57  3.74
374.3  19567.20  708.35  3.62
375.8  20390.45  728.48  3.57
377.2  21217.95  728.07  3.43
378.7  22018.15  747.48  3.39
380.2  22829.93  753.21  3.30
381.7  23790.25  778.69  3.27
383.1  24728.03  805.44  3.26
384.6  25709.18  828.18  3.22
386.1  26626.13  854.65  3.21
387.6  27549.30  871.24  3.16
389.0  28624.05  878.74  3.07
390.5  29602.23  910.69  3.08
392.0  30687.75  935.44  3.05
393.4  31852.50  961.93  3.02
394.9  32830.50  984.07  3.00
396.4  34003.20  1001.40  2.95
397.9  35070.00  1038.26  2.96
399.3  36056.58  1049.45  2.91
400.8  37236.38  1079.19  2.90
402.2  38471.40  1116.50  2.90
403.7  39719.70  1141.11  2.87
405.2  40844.60  1174.01  2.87
406.6  42083.70  1206.27  2.87
408.1  43188.53  1221.80  2.83
409.6  44400.45  1262.88  2.84
411.0  45635.98  1286.09  2.82
412.5  47038.00  1310.73  2.79
414.0  48345.33  1358.22  2.81
415.4  49690.80  1398.36  2.81
416.9  50996.48  1441.68  2.83
418.4  52308.00  1475.14  2.82
419.8  53661.30  1524.43  2.84
421.3  55162.80  1563.54  2.83
422.7  56648.80  1613.39  2.85
424.2  58142.85  1659.35  2.85
425.7  59581.50  1696.91  2.85
427.1  61093.00  1747.27  2.86
428.6  62572.10  1794.06  2.87
430.0  64117.08  1848.45  2.88
431.5  65775.45  1895.28  2.88
432.9  67447.38  1957.06  2.90
434.4  69173.88  2002.54  2.89
435.9  70812.30  2051.86  2.90
437.3  72499.88  2101.60  2.90
438.8  74174.33  2159.55  2.91
440.2  75852.18  2211.16  2.92
441.7  77723.15  2272.02  2.92
443.1  79540.65  2332.93  2.93
444.6  81343.90  2389.23  2.94
446.0  83148.70  2452.10  2.95
447.5  85125.00  2523.81  2.96
448.9  86863.63  2589.35  2.98
450.4  88775.00  2654.29  2.99
451.8  90600.75  2720.20  3.00
453.3  92455.95  2783.62  3.01
454.7  94250.48  2850.99  3.02
456.2  96068.00  2911.24  3.03
457.6  97983.00  2976.38  3.04
459.1  99813.00  3036.53  3.04
460.5  101673.03  3099.00  3.05
462.0  103721.40  3168.29  3.05
463.4  105700.00  3232.41  3.06
464.8  107662.28  3297.66  3.06
466.3  109626.68  3359.88  3.06
467.7  111683.20  3424.61  3.07
469.2  113541.30  3485.54  3.07
470.6  115606.75  3557.77  3.08
472.0  117640.58  3621.26  3.08
473.5  119655.43  3689.14  3.08
474.9  121826.10  3760.97  3.09
476.4  123904.60  3832.69  3.09
477.8  126028.00  3907.20  3.10
479.2  128130.30  3969.41  3.10
480.7  130279.58  4041.72  3.10
482.1  132504.13  4120.13  3.11
483.6  134729.10  4200.94  3.12
485.0  136993.58  4285.24  3.13
486.4  139111.63  4368.47  3.14
487.9  141363.00  4457.58  3.15
489.3  143546.25  4539.34  3.16
490.7  145749.35  4633.29  3.18
492.2  148004.00  4728.09  3.19
493.6  150273.00  4835.26  3.22
495.0  152571.90  4958.63  3.25
496.5  154791.00  5073.30  3.28
497.9  157112.38  5200.46  3.31
499.3  159382.38  5338.82  3.35
500.7  161706.20  5489.12  3.39
502.2  164071.93  5663.82  3.45
503.6  166380.00  5852.71  3.52
505.0  168675.38  6063.17  3.59
506.5  171157.25  6315.26  3.69
507.9  173627.13  6586.51  3.79
509.3  175936.28  6892.83  3.92
510.7  178613.18  7252.40  4.06
512.2  181250.03  7657.69  4.22
513.6  184066.28  8122.63  4.41
515.0  186830.00  8637.62  4.62
516.4  189690.20  9221.01  4.86
517.8  192521.25  9861.39  5.12
519.3  195459.20  10559.82  5.40
520.7  198128.10  11306.64  5.71
522.1  200801.90  12094.05  6.02
523.5  203360.33  12900.53  6.34
524.9  206245.50  13731.75  6.66
526.3  208863.23  14545.45  6.96
527.8  211681.88  15347.91  7.25
529.2  214329.60  16153.78  7.54
530.6  217201.50  16963.73  7.81
532.0  220142.98  17720.26  8.05
533.4  222562.65  18385.19  8.26
534.8  225034.43  18990.78  8.44
536.3  228063.75  19592.48  8.59
537.7  231175.25  20170.92  8.73
539.1  234118.30  20705.37  8.84
540.5  236964.00  21201.78  8.95
541.9  239878.83  21693.28  9.04
543.3  242423.30  22147.94  9.14
544.7  245366.00  22634.02  9.22
546.1  248204.60  23100.79  9.31
547.5  251164.80  23580.62  9.39
549.0  254336.40  24059.78  9.46
550.4  257206.95  24482.64  9.52
551.8  260087.70  24858.69  9.56
553.2  262981.13  25186.08  9.58
554.6  265863.00  25425.69  9.56
556.0  268826.25  25599.08  9.52
557.4  271933.50  25708.53  9.45
558.8  274805.60  25725.64  9.36
560.2  277980.00  25694.86  9.24
561.6  280909.48  25576.32  9.10
563.0  283712.00  25375.57  8.94
564.4  286920.20  25158.47  8.77
565.8  289940.10  24867.59  8.58
567.2  293109.48  24538.27  8.37
568.6  296151.53  24158.61  8.16
570.0  299045.50  23726.79  7.93
571.4  302487.95  23320.64  7.71
572.8  305634.80  22905.74  7.49
574.2  308517.83  22495.47  7.29
575.6  311594.63  22131.64  7.10
577.0  314599.73  21808.18  6.93
578.4  318040.63  21555.42  6.78
579.8  321102.95  21302.17  6.63
581.2  324182.50  21093.85  6.51
582.5  327082.50  20907.43  6.39
583.9  330126.10  20756.88  6.29
585.3  333057.60  20620.91  6.19
586.7  336058.80  20524.24  6.11
588.1  339061.60  20445.42  6.03
589.5  342393.45  20408.65  5.96
590.9  345343.38  20381.04  5.90
592.3  348293.03  20376.62  5.85
593.7  351277.33  20396.40  5.81
595.0  354215.40  20431.59  5.77
596.4  357528.38  20504.11  5.73
597.8  360185.00  20530.85  5.70
599.2  363316.20  20577.44  5.66
600.6  366515.33  20613.94  5.62
602.0  369481.80  20609.53  5.58
603.3  372372.00  20578.63  5.53
604.7  375410.88  20519.44  5.47
606.1  378433.65  20432.65  5.40
607.5  381766.63  20326.27  5.32
608.9  384846.00  20182.21  5.24
610.2  388037.93  20031.89  5.16
611.6  390967.50  19861.81  5.08
613.0  393778.18  19686.33  5.00
614.4  396562.93  19510.80  4.92
615.8  399778.70  19378.83  4.85
617.1  402516.73  19233.32  4.78
618.5  405766.88  19141.67  4.72
619.9  408520.35  19048.70  4.66
621.3  411487.05  19006.20  4.62
622.6  414384.75  18996.90  4.58
624.0  417090.38  19006.27  4.56
625.4  420207.90  19062.97  4.54
626.8  423178.60  19141.17  4.52
628.1  426007.40  19233.49  4.51
629.5  428816.15  19322.35  4.51
630.9  431678.05  19419.21  4.50
632.2  434680.80  19503.43  4.49
633.6  437196.18  19529.31  4.47
635.0  440117.33  19526.85  4.44
636.3  443151.65  19460.77  4.39
637.7  445888.50  19329.14  4.33
639.1  448899.00  19168.87  4.27
640.4  451621.50  18950.64  4.20
641.8  454449.60  18721.41  4.12
643.2  457027.40  18481.95  4.04
644.5  459900.00  18256.67  3.97
645.9  462590.10  18032.54  3.90
647.2  465563.18  17847.21  3.83
648.6  468393.60  17697.24  3.78
650.0  471214.80  17576.47  3.73
651.3  473623.85  17515.78  3.70
652.7  476970.75  17507.83  3.67
654.0  479982.10  17489.05  3.64
655.4  482288.10  17426.68  3.61
656.8  483813.23  17317.95  3.58
658.1  486340.58  17237.44  3.54
659.5  489628.80  17172.21  3.51
660.8  492922.50  17117.50  3.47
662.2  495526.20  17008.11  3.43
663.5  498366.48  16895.66  3.39
664.9  500408.48  16795.37  3.36
666.2  502512.73  16736.44  3.33
667.6  505048.50  16727.87  3.31
668.9  507816.00  16801.92  3.31
670.3  510555.50  16864.98  3.30
671.6  512955.20  16950.31  3.30
673.0  515287.20  17088.41  3.32
674.3  517728.75  17251.37  3.33
675.7  520290.00  17457.41  3.36
677.0  522618.83  17675.79  3.38
678.4  524883.60  17932.19  3.42
679.7  527263.58  18250.85  3.46
681.1  529824.35  18612.52  3.51
682.4  532060.50  19014.67  3.57
683.8  534433.50  19473.13  3.64
685.1  536652.90  20012.14  3.73
686.4  538829.20  20663.88  3.83
687.8  541375.05  21512.26  3.97
689.1  543784.50  22624.49  4.16
690.5  545737.60  24095.57  4.42
691.8  548495.20  26124.58  4.76
693.1  550884.00  28791.20  5.23
694.5  553198.30  32210.65  5.82
695.8  555645.50  36415.84  6.55
697.1  557917.90  41414.28  7.42
698.5  560275.88  47232.17  8.43
699.8  562701.60  53789.11  9.56
701.1  564557.70  60939.43  10.79
702.5  566607.63  68626.69  12.11
703.8  569073.88  76743.02  13.49
705.1  570960.80  85071.25  14.90
706.5  573285.18  93664.74  16.34
707.8  575158.20  102344.59  17.79
709.1  577481.55  111210.20  19.26
710.5  579675.83  120151.21  20.73
711.8  581618.00  129118.76  22.20
713.1  583596.00  138161.05  23.67
714.4  585699.33  147268.43  25.14
715.8  588016.83  156462.35  26.61
717.1  590248.85  165641.75  28.06
718.4  592521.30  174769.18  29.50
719.7  594748.80  183829.19  30.91
721.0  596510.13  192641.65  32.29
722.4  598397.85  201346.22  33.65
723.7  600350.35  209882.81  34.96
725.0  602105.70  218090.03  36.22
726.3  604435.00  226253.49  37.43
727.6  606136.50  233908.87  38.59
729.0  608031.55  241301.69  39.69
730.3  610037.13  248404.06  40.72
731.6  611582.90  254962.73  41.69
732.9  613566.85  261383.41  42.60
734.2  615285.00  267333.94  43.45
735.5  617051.05  273021.78  44.25
736.8  619082.28  278448.62  44.98
738.1  620934.38  283471.93  45.65
739.5  622697.85  288152.27  46.27
740.8  624659.75  292608.90  46.84
742.1  626275.00  296680.92  47.37
743.4  628071.50  300580.09  47.86
744.7  629993.00  304304.93  48.30
746.0  631507.98  307571.91  48.70
747.3  633028.90  310622.16  49.07
748.6  634598.10  313463.29  49.40
749.9  636376.65  316226.48  49.69
751.2  637748.23  318583.07  49.95
752.5  639328.45  320903.65  50.19
753.8  640710.00  322943.02  50.40
755.1  642330.68  324953.04  50.59
756.4  643521.83  326608.58  50.75
757.7  645552.88  328594.36  50.90
759.0  649154.88  331290.38  51.03
760.3  651952.85  333438.16  51.14
761.6  654826.18  335581.88  51.25
762.9  656260.00  336926.91  51.34
764.2  657085.20  337863.47  51.42
765.5  657988.20  338815.53  51.49
766.8  658581.65  339544.47  51.56
768.1  659682.45  340506.60  51.62
769.3  661031.50  341509.52  51.66
770.6  662412.65  342562.86  51.71
771.9  663598.68  343493.86  51.76
773.2  665121.60  344490.90  51.79
774.5  666084.75  345221.09  51.83
775.8  667225.63  346042.17  51.86
777.1  668447.05  346891.22  51.90
778.4  669775.38  347793.77  51.93
779.6  671104.20  348684.51  51.96
780.9  671872.73  349257.15  51.98
782.2  672855.23  349953.19  52.01
783.5  673800.75  350618.69  52.04
784.8  674690.63  351227.25  52.06
786.0  675546.75  351839.93  52.08
787.3  676451.40  352474.39  52.11
788.6  677330.13  353120.92  52.13
789.9  678072.60  353643.65  52.15
791.2  679491.70  354508.58  52.17
792.4  680759.75  355260.24  52.19
793.7  682311.83  356235.09  52.21
795.0  683471.35  356951.62  52.23
796.2  684862.85  357807.18  52.25
797.5  686086.88  358590.54  52.27
798.8  687517.25  359476.33  52.29
800.0  688730.00  360209.33  52.30
801.3  690039.00  360969.75  52.31
802.6  691056.00  361660.80  52.33
803.8  692167.88  362382.73  52.35
805.1  693316.88  363068.18  52.37
806.4  694376.00  363706.51  52.38
807.7  695516.73  364399.62  52.39
808.9  696683.60  365145.23  52.41
810.2  697668.30  365745.00  52.42
811.4  698798.40  366439.51  52.44
812.7  700124.80  367250.68  52.46
814.0  701454.60  368039.98  52.47
815.2  702922.35  368895.24  52.48
816.5  704068.75  369618.08  52.50
817.7  704919.75  370152.78  52.51
819.0  705574.80  370660.40  52.53
820.2  706421.10  371218.72  52.55
821.5  707492.40  371927.49  52.57
822.7  708591.63  372576.12  52.58
824.0  709608.90  373193.69  52.59
825.2  710379.15  373640.47  52.60
826.5  711088.10  374174.43  52.62
827.7  712151.35  374855.54  52.64
829.0  713106.45  375454.10  52.65
830.2  714039.40  376049.34  52.67
831.5  714933.45  376626.25  52.68
832.7  715896.90  377235.72  52.69
834.0  716736.60  377662.22  52.69
835.2  717705.05  378342.11  52.72
836.4  718410.80  378904.35  52.74
837.7  719161.88  379469.36  52.77
838.9  720240.85  380268.79  52.80
840.1  721228.20  380835.28  52.80
841.4  722201.30  381479.89  52.82
842.6  723165.80  382048.09  52.83
843.8  723934.90  382649.65  52.86
845.1  724807.05  383241.16  52.87
846.3  725663.40  383890.38  52.90
847.5  726670.75  384481.62  52.91
848.8  727662.10  385106.11  52.92
850.0  728810.60  385850.41  52.94
851.2  729787.70  386467.18  52.96
852.5  730825.00  387199.86  52.98
853.7  731649.38  387700.80  52.99
854.9  732685.20  388453.56  53.02
856.1  733748.40  389096.40  53.03
857.4  734742.30  389690.20  53.04
858.6  735628.60  390289.20  53.06
859.8  736889.10  390988.56  53.06
861.0  737963.45  391616.68  53.07
862.2  738956.40  392298.40  53.09
863.5  739854.45  392941.94  53.11
864.7  740887.50  393540.95  53.12
865.9  741848.63  394126.85  53.13
867.1  742746.88  394590.18  53.13
868.3  743998.20  395296.01  53.13
869.5  745101.55  396010.81  53.15
870.8  746269.65  396658.63  53.15
872.0  747215.63  397268.36  53.17
873.2  748132.83  397853.30  53.18
874.4  749091.75  398352.66  53.18
875.6  750302.95  399043.45  53.18
876.8  751914.90  399838.43  53.18
878.0  752884.30  400451.79  53.19
879.2  753809.75  401094.44  53.21
880.4  754968.00  401720.00  53.21
881.6  756053.70  402301.19  53.21
882.8  757402.70  403044.41  53.21
884.0  758361.18  403548.91  53.21
885.2  759730.00  404342.98  53.22
886.5  761214.83  405069.78  53.21
887.7  762041.58  405692.84  53.24
888.8  763541.60  406510.21  53.24
890.0  764583.75  407046.50  53.24
891.2  765757.20  407666.03  53.24
892.4  767224.43  408466.64  53.24
893.6  769008.98  409415.04  53.24
894.8  770704.43  410316.32  53.24
896.0  772129.18  411155.43  53.25
897.2  774033.98  412233.88  53.26
898.4  776097.00  413309.24  53.25
899.6  777530.20  414004.93  53.25
900.8  778074.70  414313.33  53.25
902.0  778697.75  414676.46  53.25
903.2  778824.40  414837.91  53.26
904.3  780097.50  415487.89  53.26
905.5  781407.00  416198.83  53.26
906.7  782738.50  416865.88  53.26
907.9  784057.40  417477.56  53.25
909.1  784957.25  418067.10  53.26
910.2  785531.25  418306.50  53.25
911.4  785689.88  418465.14  53.26
912.6  786185.00  418781.33  53.27
913.8  787360.00  419334.81  53.26
915.0  787854.60  419562.06  53.25
916.2  788523.08  419654.20  53.22
917.3  789018.95  420081.64  53.24
918.5  789468.15  420287.16  53.24
919.7  789563.75  420324.93  53.24
920.8  789883.30  420435.80  53.23
922.0  790175.38  420467.91  53.21
923.2  790774.73  420681.40  53.20
924.4  791424.13  420991.63  53.19
925.5  792414.40  421332.92  53.17
926.7  793104.55  421752.79  53.18
927.9  794667.18  422418.41  53.16
929.0  797847.30  424038.65  53.15
930.2  802434.60  426306.87  53.13
931.4  807518.55  428807.91  53.10
932.5  812105.25  431125.88  53.09
933.7  814786.95  432399.20  53.07
934.9  816497.50  433103.50  53.04
936.0  815763.38  432510.13  53.02
937.2  812776.70  430677.58  52.99
938.3  808756.00  428435.37  52.97
939.5  806855.40  427026.82  52.92
940.7  806650.08  426767.62  52.91
941.8  809849.95  428242.72  52.88
943.0  811755.53  429099.84  52.86
944.2  813984.00  429955.89  52.82
945.3  813737.40  429281.80  52.75
946.5  811947.50  428043.50  52.72
947.6  813343.75  428242.57  52.65
948.8  811999.53  427167.30  52.61
949.9  812643.30  426982.84  52.54
951.1  812799.95  426680.66  52.50
952.2  812583.83  425853.79  52.41
953.4  812689.05  425293.58  52.33
954.5  811017.38  423904.95  52.27
955.7  810697.10  423250.78  52.21
956.8  811289.73  422947.29  52.13
958.0  809991.00  422034.56  52.10
959.1  809676.00  421441.92  52.05
960.3  809837.50  420883.81  51.97
961.4  810466.80  421075.69  51.95
962.6  809949.60  420671.18  51.94
963.7  810488.00  420634.80  51.90
964.9  810732.15  420591.70  51.88
966.0  811275.15  420766.65  51.86
967.2  811834.80  420806.88  51.83
968.3  813038.00  421628.74  51.86
969.5  813529.90  421624.09  51.83
970.6  813636.50  421897.98  51.85
971.8  813618.23  421968.57  51.86
972.9  814047.50  422429.87  51.89
974.0  814998.80  422733.38  51.87
975.2  814336.88  422136.00  51.84
976.3  815612.00  422786.63  51.84
977.5  814609.28  422480.99  51.86
978.6  813587.78  422844.26  51.97
979.7  813243.20  422888.11  52.00
980.9  814007.40  423189.56  51.99
982.0  813942.30  423339.23  52.01
983.2  814476.60  423470.37  51.99
984.3  812060.90  422794.29  52.06
985.4  810746.30  422625.81  52.13
986.6  811915.23  423227.71  52.13
987.7  811995.13  423097.84  52.11
988.9  812756.78  423604.10  52.12
990.0  812327.85  423856.31  52.18
993.1  842785.20  435788.67  51.71
996.9  843279.00  437669.91  51.90
1000.7  843238.28  439148.37  52.08
1004.5  842302.20  439981.92  52.24
1008.4  842912.74  441704.95  52.40
1012.2  844023.08  443615.83  52.56
1016.0  843895.95  444902.87  52.72
1019.8  842801.90  445690.41  52.88
1023.7  841961.83  446389.68  53.02
1027.5  840285.53  446437.91  53.13
1031.3  839467.41  446773.49  53.22
1035.1  838915.95  447121.32  53.30
1038.9  838758.12  447515.52  53.35
1042.7  838426.25  447876.64  53.42
1046.5  837656.75  447870.31  53.47
1050.3  836052.12  447447.18  53.52
1054.2  833995.53  446779.73  53.57
1058.0  833112.00  446560.80  53.60
1061.8  831921.67  446163.50  53.63
1065.6  830277.17  445434.87  53.65
1069.4  828475.38  444569.68  53.66
1073.2  827016.13  443914.97  53.68
1077.0  825657.07  443226.01  53.68
1080.8  824582.00  442650.18  53.68
1084.6  823428.83  441866.33  53.66
1088.4  822093.45  440999.45  53.64
1092.2  820566.83  439923.19  53.61
1096.0  819298.33  438916.50  53.57
1099.8  817899.38  437810.69  53.53
1103.6  816239.77  436520.00  53.48
1107.4  814868.38  435369.09  53.43
1111.2  813417.75  434167.89  53.38
1114.9  812230.50  433014.67  53.31
1118.7  811492.08  431872.74  53.22
1122.5  811233.37  430826.09  53.11
1126.3  808633.35  428166.90  52.95
1130.1  808036.80  425923.80  52.71
1133.9  804674.37  421475.78  52.38
1137.7  802148.40  416712.31  51.95
1141.4  798618.55  410781.61  51.44
1145.2  797888.30  405999.33  50.88
1149.0  795944.70  400912.83  50.37
1152.8  792713.20  395851.39  49.94
1156.6  789371.77  391624.31  49.61
1160.3  786334.20  388322.70  49.38
1164.1  781685.40  384920.15  49.24
1167.9  778542.50  382756.25  49.16
1171.7  776073.87  381144.69  49.11
1175.4  773885.56  379800.32  49.08
1179.2  772071.75  378666.67  49.05
1183.0  772190.38  378465.89  49.01
1186.7  771941.33  378028.00  48.97
1190.5  770173.04  376863.27  48.93
1194.3  767311.07  375227.64  48.90
1198.0  764336.00  373825.38  48.91
1201.8  761940.67  372851.11  48.93
1205.6  760298.33  372471.44  48.99
1209.3  758976.00  372441.83  49.07
1213.1  757503.83  372366.30  49.16
1216.8  755431.73  372168.65  49.27
1220.6  753267.33  371950.33  49.38
1224.3  750979.17  371657.41  49.49
1228.1  748975.09  371593.02  49.61
1231.9  746882.50  371326.65  49.72
1235.6  744596.05  370902.03  49.81
1239.4  742376.40  370465.64  49.90
1243.1  740292.30  369965.20  49.98
1246.9  738340.63  369465.88  50.04
1250.6  736345.63  368847.65  50.09
1254.3  734481.60  368215.47  50.13
1258.1  732488.00  367491.11  50.17
1261.8  730071.53  366457.57  50.19
1265.6  727550.69  365305.40  50.21
1269.3  724866.73  363870.43  50.20
1273.1  725180.19  363816.49  50.17
1276.8  725626.73  363687.94  50.12
1280.6  725444.67  363177.63  50.06
1284.3  723111.28  361447.65  49.99
1288.0  721004.92  359666.47  49.88
1291.8  718956.00  357663.60  49.75
1295.5  716988.58  355493.80  49.58
1299.2  714620.40  352946.53  49.39
1302.9  711930.18  349950.35  49.16
1306.7  708995.70  346600.80  48.89
1310.4  706142.77  342982.72  48.57
1314.1  703700.63  339332.08  48.22
1317.9  701356.72  335300.96  47.81
1321.6  698647.95  330825.95  47.35
1325.3  695859.53  325989.75  46.85
1329.0  693118.07  320972.50  46.31
1332.8  689330.00  315197.78  45.73
1336.5  685653.50  309457.42  45.13
1340.2  683695.70  304474.77  44.53
