/*** Spectra Vista SIG Data ***/
name= 32_20220825_ACRU_39_avg.sig
comm= Averaged Ref/Tar of files: HR.082522.0016_moc.sig,HR.082522.0017_moc.sig,HR.082522.0018_moc.sig
data=
337.3  3424.13  258.05  7.54
338.8  3607.50  243.71  6.76
340.3  3748.00  243.62  6.50
341.8  3932.35  237.77  6.05
343.2  4129.20  236.80  5.73
344.7  4350.30  233.15  5.36
346.2  4493.50  228.76  5.09
347.7  4719.00  220.22  4.67
349.2  4914.00  211.68  4.31
350.6  5178.23  205.66  3.97
352.1  5465.93  204.82  3.75
353.6  5760.20  222.08  3.86
355.1  6027.83  220.01  3.65
356.6  6358.35  227.24  3.57
358.0  6667.10  216.92  3.25
359.5  6952.50  210.12  3.02
361.0  7301.70  219.45  3.01
362.5  7640.78  226.39  2.96
364.0  8029.00  237.05  2.95
365.4  8401.90  243.53  2.90
366.9  8812.38  243.10  2.76
368.4  9191.68  250.93  2.73
369.9  9539.83  252.23  2.64
371.3  9985.80  270.56  2.71
372.8  10407.60  279.66  2.69
374.3  10857.50  286.67  2.64
375.8  11292.05  291.06  2.58
377.2  11755.30  286.93  2.44
378.7  12185.70  290.52  2.38
380.2  12589.20  290.52  2.31
381.7  13134.15  299.08  2.28
383.1  13636.70  316.21  2.32
384.6  14188.85  312.91  2.21
386.1  14674.58  317.09  2.16
387.6  15172.85  316.21  2.08
389.0  15678.00  321.60  2.05
390.5  16168.95  332.76  2.06
392.0  16769.30  342.09  2.04
393.4  17367.78  350.33  2.02
394.9  17930.70  365.40  2.04
396.4  18500.63  358.80  1.94
397.9  19090.63  369.00  1.93
399.3  19652.20  374.81  1.91
400.8  20239.10  382.18  1.89
402.2  20916.60  392.80  1.88
403.7  21571.20  404.46  1.88
405.2  22183.48  419.84  1.89
406.6  22828.80  423.79  1.86
408.1  23436.20  427.89  1.83
409.6  24079.15  439.00  1.82
411.0  24766.00  446.93  1.80
412.5  25448.15  460.93  1.81
414.0  26141.13  472.70  1.81
415.4  26890.88  487.60  1.81
416.9  27582.53  496.01  1.80
418.4  28292.63  510.45  1.80
419.8  29047.20  521.73  1.80
421.3  29803.40  541.88  1.82
422.7  30641.40  554.48  1.81
424.2  31455.00  569.25  1.81
425.7  32257.70  584.63  1.81
427.1  33026.78  603.46  1.83
428.6  33867.50  617.93  1.82
430.0  34644.53  633.30  1.83
431.5  35551.35  650.73  1.83
432.9  36478.50  666.09  1.83
434.4  37402.58  685.69  1.83
435.9  38276.00  705.60  1.84
437.3  39146.25  724.17  1.85
438.8  40019.10  740.29  1.85
440.2  40923.58  761.79  1.86
441.7  41942.00  778.99  1.86
443.1  42903.50  795.00  1.85
444.6  43911.20  817.44  1.86
446.0  44880.53  839.05  1.87
447.5  45870.83  859.94  1.87
448.9  46852.80  882.36  1.88
450.4  47902.05  904.77  1.89
451.8  48815.00  929.07  1.90
453.3  49776.53  948.37  1.91
454.7  50842.33  971.44  1.91
456.2  51749.43  989.23  1.91
457.6  52768.13  1014.21  1.92
459.1  53793.03  1034.02  1.92
460.5  54770.63  1059.30  1.93
462.0  55871.78  1082.00  1.94
463.4  56964.60  1105.13  1.94
464.8  57997.50  1126.65  1.94
466.3  59045.25  1150.05  1.95
467.7  60086.18  1171.04  1.95
469.2  61212.18  1191.68  1.95
470.6  62227.45  1217.67  1.96
472.0  63309.35  1238.60  1.96
473.5  64353.50  1263.72  1.96
474.9  65421.75  1290.10  1.97
476.4  66643.20  1315.20  1.97
477.8  67773.00  1341.73  1.98
479.2  68846.00  1364.93  1.98
480.7  70015.58  1393.46  1.99
482.1  71195.15  1418.03  1.99
483.6  72437.85  1446.93  2.00
485.0  73590.90  1478.38  2.01
486.4  74845.20  1511.26  2.02
487.9  75976.88  1546.35  2.04
489.3  77232.63  1582.45  2.05
490.7  78351.73  1621.71  2.07
492.2  79644.60  1666.00  2.09
493.6  80794.75  1709.17  2.12
495.0  81958.50  1756.95  2.14
496.5  83207.25  1809.92  2.18
497.9  84381.25  1872.53  2.22
499.3  85599.28  1939.06  2.27
500.7  86918.45  2019.75  2.32
502.2  88125.60  2102.40  2.39
503.6  89410.40  2199.73  2.46
505.0  90537.00  2308.84  2.55
506.5  91915.28  2442.80  2.66
507.9  93189.95  2595.36  2.79
509.3  94646.00  2776.48  2.93
510.7  95969.25  2983.50  3.11
512.2  97431.23  3219.24  3.30
513.6  98986.30  3495.66  3.53
515.0  100456.95  3816.09  3.80
516.4  101875.73  4169.34  4.09
517.8  103564.50  4574.62  4.42
519.3  104943.20  5005.07  4.77
520.7  106569.25  5483.25  5.15
522.1  107942.90  5970.12  5.53
523.5  109351.30  6481.11  5.93
524.9  110818.80  6997.32  6.31
526.3  112245.70  7506.01  6.69
527.8  113854.95  8017.02  7.04
529.2  115177.00  8512.87  7.39
530.6  116770.45  9007.17  7.71
532.0  118538.00  9475.20  7.99
533.4  119894.40  9871.74  8.23
534.8  120836.83  10200.88  8.44
536.3  122575.80  10565.96  8.62
537.7  124639.20  10941.84  8.78
539.1  126158.70  11250.26  8.92
540.5  127416.70  11523.01  9.04
541.9  129254.18  11840.94  9.16
543.3  130577.58  12104.36  9.27
544.7  131977.80  12372.80  9.37
546.1  133834.25  12680.62  9.47
547.5  135094.40  12924.80  9.57
549.0  136950.00  13207.33  9.64
550.4  138496.88  13435.67  9.70
551.8  140098.28  13637.59  9.73
553.2  141705.80  13797.67  9.74
554.6  143104.00  13893.01  9.71
556.0  144693.00  13955.94  9.65
557.4  146356.88  13978.67  9.55
558.8  148056.75  13957.32  9.43
560.2  149566.00  13870.68  9.27
561.6  151298.03  13758.22  9.09
563.0  152935.00  13593.76  8.89
564.4  154578.60  13392.87  8.66
565.8  156166.25  13149.50  8.42
567.2  157992.75  12891.40  8.16
568.6  159536.25  12590.35  7.89
570.0  161036.18  12262.73  7.61
571.4  162821.75  11947.26  7.34
572.8  164638.88  11644.17  7.07
574.2  166331.20  11350.83  6.82
575.6  167940.00  11079.00  6.60
577.0  169511.30  10834.44  6.39
578.4  171307.50  10631.83  6.21
579.8  172870.88  10439.19  6.04
581.2  174678.33  10281.69  5.89
582.5  176131.80  10129.08  5.75
583.9  177719.80  10000.11  5.63
585.3  179566.65  9907.29  5.52
586.7  181096.50  9814.00  5.42
588.1  182651.00  9738.80  5.33
589.5  184362.50  9690.57  5.26
590.9  186049.60  9658.77  5.19
592.3  187923.70  9650.11  5.14
593.7  189427.88  9638.07  5.09
595.0  191118.15  9637.56  5.04
596.4  192605.35  9627.89  5.00
597.8  194150.68  9623.20  4.96
599.2  195769.20  9609.60  4.91
600.6  197583.10  9590.45  4.85
602.0  198931.65  9528.17  4.79
603.3  200783.90  9466.93  4.71
604.7  202499.40  9382.87  4.63
606.1  204046.80  9264.40  4.54
607.5  205755.80  9138.51  4.44
608.9  207490.40  9001.37  4.34
610.2  208939.50  8847.09  4.23
611.6  210606.15  8696.23  4.13
613.0  212212.70  8546.69  4.03
614.4  213637.65  8402.14  3.93
615.8  215133.75  8271.90  3.85
617.1  216722.10  8161.44  3.77
618.5  218418.40  8072.91  3.70
619.9  220009.43  7997.81  3.64
621.3  221677.88  7955.58  3.59
622.6  223321.00  7927.97  3.55
624.0  224812.95  7914.52  3.52
625.4  226331.33  7919.01  3.50
626.8  227966.38  7939.14  3.48
628.1  229340.38  7963.23  3.47
629.5  231283.90  8013.52  3.46
630.9  232954.43  8058.71  3.46
632.2  234390.80  8082.36  3.45
633.6  236068.13  8085.28  3.42
635.0  237669.60  8072.53  3.40
636.3  239259.00  8024.89  3.35
637.7  240695.88  7939.22  3.30
639.1  242392.50  7833.00  3.23
640.4  243932.68  7696.87  3.16
641.8  245182.88  7536.41  3.07
643.2  246816.33  7380.64  2.99
644.5  248236.50  7217.27  2.91
645.9  250015.95  7072.50  2.83
647.2  251828.15  6953.47  2.76
648.6  253752.75  6863.40  2.70
650.0  255333.60  6782.40  2.66
651.3  255891.08  6698.38  2.62
652.7  257099.70  6632.25  2.58
654.0  259273.80  6579.93  2.54
655.4  260819.30  6528.83  2.50
656.8  261140.80  6434.69  2.46
658.1  262298.50  6352.97  2.42
659.5  264759.60  6299.93  2.38
660.8  266580.00  6240.00  2.34
662.2  267500.80  6161.49  2.30
663.5  269255.40  6113.40  2.27
664.9  270592.40  6073.08  2.24
666.2  271417.20  6050.24  2.23
667.6  273280.33  6063.47  2.22
668.9  274489.65  6090.76  2.22
670.3  275637.63  6121.80  2.22
671.6  277292.63  6192.05  2.23
673.0  278509.50  6271.70  2.25
674.3  279808.10  6370.69  2.28
675.7  281169.28  6484.16  2.31
677.0  282360.50  6610.44  2.34
678.4  283770.10  6760.21  2.38
679.7  284937.43  6921.72  2.43
681.1  286290.68  7111.09  2.48
682.4  287521.00  7328.36  2.55
683.8  288824.90  7590.61  2.63
685.1  289859.63  7900.10  2.73
686.4  291219.60  8285.04  2.84
687.8  292565.25  8778.37  3.00
689.1  293677.75  9410.27  3.20
690.5  295154.10  10292.92  3.49
691.8  296018.23  11480.23  3.88
693.1  297417.15  13100.76  4.40
694.5  298639.25  15187.90  5.09
695.8  299936.00  17790.50  5.93
697.1  301210.00  20920.90  6.95
698.5  302341.30  24582.59  8.13
699.8  303459.53  28745.85  9.47
701.1  304683.98  33335.27  10.94
702.5  305507.40  38211.73  12.51
703.8  306540.00  43320.00  14.13
705.1  307738.28  48584.51  15.79
706.5  308864.50  53896.90  17.45
707.8  309905.10  59215.58  19.11
709.1  310830.98  64471.62  20.74
710.5  312058.85  69728.42  22.34
711.8  312980.50  74838.80  23.91
713.1  314050.90  79899.41  25.44
714.4  315032.10  84823.25  26.93
715.8  315901.80  89616.27  28.37
717.1  317302.95  94439.18  29.76
718.4  318304.00  99019.95  31.11
719.7  319482.13  103525.84  32.40
721.0  320062.50  107691.00  33.65
722.4  320886.50  111775.84  34.83
723.7  321924.45  115771.70  35.96
725.0  323013.15  119642.58  37.04
726.3  324023.70  123309.78  38.06
727.6  324617.15  126654.40  39.02
729.0  325603.78  129972.52  39.92
730.3  326425.43  133059.94  40.76
731.6  327387.30  136020.14  41.55
732.9  328270.60  138777.96  42.28
734.2  329120.00  141384.47  42.96
735.5  330220.43  143932.22  43.59
736.8  331065.30  146222.68  44.17
738.1  331947.10  148387.13  44.70
739.5  332938.10  150465.20  45.19
740.8  333692.15  152296.50  45.64
742.1  334487.28  154041.04  46.05
743.4  335300.00  155680.00  46.43
744.7  336363.18  157337.04  46.78
746.0  337332.45  158829.58  47.08
747.3  337925.48  160045.15  47.36
748.6  338741.25  161267.10  47.61
749.9  339560.00  162409.87  47.83
751.2  340368.40  163475.85  48.03
752.5  341309.80  164553.23  48.21
753.8  341999.70  165426.75  48.37
755.1  342758.00  166264.80  48.51
756.4  343389.50  166981.15  48.63
757.7  344450.75  167856.94  48.73
759.0  346327.35  169102.30  48.83
760.3  347608.80  169991.36  48.90
761.6  349258.00  171048.64  48.97
762.9  349836.50  171542.40  49.04
764.2  350264.90  171926.87  49.08
765.5  350595.33  172246.54  49.13
766.8  351097.60  172618.45  49.17
768.1  351679.00  173003.60  49.19
769.3  352343.95  173431.86  49.22
770.6  353064.40  173856.45  49.24
771.9  353849.83  174316.85  49.26
773.2  354318.40  174588.05  49.27
774.5  355011.80  174978.61  49.29
775.8  355720.50  175384.92  49.30
777.1  356358.75  175735.63  49.31
778.4  356748.70  175957.58  49.32
779.6  357621.48  176400.04  49.33
780.9  358140.00  176680.00  49.33
782.2  358674.25  176962.50  49.34
783.5  359046.00  177160.27  49.34
784.8  359604.45  177473.91  49.35
786.0  360062.85  177725.29  49.36
787.3  360514.65  177951.26  49.36
788.6  361054.63  178207.27  49.36
789.9  361573.80  178478.16  49.36
791.2  362299.15  178841.09  49.36
792.4  363021.78  179216.93  49.37
793.7  363559.00  179500.51  49.37
795.0  364261.43  179840.76  49.37
796.2  365009.63  180210.60  49.37
797.5  365793.15  180616.30  49.38
798.8  366551.35  180995.44  49.38
800.0  367309.80  181366.94  49.38
801.3  367859.00  181626.32  49.37
802.6  368547.08  181956.90  49.37
803.8  369222.10  182316.11  49.38
805.1  369778.50  182591.62  49.38
806.4  370332.00  182844.44  49.37
807.7  370937.48  183146.13  49.37
808.9  371544.05  183438.92  49.37
810.2  372165.50  183749.30  49.37
811.4  372729.50  184037.61  49.38
812.7  373384.38  184399.58  49.39
814.0  374259.25  184851.29  49.39
815.2  374998.50  185191.87  49.38
816.5  375486.55  185418.15  49.38
817.7  376008.75  185694.76  49.39
819.0  376581.15  185983.38  49.39
820.2  376772.00  186102.40  49.39
821.5  377515.75  186482.21  49.40
822.7  377910.43  186689.95  49.40
824.0  378307.80  186886.44  49.40
825.2  378841.05  187163.19  49.40
826.5  379240.05  187341.37  49.40
827.7  379829.73  187649.68  49.40
829.0  380298.63  187883.60  49.40
830.2  380666.10  188055.05  49.40
831.5  381190.15  188309.91  49.40
832.7  381530.10  188483.61  49.40
834.0  381937.40  188692.80  49.40
835.2  382329.48  188900.91  49.41
836.4  382626.20  189058.17  49.41
837.7  383085.60  189302.53  49.42
838.9  383597.38  189553.46  49.41
840.1  383995.35  189775.35  49.42
841.4  384530.20  190053.59  49.42
842.6  384890.20  190285.31  49.44
843.8  385295.00  190489.07  49.44
845.1  385775.00  190774.64  49.45
846.3  386202.60  191005.81  49.46
847.5  386715.00  191242.24  49.45
848.8  387115.20  191456.40  49.46
850.0  387552.90  191667.23  49.46
851.2  388123.65  191948.94  49.46
852.5  388564.90  192188.41  49.46
853.7  389085.75  192452.70  49.46
854.9  389593.40  192703.53  49.46
856.1  390050.70  192967.75  49.47
857.4  390332.88  193057.08  49.46
858.6  390824.45  193327.55  49.47
859.8  391275.00  193556.25  49.47
861.0  391786.20  193798.80  49.47
862.2  392334.00  194053.70  49.46
863.5  392739.10  194233.95  49.46
864.7  393346.80  194490.56  49.45
865.9  393717.60  194715.52  49.46
867.1  394181.40  194876.09  49.44
868.3  394684.05  195118.98  49.44
869.5  395119.95  195368.65  49.45
870.8  395734.50  195676.80  49.45
872.0  396290.63  195920.93  49.44
873.2  396767.55  196135.66  49.43
874.4  397323.23  196352.91  49.42
875.6  397678.38  196554.96  49.43
876.8  398330.35  196796.75  49.41
878.0  398778.60  197059.55  49.42
879.2  399447.45  197313.10  49.40
880.4  399978.38  197544.55  49.39
881.6  400462.63  197804.01  49.39
882.8  400950.40  197998.51  49.38
884.0  401621.43  198302.92  49.38
885.2  402279.90  198541.11  49.35
886.5  402934.75  198834.45  49.35
887.7  403492.05  199075.28  49.34
888.8  404165.70  199429.79  49.34
890.0  404838.55  199716.65  49.33
891.2  405533.60  199980.79  49.31
892.4  406231.88  200287.36  49.30
893.6  406886.05  200549.31  49.29
894.8  407910.75  201000.07  49.28
896.0  408810.75  201451.03  49.28
897.2  409649.50  201862.70  49.28
898.4  410529.90  202226.64  49.26
899.6  411241.13  202500.85  49.24
900.8  411684.63  202697.13  49.24
902.0  411971.40  202805.72  49.23
903.2  412395.00  202985.16  49.22
904.3  412764.90  203141.84  49.21
905.5  413455.73  203430.50  49.20
906.7  414275.00  203740.07  49.18
907.9  414885.45  203999.74  49.17
909.1  415368.68  204153.84  49.15
910.2  415553.33  204259.44  49.15
911.4  415779.98  204352.20  49.15
912.6  416065.65  204447.10  49.14
913.8  416377.28  204569.93  49.13
915.0  416958.15  204751.40  49.11
916.2  417261.00  204828.00  49.09
917.3  417415.28  204840.54  49.07
918.5  417621.00  204916.17  49.07
919.7  417934.35  204989.98  49.05
920.8  418097.58  205018.13  49.04
922.0  418264.00  205071.53  49.03
923.2  418645.50  205150.40  49.00
924.4  418861.13  205200.90  48.99
925.5  419216.40  205305.67  48.97
926.7  420006.25  205551.53  48.94
927.9  420786.00  205948.96  48.94
929.0  422467.65  206657.46  48.92
930.2  424933.10  207738.40  48.89
931.4  427497.75  208835.46  48.85
932.5  430355.95  210152.72  48.83
933.7  431930.08  210861.33  48.82
934.9  432853.75  211128.17  48.78
936.0  432305.25  210802.15  48.76
937.2  430170.00  209702.36  48.75
938.3  428405.45  208714.63  48.72
939.5  427060.80  207912.96  48.68
940.7  427515.30  207930.24  48.64
941.8  429089.55  208592.02  48.61
943.0  430737.75  209244.50  48.58
944.2  431419.30  209511.73  48.56
945.3  431262.00  209085.50  48.48
946.5  430656.75  208591.74  48.44
947.6  430791.30  208549.52  48.41
948.8  430929.53  208331.11  48.34
949.9  431121.60  208243.84  48.30
951.1  430727.70  207877.58  48.26
952.2  430440.00  207508.80  48.21
953.4  430251.00  207111.83  48.14
954.5  430677.00  206893.44  48.04
955.7  430756.20  206603.04  47.96
956.8  430570.40  206307.72  47.91
958.0  430153.00  205965.47  47.88
959.1  430006.13  205620.43  47.82
960.3  429593.30  205321.68  47.79
961.4  429695.60  205090.52  47.73
962.6  429871.75  205130.10  47.72
963.7  429809.40  204960.86  47.69
964.9  429754.80  204903.34  47.68
966.0  429739.43  204814.17  47.66
967.2  429772.05  204733.86  47.64
968.3  429547.05  204561.72  47.62
969.5  429706.78  204425.24  47.57
970.6  429622.80  204417.30  47.58
971.8  429974.30  204527.24  47.57
972.9  429621.60  204486.56  47.60
974.0  430188.00  204621.75  47.57
975.2  430158.63  204538.55  47.55
976.3  430230.00  204598.27  47.56
977.5  430363.15  204668.31  47.56
978.6  430507.60  204744.51  47.56
979.7  430246.43  204660.82  47.57
980.9  430633.38  204599.70  47.51
982.0  430515.15  204714.67  47.55
983.2  430709.78  204642.49  47.51
984.3  430689.60  204613.81  47.51
985.4  430459.80  204815.55  47.58
986.6  430501.63  204872.10  47.59
987.7  431772.95  205407.39  47.57
988.9  431564.40  205257.36  47.56
990.0  432981.50  205793.56  47.53
993.1  375044.48  177146.19  47.23
996.9  375810.83  177957.27  47.35
1000.7  376899.66  178905.50  47.47
1004.5  377573.92  179544.83  47.55
1008.4  377477.29  179842.64  47.64
1012.2  377673.42  180239.97  47.72
1016.0  377862.60  180668.74  47.81
1019.8  378216.30  181109.78  47.89
1023.7  378354.30  181382.85  47.94
1027.5  378138.57  181487.65  48.00
1031.3  378433.13  181770.49  48.03
1035.1  378286.01  181817.51  48.06
1038.9  378277.72  181898.09  48.09
1042.7  378140.42  181926.96  48.11
1046.5  377990.50  181911.69  48.13
1050.3  378100.00  181983.13  48.13
1054.2  377832.58  181896.00  48.14
1058.0  377373.33  181646.65  48.13
1061.8  377235.18  181603.83  48.14
1065.6  376978.40  181414.20  48.12
1069.4  376993.00  181376.86  48.11
1073.2  376631.18  181136.15  48.09
1077.0  376213.25  180844.87  48.07
1080.8  375791.67  180499.11  48.03
1084.6  374716.88  179845.28  47.99
1088.4  374064.32  179414.05  47.96
1092.2  373200.75  178838.68  47.92
1096.0  372615.83  178377.15  47.87
1099.8  372105.50  177927.01  47.82
1103.6  371416.95  177381.52  47.76
1107.4  370462.72  176693.69  47.70
1111.2  370210.50  176330.29  47.63
1114.9  369549.25  175729.08  47.55
1118.7  368953.20  175080.09  47.45
1122.5  368261.40  174326.29  47.34
1126.3  367138.57  173298.21  47.20
1130.1  366633.03  172375.29  47.02
1133.9  365008.70  170692.10  46.76
1137.7  363577.90  168867.36  46.45
1141.4  361788.81  166667.12  46.07
1145.2  361090.58  164805.08  45.64
1149.0  359975.00  162849.38  45.24
1152.8  358356.35  160848.09  44.88
1156.6  356655.02  159139.57  44.62
1160.3  354877.33  157711.29  44.44
1164.1  352401.13  156218.45  44.33
1167.9  350582.29  155174.70  44.26
1171.7  349295.63  154467.00  44.22
1175.4  348102.17  153856.57  44.20
1179.2  347041.38  153289.85  44.17
1183.0  346764.00  153048.95  44.14
1186.7  346288.60  152701.90  44.10
1190.5  345230.80  152117.47  44.06
1194.3  344002.83  151473.78  44.03
1198.0  342763.03  150889.55  44.02
1201.8  341276.28  150248.19  44.03
1205.6  340069.67  149802.43  44.05
1209.3  339078.68  149546.63  44.10
1213.1  338064.98  149275.73  44.16
1216.8  337000.22  149046.83  44.23
1220.6  335843.20  148755.20  44.29
1224.3  334548.17  148395.75  44.36
1228.1  333253.20  148058.03  44.43
1231.9  331986.25  147674.77  44.48
1235.6  330510.53  147160.40  44.53
1239.4  329141.00  146722.43  44.58
1243.1  327886.63  146266.30  44.61
1246.9  326685.95  145803.61  44.63
1250.6  325705.20  145403.47  44.64
1254.3  324642.08  144940.24  44.65
1258.1  323653.40  144491.90  44.64
1261.8  322347.33  143890.40  44.64
1265.6  320933.12  143198.53  44.62
1269.3  319510.15  142445.64  44.58
1273.1  319444.68  142266.98  44.54
1276.8  319701.60  142192.69  44.48
1280.6  319559.17  141929.40  44.41
1284.3  318176.40  141093.89  44.34
1288.0  316712.50  140167.90  44.26
1291.8  315413.17  139232.85  44.14
1295.5  313986.93  138205.05  44.02
1299.2  312678.29  137173.01  43.87
1302.9  311183.34  135988.72  43.70
1306.7  309619.57  134695.75  43.50
1310.4  308089.63  133304.09  43.27
1314.1  306691.92  131895.89  43.01
1317.9  305444.17  130437.53  42.70
1321.6  304015.63  128805.80  42.37
1325.3  302353.28  126950.40  41.99
1329.0  300989.97  125163.95  41.58
1332.8  298867.80  122953.60  41.14
1336.5  297028.27  120840.03  40.68
1340.2  296629.67  119309.67  40.22
1343.9  296136.67  117729.88  39.76
1347.6  295434.90  116069.23  39.29
1351.4  295616.00  114795.21  38.83
1355.1  295924.57  113610.10  38.39
1358.8  296048.00  112276.57  37.93
